Database of Origin, USGS Spectral Database
Sample Description, See USGS database for additional info
Date Added,2017-07-03 06:06:53.367258

Data ID,USGS_oli27          
Sample ID, olivine_ki3189.16976
Mineral Name, olivine
Material Class,Nesosilicate

Wavelength
1414.5, 0.198234
1414.89, 0.198378
1415.28, 0.198618
1415.66, 0.198426
1416.05, 0.198474
1416.44, 0.199001
1416.82, 0.199241
1417.21, 0.199625
1417.6, 0.200153
1417.98, 0.200153
1418.37, 0.200296
1418.76, 0.200680
1419.15, 0.200824
1419.54, 0.200920
1419.93, 0.201256
1420.32, 0.201831
1420.71, 0.202215
1421.09, 0.202311
1421.48, 0.202599
1421.88, 0.202791
1422.27, 0.202934
1422.66, 0.203078
1423.05, 0.203222
1423.44, 0.203942
1423.83, 0.204086
1424.22, 0.203942
1424.61, 0.204134
1425.0, 0.204709
1425.39, 0.204709
1425.78, 0.204853
1426.18, 0.205189
1426.57, 0.205668
1426.96, 0.206244
1427.36, 0.206436
1427.75, 0.206819
1428.14, 0.207155
1428.54, 0.206867
1428.93, 0.206963
1429.32, 0.207299
1429.72, 0.207347
1430.11, 0.207491
1430.51, 0.207971
1430.9, 0.208594
1431.3, 0.209026
1431.69, 0.209314
1432.09, 0.209937
1432.48, 0.210129
1432.88, 0.210177
1433.28, 0.210273
1433.67, 0.210800
1434.07, 0.211232
1434.46, 0.211520
1434.86, 0.211712
1435.26, 0.212048
1435.66, 0.211904
1436.05, 0.212239
1436.45, 0.212383
1436.85, 0.212719
1437.25, 0.213055
1437.65, 0.213247
1438.05, 0.213295
1438.44, 0.213486
1438.84, 0.214014
1439.24, 0.214446
1439.64, 0.215165
1440.04, 0.215405
1440.44, 0.215549
1440.84, 0.215933
1441.24, 0.216220
1441.65, 0.216076
1442.05, 0.216268
1442.45, 0.216844
1442.85, 0.217419
1443.25, 0.217803
1443.65, 0.217755
1444.05, 0.218043
1444.46, 0.218331
1444.86, 0.218283
1445.26, 0.218714
1445.67, 0.219290
1446.07, 0.219722
1446.47, 0.220393
1446.88, 0.220441
1447.28, 0.220585
1447.68, 0.220825
1448.09, 0.220873
1448.49, 0.220921
1448.9, 0.221688
1449.3, 0.222312
1449.71, 0.222552
1450.11, 0.222743
1450.52, 0.222695
1450.93, 0.222791
1451.33, 0.223463
1451.74, 0.223703
1452.14, 0.223895
1452.55, 0.224038
1452.96, 0.224374
1453.36, 0.224902
1453.77, 0.225525
1454.18, 0.225861
1454.59, 0.226149
1455.0, 0.226389
1455.41, 0.226293
1455.81, 0.226533
1456.22, 0.227060
1456.63, 0.227300
1457.04, 0.227636
1457.45, 0.227828
1457.86, 0.228115
1458.27, 0.228499
1458.68, 0.228739
1459.09, 0.229171
1459.5, 0.229650
1459.91, 0.229842
1460.32, 0.229842
1460.74, 0.230178
1461.15, 0.230657
1461.56, 0.230705
1461.97, 0.230993
1462.39, 0.231233
1462.8, 0.231473
1463.21, 0.232144
1463.62, 0.232672
1464.04, 0.232816
1464.45, 0.232960
1464.86, 0.233152
1465.28, 0.233631
1465.69, 0.234015
1466.11, 0.234495
1466.52, 0.235022
1466.94, 0.235454
1467.35, 0.235646
1467.77, 0.235742
1468.18, 0.236221
1468.6, 0.236605
1469.02, 0.236797
1469.43, 0.236941
1469.85, 0.237276
1470.27, 0.237660
1470.68, 0.237948
1471.1, 0.238380
1471.52, 0.238955
1471.94, 0.239387
1472.35, 0.239723
1472.77, 0.240106
1473.19, 0.240442
1473.61, 0.240682
1474.03, 0.240922
1474.45, 0.241401
1474.87, 0.241689
1475.29, 0.242169
1475.71, 0.242696
1476.13, 0.242888
1476.55, 0.243224
1476.97, 0.243656
1477.39, 0.244327
1477.81, 0.244615
1478.23, 0.245095
1478.65, 0.245622
1479.07, 0.245718
1479.5, 0.246054
1479.92, 0.246485
1480.34, 0.246773
1480.76, 0.247157
1481.19, 0.247637
1481.61, 0.247780
1482.03, 0.248260
1482.46, 0.248644
1482.88, 0.249075
1483.31, 0.249219
1483.73, 0.249651
1484.16, 0.250131
1484.58, 0.250610
1485.01, 0.251186
1485.43, 0.251618
1485.86, 0.252001
1486.28, 0.252721
1486.71, 0.252961
1487.14, 0.253248
1487.56, 0.253440
1487.99, 0.254016
1488.42, 0.254543
1488.84, 0.254879
1489.27, 0.255023
1489.7, 0.255359
1490.13, 0.255790
1490.56, 0.256318
1490.98, 0.256942
1491.41, 0.257229
1491.84, 0.257229
1492.27, 0.257565
1492.7, 0.258093
1493.13, 0.258668
1493.56, 0.259244
1493.99, 0.259675
1494.42, 0.260155
1494.85, 0.260491
1495.29, 0.260779
1495.72, 0.261210
1496.15, 0.261402
1496.58, 0.261642
1497.01, 0.262170
1497.44, 0.262937
1497.88, 0.263225
1498.31, 0.263369
1498.74, 0.263800
1499.18, 0.264472
1499.61, 0.264999
1500.04, 0.265191
1500.48, 0.265431
1500.91, 0.265911
1501.35, 0.266438
1501.78, 0.266966
1502.22, 0.267254
1502.65, 0.267829
1503.09, 0.268117
1503.53, 0.268213
1503.96, 0.268693
1504.4, 0.269268
1504.83, 0.269940
1505.27, 0.270323
1505.71, 0.270659
1506.15, 0.270899
1506.58, 0.271523
1507.02, 0.272098
1507.46, 0.272146
1507.9, 0.272194
1508.34, 0.272674
1508.78, 0.273201
1509.21, 0.273777
1509.66, 0.274065
1510.09, 0.274640
1510.53, 0.275024
1510.97, 0.275312
1511.42, 0.275743
1511.86, 0.276223
1512.3, 0.276751
1512.74, 0.277182
1513.18, 0.277566
1513.62, 0.278141
1514.06, 0.278477
1514.51, 0.278813
1514.95, 0.279197
1515.39, 0.279580
1515.83, 0.280156
1516.28, 0.280827
1516.72, 0.281163
1517.16, 0.281355
1517.61, 0.281547
1518.05, 0.281835
1518.5, 0.282075
1518.94, 0.282650
1519.39, 0.283465
1519.83, 0.283897
1520.28, 0.284089
1520.73, 0.284761
1521.17, 0.285384
1521.62, 0.285624
1522.07, 0.285912
1522.51, 0.286439
1522.96, 0.287255
1523.41, 0.287542
1523.85, 0.288118
1524.3, 0.288550
1524.75, 0.288981
1525.2, 0.289461
1525.65, 0.289845
1526.1, 0.290372
1526.55, 0.290612
1527.0, 0.290852
1527.45, 0.291140
1527.9, 0.291571
1528.35, 0.292243
1528.8, 0.292675
1529.25, 0.293154
1529.7, 0.293874
1530.15, 0.294161
1530.6, 0.294737
1531.05, 0.295217
1531.51, 0.295648
1531.96, 0.296080
1532.41, 0.296464
1532.87, 0.296943
1533.32, 0.297567
1533.77, 0.298334
1534.23, 0.298910
1534.68, 0.299150
1535.14, 0.299629
1535.59, 0.300205
1536.05, 0.300780
1536.5, 0.301212
1536.96, 0.301692
1537.41, 0.302219
1537.87, 0.302411
1538.32, 0.302987
1538.78, 0.303418
1539.24, 0.303802
1539.7, 0.304186
1540.15, 0.304953
1540.61, 0.305625
1541.07, 0.306056
1541.53, 0.306392
1541.98, 0.306920
1542.44, 0.307495
1542.9, 0.307831
1543.36, 0.308167
1543.82, 0.308886
1544.28, 0.309510
1544.74, 0.309989
1545.2, 0.310565
1545.66, 0.310901
1546.12, 0.311380
1546.59, 0.311908
1547.05, 0.312627
1547.51, 0.313011
1547.97, 0.313827
1548.43, 0.314498
1548.9, 0.314882
1549.36, 0.315217
1549.82, 0.315649
1550.29, 0.316177
1550.75, 0.316656
1551.21, 0.317184
1551.68, 0.317855
1552.14, 0.318239
1552.61, 0.318479
1553.07, 0.319198
1553.54, 0.319726
1554.0, 0.319966
1554.47, 0.320254
1554.93, 0.321261
1555.4, 0.322124
1555.87, 0.322220
1556.34, 0.322412
1556.8, 0.322988
1557.27, 0.323611
1557.74, 0.324426
1558.21, 0.325098
1558.68, 0.325386
1559.14, 0.325913
1559.61, 0.326297
1560.08, 0.326681
1560.55, 0.327112
1561.02, 0.327640
1561.49, 0.328216
1561.96, 0.328695
1562.43, 0.329367
1562.9, 0.329846
1563.38, 0.330278
1563.85, 0.330902
1564.32, 0.331333
1564.79, 0.331717
1565.26, 0.332340
1565.74, 0.332964
1566.21, 0.333348
1566.68, 0.333636
1567.16, 0.334067
1567.63, 0.334691
1568.1, 0.335314
1568.58, 0.335554
1569.05, 0.335986
1569.53, 0.336705
1570.0, 0.337377
1570.48, 0.337760
1570.96, 0.338288
1571.43, 0.338768
1571.91, 0.339055
1572.39, 0.339583
1572.86, 0.340207
1573.34, 0.340542
1573.82, 0.341166
1574.3, 0.341933
1574.77, 0.342365
1575.25, 0.342605
1575.73, 0.343036
1576.21, 0.343468
1576.69, 0.343948
1577.17, 0.344235
1577.65, 0.344763
1578.13, 0.345195
1578.61, 0.345722
1579.09, 0.346250
1579.57, 0.346778
1580.05, 0.347305
1580.54, 0.347881
1581.02, 0.348456
1581.5, 0.348840
1581.98, 0.349176
1582.47, 0.349703
1582.95, 0.350423
1583.43, 0.351046
1583.92, 0.351142
1584.4, 0.351766
1584.88, 0.352149
1585.37, 0.352629
1585.85, 0.353301
1586.34, 0.353924
1586.82, 0.354404
1587.31, 0.355123
1587.8, 0.355411
1588.28, 0.355843
1588.77, 0.356083
1589.26, 0.356562
1589.74, 0.357234
1590.23, 0.357953
1590.72, 0.358433
1591.21, 0.358816
1591.7, 0.359392
1592.19, 0.359920
1592.67, 0.360447
1593.16, 0.360975
1593.65, 0.361407
1594.14, 0.361838
1594.63, 0.362462
1595.12, 0.363133
1595.61, 0.363709
1596.11, 0.364284
1596.6, 0.364668
1597.09, 0.365387
1597.58, 0.366203
1598.08, 0.366539
1598.57, 0.366778
1599.06, 0.367258
1599.55, 0.368025
1600.05, 0.368649
1600.54, 0.369225
1601.04, 0.369656
1601.53, 0.370328
1602.03, 0.371095
1602.52, 0.371527
1603.02, 0.371958
1603.51, 0.372534
1604.01, 0.373014
1604.5, 0.373349
1605.0, 0.374213
1605.5, 0.374692
1606.0, 0.375172
1606.49, 0.375939
1606.99, 0.376563
1607.49, 0.377091
1607.99, 0.377378
1608.49, 0.377762
1608.99, 0.378386
1609.49, 0.378913
1609.99, 0.379537
1610.49, 0.380400
1610.99, 0.381168
1611.49, 0.381359
1611.99, 0.381791
1612.49, 0.382511
1612.99, 0.383374
1613.49, 0.383518
1614.0, 0.383949
1614.5, 0.384669
1615.0, 0.385148
1615.51, 0.385724
1616.01, 0.386348
1616.51, 0.386971
1617.02, 0.387595
1617.52, 0.388074
1618.03, 0.388794
1618.53, 0.389321
1619.04, 0.389897
1619.54, 0.390520
1620.05, 0.390952
1620.55, 0.391480
1621.06, 0.392151
1621.57, 0.392391
1622.08, 0.392727
1622.58, 0.393398
1623.09, 0.394118
1623.6, 0.394549
1624.11, 0.394741
1624.62, 0.395461
1625.13, 0.396372
1625.64, 0.396852
1626.15, 0.397235
1626.66, 0.397427
1627.17, 0.397955
1627.68, 0.398482
1628.19, 0.399058
1628.7, 0.399586
1629.21, 0.400065
1629.72, 0.400497
1630.24, 0.401072
1630.75, 0.401792
1631.26, 0.402320
1631.78, 0.402559
1632.29, 0.402943
1632.8, 0.403663
1633.32, 0.404094
1633.83, 0.404526
1634.35, 0.405149
1634.86, 0.405629
1635.38, 0.405917
1635.9, 0.406396
1636.41, 0.406828
1636.93, 0.407068
1637.45, 0.407643
1637.96, 0.408171
1638.48, 0.408747
1639.0, 0.409178
1639.52, 0.409754
1640.04, 0.410042
1640.56, 0.410473
1641.08, 0.411241
1641.59, 0.411816
1642.11, 0.412152
1642.63, 0.412440
1643.16, 0.412728
1643.68, 0.413399
1644.2, 0.414071
1644.72, 0.414550
1645.24, 0.415126
1645.76, 0.415462
1646.29, 0.415701
1646.81, 0.416085
1647.33, 0.416613
1647.86, 0.417380
1648.38, 0.417764
1648.9, 0.418243
1649.43, 0.418771
1649.95, 0.419011
1650.48, 0.419490
1651.0, 0.420114
1651.53, 0.420402
1652.06, 0.420738
1652.58, 0.421409
1653.11, 0.421937
1653.64, 0.422512
1654.17, 0.422992
1654.69, 0.423136
1655.22, 0.423711
1655.75, 0.424191
1656.28, 0.424719
1656.81, 0.425294
1657.34, 0.425870
1657.87, 0.426301
1658.4, 0.426685
1658.93, 0.426925
1659.46, 0.427405
1659.99, 0.427980
1660.52, 0.428412
1661.05, 0.429131
1661.59, 0.429563
1662.12, 0.430186
1662.65, 0.430570
1663.19, 0.430954
1663.72, 0.431673
1664.26, 0.432057
1664.79, 0.432345
1665.32, 0.432968
1665.86, 0.433592
1666.39, 0.433928
1666.93, 0.434551
1667.47, 0.435319
1668.0, 0.435942
1668.54, 0.436326
1669.08, 0.436518
1669.61, 0.436901
1670.15, 0.437621
1670.69, 0.438340
1671.23, 0.438580
1671.77, 0.439204
1672.31, 0.439827
1672.85, 0.440259
1673.39, 0.440786
1673.93, 0.441506
1674.47, 0.442129
1675.01, 0.442465
1675.55, 0.442705
1676.09, 0.443233
1676.64, 0.444048
1677.18, 0.444767
1677.72, 0.445151
1678.26, 0.445775
1678.81, 0.446302
1679.35, 0.446590
1679.89, 0.447022
1680.44, 0.447693
1680.98, 0.448413
1681.53, 0.448652
1682.07, 0.448940
1682.62, 0.449804
1683.17, 0.450139
1683.71, 0.450667
1684.26, 0.451386
1684.81, 0.451722
1685.36, 0.452106
1685.9, 0.452681
1686.45, 0.453257
1687.0, 0.453545
1687.55, 0.454072
1688.1, 0.454600
1688.65, 0.455080
1689.2, 0.455463
1689.75, 0.455895
1690.3, 0.456375
1690.85, 0.456902
1691.41, 0.457142
1691.96, 0.457622
1692.51, 0.458197
1693.06, 0.458677
1693.61, 0.459061
1694.17, 0.459588
1694.72, 0.459972
1695.28, 0.460547
1695.83, 0.460979
1696.39, 0.461363
1696.94, 0.461699
1697.5, 0.462130
1698.05, 0.462658
1698.61, 0.462994
1699.17, 0.463521
1699.72, 0.464193
1700.28, 0.464433
1700.84, 0.464433
1701.4, 0.464576
1701.95, 0.465200
1702.51, 0.465871
1703.07, 0.466063
1703.63, 0.466591
1704.19, 0.466975
1704.75, 0.467214
1705.31, 0.467310
1705.88, 0.468030
1706.44, 0.468557
1707.0, 0.468893
1707.56, 0.469325
1708.12, 0.469613
1708.69, 0.469804
1709.25, 0.470092
1709.81, 0.470764
1710.38, 0.471195
1710.94, 0.471387
1711.51, 0.471627
1712.07, 0.472059
1712.64, 0.472490
1713.2, 0.472874
1713.77, 0.473402
1714.34, 0.473737
1714.9, 0.474025
1715.47, 0.474313
1716.04, 0.474649
1716.61, 0.474937
1717.18, 0.475416
1717.74, 0.475752
1718.31, 0.475992
1718.88, 0.476615
1719.45, 0.477143
1720.02, 0.477335
1720.59, 0.477622
1721.17, 0.478150
1721.74, 0.478534
1722.31, 0.478966
1722.88, 0.479349
1723.45, 0.479685
1724.03, 0.479877
1724.6, 0.480308
1725.18, 0.480596
1725.75, 0.481124
1726.33, 0.481460
1726.9, 0.481939
1727.48, 0.482275
1728.05, 0.482467
1728.63, 0.482659
1729.2, 0.483234
1729.78, 0.483714
1730.36, 0.484002
1730.94, 0.484337
1731.51, 0.484673
1732.09, 0.484961
1732.67, 0.485345
1733.25, 0.485489
1733.83, 0.485920
1734.41, 0.486400
1734.99, 0.486832
1735.57, 0.487407
1736.15, 0.488031
1736.73, 0.488462
1737.32, 0.488558
1737.9, 0.488702
1738.48, 0.489278
1739.07, 0.489997
1739.65, 0.490573
1740.23, 0.491100
1740.82, 0.491436
1741.4, 0.491580
1741.99, 0.491820
1742.57, 0.492539
1743.16, 0.493163
1743.74, 0.493355
1744.33, 0.493786
1744.92, 0.494074
1745.51, 0.494506
1746.09, 0.494985
1746.68, 0.495561
1747.27, 0.495993
1747.86, 0.496472
1748.45, 0.496616
1749.04, 0.496904
1749.63, 0.497479
1750.22, 0.498055
1750.81, 0.498391
1751.4, 0.498822
1751.99, 0.499158
1752.59, 0.499542
1753.18, 0.499878
1753.77, 0.500309
1754.37, 0.500837
1754.96, 0.501173
1755.56, 0.501508
1756.15, 0.502084
1756.74, 0.502420
1757.34, 0.502947
1757.94, 0.503139
1758.53, 0.503331
1759.13, 0.503811
1759.73, 0.504434
1760.32, 0.504674
1760.92, 0.505010
1761.52, 0.505441
1762.12, 0.505969
1762.72, 0.506113
1763.32, 0.506449
1763.92, 0.506928
1764.52, 0.507600
1765.12, 0.507840
1765.72, 0.508175
1766.32, 0.508655
1766.92, 0.508943
1767.53, 0.509279
1768.13, 0.509662
1768.73, 0.510046
1769.34, 0.510430
1769.94, 0.510526
1770.55, 0.510765
1771.15, 0.511245
1771.76, 0.511677
1772.36, 0.511869
1772.97, 0.511917
1773.57, 0.512300
1774.18, 0.512972
1774.79, 0.513020
1775.4, 0.513355
1776.0, 0.513595
1776.61, 0.513883
1777.22, 0.514027
1777.83, 0.514363
1778.44, 0.514603
1779.05, 0.514890
1779.66, 0.515082
1780.27, 0.515514
1780.88, 0.516089
1781.5, 0.516473
1782.11, 0.516569
1782.72, 0.516569
1783.33, 0.516713
1783.95, 0.517049
1784.56, 0.517289
1785.18, 0.517576
1785.79, 0.517912
1786.41, 0.518056
1787.02, 0.518248
1787.64, 0.518488
1788.26, 0.518823
1788.87, 0.519111
1789.49, 0.519207
1790.11, 0.519735
1790.73, 0.519831
1791.35, 0.519879
1791.96, 0.520118
1792.58, 0.520310
1793.21, 0.520406
1793.83, 0.520694
1794.45, 0.521126
1795.07, 0.521509
1795.69, 0.521653
1796.31, 0.521989
1796.93, 0.522133
1797.56, 0.522325
1798.18, 0.522517
1798.8, 0.522900
1799.43, 0.523428
1800.05, 0.523860
1800.68, 0.524003
1801.3, 0.524243
1801.93, 0.524195
1802.56, 0.524483
1803.18, 0.524675
1803.81, 0.524723
1804.44, 0.524723
1805.07, 0.525250
1805.7, 0.526066
1806.33, 0.526306
1806.95, 0.526162
1807.58, 0.526306
1808.22, 0.526593
1808.85, 0.526689
1809.48, 0.526785
1810.11, 0.527361
1810.74, 0.527936
1811.38, 0.528032
1812.01, 0.528368
1812.64, 0.528752
1813.28, 0.528560
1813.91, 0.528752
1814.55, 0.529423
1815.18, 0.530622
1815.82, 0.530478
1816.45, 0.530383
1817.09, 0.530478
1817.73, 0.530910
1818.36, 0.531342
1819.0, 0.531246
1819.64, 0.533021
1820.28, 0.534939
1820.92, 0.534220
1821.56, 0.534268
1822.2, 0.533692
1822.84, 0.533308
1823.48, 0.533356
1824.12, 0.533548
1824.76, 0.533788
1825.41, 0.536378
1826.05, 0.538824
1826.69, 0.536522
1827.34, 0.535179
1827.98, 0.536522
1828.63, 0.536954
1829.27, 0.537337
1829.92, 0.537961
1830.56, 0.539448
1831.21, 0.539352
1831.86, 0.538393
1832.5, 0.538728
1833.15, 0.538201
1833.8, 0.538441
1834.45, 0.540407
1835.1, 0.541462
1835.75, 0.543045
1836.4, 0.542997
1837.05, 0.543285
1837.7, 0.543956
1838.35, 0.541366
1839.01, 0.543045
1839.66, 0.545491
1840.31, 0.543573
1840.96, 0.544628
1841.62, 0.547841
1842.27, 0.545203
1842.93, 0.542853
1843.58, 0.542709
1844.24, 0.542469
1844.9, 0.542565
1845.55, 0.543333
1846.21, 0.547266
1846.87, 0.550527
1847.53, 0.549376
1848.18, 0.548657
1848.84, 0.545875
1849.5, 0.545251
1850.16, 0.545779
1850.82, 0.545395
1851.48, 0.544964
1852.14, 0.546642
1852.81, 0.548705
1853.47, 0.551439
1854.13, 0.549808
1854.8, 0.546930
1855.46, 0.547410
1856.12, 0.550431
1856.79, 0.550288
1857.45, 0.547985
1858.12, 0.547554
1858.79, 0.550000
1859.45, 0.553549
1860.12, 0.551870
1860.79, 0.549424
1861.46, 0.548513
1862.12, 0.548561
1862.79, 0.548753
1863.46, 0.549616
1864.13, 0.550288
1864.8, 0.549424
1865.48, 0.548945
1866.15, 0.549280
1866.82, 0.551774
1867.49, 0.555180
1868.16, 0.553357
1868.84, 0.551678
1869.51, 0.552398
1870.19, 0.555755
1870.86, 0.557818
1871.54, 0.553549
1872.21, 0.554892
1872.89, 0.558345
1873.56, 0.555372
1874.24, 0.552782
1874.92, 0.553213
1875.6, 0.552878
1876.28, 0.554269
1876.96, 0.555036
1877.64, 0.552446
1878.32, 0.551583
1879.0, 0.551535
1879.68, 0.551583
1880.36, 0.552110
1881.04, 0.552398
1881.73, 0.552254
1882.41, 0.552254
1883.09, 0.553501
1883.78, 0.555372
1884.46, 0.553837
1885.15, 0.552830
1885.83, 0.553261
1886.52, 0.553837
1887.21, 0.553405
1887.89, 0.553021
1888.58, 0.553165
1889.27, 0.554940
1889.96, 0.556667
1890.65, 0.554892
1891.34, 0.554556
1892.03, 0.555324
1892.72, 0.554940
1893.41, 0.555132
1894.1, 0.554796
1894.79, 0.554364
1895.49, 0.554364
1896.18, 0.554460
1896.87, 0.555324
1897.57, 0.556139
1898.26, 0.556427
1898.96, 0.559353
1899.65, 0.560360
1900.35, 0.558058
1901.05, 0.555995
1901.74, 0.556427
1902.44, 0.559401
1903.14, 0.558489
1903.84, 0.556523
1904.54, 0.559353
1905.24, 0.561367
1905.94, 0.560552
1906.64, 0.560264
1907.34, 0.557962
1908.04, 0.557242
1908.75, 0.557434
1909.45, 0.557770
1910.15, 0.558633
1910.86, 0.559497
1911.56, 0.559640
1912.27, 0.559545
1912.97, 0.562087
1913.68, 0.562422
1914.39, 0.560072
1915.09, 0.559880
1915.8, 0.560792
1916.51, 0.560552
1917.22, 0.559928
1917.93, 0.560024
1918.64, 0.560792
1919.35, 0.563573
1920.06, 0.566164
1920.77, 0.565108
1921.48, 0.561895
1922.19, 0.561415
1922.91, 0.562183
1923.62, 0.563621
1924.33, 0.563094
1925.05, 0.562374
1925.76, 0.562614
1926.48, 0.563430
1927.19, 0.563765
1927.91, 0.564629
1928.63, 0.564773
1929.35, 0.564005
1930.07, 0.564197
1930.78, 0.564437
1931.5, 0.564485
1932.22, 0.564581
1932.94, 0.565060
1933.66, 0.565492
1934.39, 0.564964
1935.11, 0.564916
1935.83, 0.566020
1936.55, 0.566355
1937.28, 0.565828
1938.0, 0.565828
1938.73, 0.566451
1939.45, 0.566595
1940.18, 0.566499
1940.9, 0.566883
1941.63, 0.566739
1942.36, 0.566691
1943.09, 0.566739
1943.81, 0.567219
1944.54, 0.567506
1945.27, 0.567075
1946.0, 0.567219
1946.73, 0.567363
1947.47, 0.567459
1948.2, 0.567554
1948.93, 0.567746
1949.66, 0.567794
1950.4, 0.567794
1951.13, 0.567890
1951.86, 0.568082
1952.6, 0.568322
1953.34, 0.568418
1954.07, 0.568610
1954.81, 0.568658
1955.55, 0.568466
1956.29, 0.568562
1957.02, 0.568850
1957.76, 0.568802
1958.5, 0.568802
1959.24, 0.568658
1959.98, 0.568850
1960.72, 0.568993
1961.47, 0.569137
1962.21, 0.569185
1962.95, 0.569137
1963.7, 0.569377
1964.44, 0.569329
1965.18, 0.569377
1965.93, 0.569473
1966.67, 0.569665
1967.42, 0.569665
1968.17, 0.569665
1968.92, 0.569713
1969.66, 0.569713
1970.41, 0.569665
1971.16, 0.569665
1971.91, 0.569761
1972.66, 0.569953
1973.41, 0.570001
1974.16, 0.570001
1974.92, 0.570144
1975.67, 0.570193
1976.42, 0.570144
1977.18, 0.570384
1977.93, 0.570480
1978.69, 0.570480
1979.44, 0.570768
1980.2, 0.570864
1980.95, 0.570864
1981.71, 0.571008
1982.47, 0.571200
1983.23, 0.571248
1983.99, 0.571200
1984.74, 0.571200
1985.51, 0.571200
1986.27, 0.571535
1987.03, 0.571775
1987.79, 0.571679
1988.55, 0.571679
1989.32, 0.571775
1990.08, 0.572063
1990.84, 0.572255
1991.61, 0.572303
1992.37, 0.572639
1993.14, 0.572974
1993.9, 0.572926
1994.67, 0.572830
1995.44, 0.572878
1996.21, 0.573022
1996.98, 0.573310
1997.75, 0.573550
1998.52, 0.573550
1999.29, 0.573646
2000.06, 0.573790
2000.83, 0.573982
2001.6, 0.574269
2002.38, 0.574365
2003.15, 0.574557
2003.93, 0.574749
2004.7, 0.574893
2005.48, 0.575181
2006.25, 0.575325
2007.03, 0.575420
2007.81, 0.575516
2008.58, 0.575804
2009.36, 0.575948
2010.14, 0.576092
2010.92, 0.576140
2011.7, 0.576332
2012.48, 0.576859
2013.26, 0.577003
2014.05, 0.577147
2014.83, 0.577195
2015.61, 0.577483
2016.4, 0.577723
2017.18, 0.577963
2017.97, 0.578059
2018.75, 0.578011
2019.54, 0.578106
2020.32, 0.578298
2021.11, 0.578490
2021.9, 0.578538
2022.69, 0.578778
2023.48, 0.579066
2024.27, 0.579354
2025.06, 0.579593
2025.85, 0.579785
2026.64, 0.579737
2027.44, 0.579977
2028.23, 0.580217
2029.02, 0.580313
2029.82, 0.580361
2030.61, 0.580553
2031.41, 0.580936
2032.2, 0.581128
2033.0, 0.580984
2033.8, 0.581032
2034.6, 0.581320
2035.4, 0.581416
2036.2, 0.581368
2037.0, 0.581272
2037.8, 0.581416
2038.6, 0.581752
2039.4, 0.582039
2040.2, 0.581896
2041.01, 0.582088
2041.81, 0.582279
2042.61, 0.582327
2043.42, 0.582231
2044.22, 0.582279
2045.03, 0.582471
2045.84, 0.582423
2046.65, 0.582519
2047.46, 0.582567
2048.26, 0.582807
2049.07, 0.582855
2049.88, 0.582999
2050.69, 0.583143
2051.51, 0.583143
2052.32, 0.582855
2053.13, 0.582711
2053.94, 0.582663
2054.76, 0.583095
2055.57, 0.583095
2056.39, 0.583047
2057.2, 0.583239
2058.02, 0.583239
2058.84, 0.583239
2059.66, 0.583047
2060.48, 0.582999
2061.29, 0.583095
2062.11, 0.582999
2062.94, 0.583143
2063.76, 0.583191
2064.58, 0.583239
2065.4, 0.583191
2066.22, 0.583095
2067.05, 0.583047
2067.87, 0.583143
2068.7, 0.583143
2069.52, 0.583095
2070.35, 0.583143
2071.18, 0.583335
2072.0, 0.583335
2072.83, 0.583239
2073.66, 0.583143
2074.49, 0.583191
2075.32, 0.583191
2076.15, 0.583191
2076.98, 0.583239
2077.82, 0.583478
2078.65, 0.583382
2079.48, 0.583287
2080.32, 0.583335
2081.15, 0.583526
2081.99, 0.583478
2082.83, 0.583574
2083.66, 0.583478
2084.5, 0.583526
2085.34, 0.583574
2086.18, 0.583670
2087.02, 0.583574
2087.86, 0.583766
2088.7, 0.583862
2089.54, 0.583814
2090.39, 0.583910
2091.23, 0.584150
2092.07, 0.584246
2092.92, 0.584246
2093.76, 0.584294
2094.61, 0.584150
2095.45, 0.584198
2096.3, 0.584486
2097.15, 0.584582
2098.0, 0.584630
2098.85, 0.584773
2099.7, 0.584917
2100.55, 0.585013
2101.4, 0.585205
2102.25, 0.585157
2103.1, 0.585205
2103.96, 0.585445
2104.81, 0.585637
2105.67, 0.585541
2106.52, 0.585733
2107.38, 0.585829
2108.24, 0.586020
2109.09, 0.586452
2109.95, 0.586452
2110.81, 0.586500
2111.67, 0.586596
2112.53, 0.586836
2113.39, 0.587076
2114.25, 0.587076
2115.12, 0.587124
2115.98, 0.587315
2116.84, 0.587459
2117.71, 0.587459
2118.58, 0.587603
2119.44, 0.587843
2120.31, 0.588179
2121.18, 0.588227
2122.04, 0.588227
2122.91, 0.588515
2123.78, 0.588802
2124.65, 0.588802
2125.52, 0.588898
2126.4, 0.589042
2127.27, 0.589090
2128.14, 0.589234
2129.02, 0.589186
2129.89, 0.589282
2130.77, 0.589570
2131.64, 0.589906
2132.52, 0.589953
2133.4, 0.590001
2134.27, 0.590001
2135.15, 0.590145
2136.03, 0.590193
2136.91, 0.590337
2137.79, 0.590481
2138.68, 0.590481
2139.56, 0.590385
2140.44, 0.590433
2141.33, 0.590529
2142.21, 0.590577
2143.1, 0.590673
2143.99, 0.590769
2144.87, 0.590769
2145.76, 0.590913
2146.65, 0.590961
2147.54, 0.590961
2148.43, 0.591146
2149.32, 0.591577
2150.21, 0.591331
2151.1, 0.591885
2151.99, 0.592070
2152.89, 0.592070
2153.78, 0.592255
2154.68, 0.592194
2155.57, 0.592194
2156.47, 0.592748
2157.37, 0.592810
2158.27, 0.592625
2159.16, 0.592995
2160.06, 0.592995
2160.96, 0.592872
2161.86, 0.593735
2162.77, 0.593796
2163.67, 0.593365
2164.57, 0.593242
2165.48, 0.593488
2166.38, 0.592872
2167.29, 0.592748
2168.2, 0.593056
2169.1, 0.593550
2170.01, 0.593611
2170.92, 0.593118
2171.83, 0.593488
2172.74, 0.593858
2173.65, 0.593611
2174.56, 0.593858
2175.47, 0.594474
2176.39, 0.594598
2177.3, 0.594413
2178.22, 0.594721
2179.13, 0.595214
2180.05, 0.595214
2180.96, 0.595214
2181.88, 0.595646
2182.8, 0.596324
2183.72, 0.595954
2184.64, 0.595337
2185.56, 0.595584
2186.48, 0.596139
2187.41, 0.596817
2188.33, 0.597310
2189.25, 0.597002
2190.18, 0.596508
2191.1, 0.596817
2192.03, 0.597002
2192.96, 0.597433
2193.89, 0.597618
2194.82, 0.597865
2195.74, 0.598111
2196.68, 0.598111
2197.61, 0.597926
2198.54, 0.598234
2199.47, 0.598050
2200.4, 0.598111
2201.34, 0.598358
2202.28, 0.598604
2203.21, 0.599097
2204.15, 0.599591
2205.08, 0.600022
2206.02, 0.599714
2206.96, 0.599529
2207.9, 0.600084
2208.84, 0.600269
2209.78, 0.600392
2210.73, 0.600330
2211.67, 0.601070
2212.61, 0.601748
2213.56, 0.601933
2214.5, 0.601686
2215.45, 0.601563
2216.4, 0.601625
2217.35, 0.601810
2218.3, 0.602796
2219.24, 0.603104
2220.2, 0.602426
2221.15, 0.602673
2222.1, 0.602796
2223.05, 0.603782
2224.0, 0.603844
2224.96, 0.603905
2225.91, 0.603967
2226.87, 0.604275
2227.83, 0.604707
2228.79, 0.604769
2229.74, 0.604953
2230.7, 0.604892
2231.66, 0.605385
2232.63, 0.606310
2233.59, 0.606556
2234.55, 0.606125
2235.51, 0.605878
2236.48, 0.606433
2237.44, 0.607111
2238.41, 0.607727
2239.38, 0.607666
2240.34, 0.607789
2241.31, 0.608344
2242.28, 0.607666
2243.25, 0.607789
2244.22, 0.608467
2245.19, 0.608344
2246.17, 0.608652
2247.14, 0.608405
2248.12, 0.608344
2249.09, 0.608714
2250.07, 0.608775
2251.04, 0.608960
2252.02, 0.609515
2253.0, 0.609022
2253.98, 0.609145
2254.96, 0.609207
2255.94, 0.609207
2256.92, 0.609330
2257.91, 0.609392
2258.89, 0.610193
2259.88, 0.610501
2260.86, 0.609946
2261.85, 0.610316
2262.83, 0.611241
2263.82, 0.611734
2264.81, 0.610686
2265.8, 0.610008
2266.79, 0.610440
2267.78, 0.610255
2268.78, 0.610316
2269.77, 0.610994
2270.76, 0.611118
2271.76, 0.611056
2272.75, 0.610871
2273.75, 0.611118
2274.75, 0.611056
2275.75, 0.610994
2276.75, 0.610440
2277.75, 0.610686
2278.75, 0.610809
2279.75, 0.611426
2280.75, 0.611734
2281.76, 0.611426
2282.76, 0.610871
2283.77, 0.610809
2284.77, 0.611118
2285.78, 0.611241
2286.79, 0.610994
2287.8, 0.610933
2288.81, 0.610563
2289.82, 0.610933
2290.83, 0.611426
2291.84, 0.610994
2292.86, 0.611118
2293.87, 0.610994
2294.89, 0.610809
2295.91, 0.610994
2296.92, 0.611241
2297.94, 0.611303
2298.96, 0.611118
2299.98, 0.610933
2301.0, 0.611118
2302.02, 0.611487
2303.04, 0.610994
2304.07, 0.610563
2305.09, 0.610871
2306.12, 0.611796
2307.15, 0.611919
2308.17, 0.611857
2309.2, 0.611796
2310.23, 0.611796
2311.26, 0.611364
2312.29, 0.611179
2313.32, 0.611672
2314.35, 0.612289
2315.39, 0.612350
2316.42, 0.612782
2317.46, 0.613398
2318.5, 0.613522
2319.53, 0.613213
2320.57, 0.613213
2321.61, 0.613522
2322.65, 0.613768
2323.69, 0.613522
2324.73, 0.613398
2325.78, 0.613583
2326.82, 0.614261
2327.86, 0.614693
2328.91, 0.614816
2329.96, 0.614693
2331.01, 0.614878
2332.05, 0.615433
2333.1, 0.615741
2334.15, 0.615617
2335.21, 0.615556
2336.26, 0.615309
2337.31, 0.615741
2338.36, 0.616049
2339.42, 0.615679
2340.48, 0.615864
2341.53, 0.616172
2342.59, 0.616296
2343.65, 0.616480
2344.71, 0.617467
2345.77, 0.617775
2346.83, 0.617282
2347.9, 0.617343
2348.96, 0.617405
2350.02, 0.617528
2351.09, 0.617775
2352.16, 0.618145
2353.23, 0.618576
2354.29, 0.618515
2355.36, 0.618638
2356.43, 0.619501
2357.51, 0.620117
2358.58, 0.620179
2359.65, 0.620179
2360.73, 0.620795
2361.8, 0.621227
2362.88, 0.621104
2363.96, 0.621227
2365.03, 0.621967
2366.11, 0.622028
2367.19, 0.621782
2368.27, 0.622152
2369.36, 0.622460
2370.44, 0.622398
2371.53, 0.623015
2372.61, 0.623384
2373.7, 0.623199
2374.78, 0.623384
2375.87, 0.623508
2376.96, 0.623323
2378.05, 0.623939
2379.14, 0.624494
2380.24, 0.624556
2381.33, 0.624679
2382.42, 0.624617
2383.52, 0.624617
2384.61, 0.624987
2385.71, 0.625480
2386.81, 0.625850
2387.91, 0.626035
2389.01, 0.625727
2390.11, 0.626035
2391.22, 0.626405
2392.32, 0.627145
2393.42, 0.627083
2394.53, 0.626898
2395.64, 0.627268
2396.74, 0.627391
2397.85, 0.627021
2398.96, 0.627268
2400.07, 0.627761
2401.18, 0.627946
2402.3, 0.628377
2403.41, 0.628192
2404.52, 0.627946
2405.64, 0.627884
2406.76, 0.628501
2407.88, 0.628377
2408.99, 0.628131
2410.11, 0.628069
2411.23, 0.628254
2412.36, 0.628254
2413.48, 0.628624
2414.6, 0.628747
2415.73, 0.628624
2416.85, 0.628562
2417.98, 0.628439
2419.11, 0.628439
2420.24, 0.628501
2421.37, 0.628809
2422.5, 0.629302
2423.64, 0.629364
2424.77, 0.628932
2425.9, 0.628377
2427.04, 0.628501
2428.18, 0.628932
2429.31, 0.629055
2430.45, 0.628747
2431.59, 0.628747
2432.73, 0.628686
2433.88, 0.628562
2435.02, 0.628809
2436.16, 0.628624
2437.31, 0.628316
2438.45, 0.628131
2439.6, 0.628377
2440.75, 0.628809
2441.9, 0.628870
2443.05, 0.628809
2444.2, 0.628932
2445.35, 0.628932
2446.51, 0.629117
2447.67, 0.629055
2448.82, 0.628624
2449.98, 0.628377
2451.14, 0.628562
2452.3, 0.628994
2453.46, 0.629117
2454.62, 0.628870
2455.78, 0.628562
2456.94, 0.628439
2458.11, 0.628624
2459.28, 0.628501
2460.44, 0.628624
2461.61, 0.628870
2462.78, 0.628870
2463.95, 0.628624
2465.12, 0.628624
2466.3, 0.628624
2467.47, 0.628809
2468.65, 0.629055
2469.82, 0.629179
2471.0, 0.629487
2472.18, 0.629364
2473.36, 0.628747
2474.54, 0.628932
2475.72, 0.629240
2476.9, 0.629240
2478.08, 0.629364
2479.27, 0.629549
2480.46, 0.629980
2481.64, 0.630227
2482.83, 0.630288
2484.02, 0.629918
2485.21, 0.630165
2486.4, 0.630535
2487.6, 0.630720
2488.79, 0.631151
2489.99, 0.631275
2491.18, 0.631398
2492.38, 0.631521
2493.58, 0.631644
2494.78, 0.631583
2495.98, 0.631521
2497.18, 0.631953
2498.39, 0.632261
2499.59, 0.632014
2500.8, 0.631953
2502.01, 0.632384
2503.21, 0.632631
2504.42, 0.633062
2505.63, 0.633370
2506.84, 0.633062
2508.06, 0.633124
2509.27, 0.633617
2510.49, 0.634110
2511.7, 0.634048
2512.92, 0.634233
2514.14, 0.634603
2515.36, 0.635096
2516.58, 0.635096
2517.8, 0.635158
2519.03, 0.635405
2520.25, 0.635281
2521.48, 0.635343
2522.7, 0.636206
2523.93, 0.636822
2525.16, 0.637130
2526.39, 0.637500
2527.62, 0.637562
2528.86, 0.637685
2530.09, 0.638610
2531.33, 0.640028
2532.56, 0.640151
2533.8, 0.638980
2535.04, 0.640397
2536.28, 0.641014
2537.52, 0.638980
2538.76, 0.638672
2540.01, 0.638856
2541.25, 0.641137
2542.5, 0.643973
2543.75, 0.642740
2544.99, 0.640767
2546.24, 0.641692
2547.49, 0.643418
2548.75, 0.642185
2550.0, 0.643233
2551.26, 0.645637
2552.51, 0.646253
2553.77, 0.642308
2555.03, 0.640213
2556.29, 0.640336
2557.55, 0.640213
2558.81, 0.643418
2560.08, 0.651678
2561.34, 0.656116
2562.61, 0.654575
2563.88, 0.652788
2565.14, 0.646069
2566.41, 0.641261
2567.68, 0.644897
2568.96, 0.651986
2570.23, 0.647671
2571.51, 0.645514
2572.78, 0.655623
2574.06, 0.649644
2575.34, 0.647979
2576.62, 0.651863
2577.9, 0.645144
2579.18, 0.643849
2580.47, 0.649952
2581.75, 0.649890
2583.04, 0.659075
2584.32, 0.654390
2585.61, 0.648103
2586.9, 0.653897
2588.2, 0.650199
2589.49, 0.646007
2590.78, 0.643295
2592.08, 0.648658
2593.37, 0.672821
2594.67, 0.685581
2595.97, 0.658705
2597.27, 0.643418
2598.57, 0.640274
2599.88, 0.643295
2601.18, 0.647795
2602.49, 0.650137
2603.79, 0.656918
2605.1, 0.663020
2606.41, 0.653835
2607.72, 0.648781
2609.03, 0.648781
2610.35, 0.644959
2611.66, 0.642863
2612.98, 0.644466
2614.3, 0.643849
2615.62, 0.657041
2616.94, 0.658828
2618.26, 0.648596
2619.58, 0.657904
2620.91, 0.651000
2622.23, 0.638548
2623.56, 0.639103
2624.89, 0.646007
2626.22, 0.655253
2627.55, 0.646007
2628.88, 0.653219
2630.21, 0.661787
2631.55, 0.647301
2632.89, 0.645575
2634.22, 0.644836
2635.56, 0.639226
2636.9, 0.638918
2638.25, 0.638733
2639.59, 0.639350
2640.93, 0.640521
2642.28, 0.640706
2643.63, 0.640644
2644.98, 0.645699
2646.33, 0.642925
2647.68, 0.638856
2649.03, 0.637993
2650.39, 0.641445
2651.74, 0.647733
2653.1, 0.644959
2654.46, 0.643295
2655.82, 0.643048
2657.18, 0.639041
2658.54, 0.645267
2659.9, 0.646130
2661.27, 0.643849
2662.64, 0.644404
2664.01, 0.659630
2665.38, 0.668691
2666.74, 0.663143
2668.12, 0.652788
2669.49, 0.670725
2670.87, 0.661417
2672.24, 0.639904
2673.62, 0.641199
2675.0, 0.650075
2676.38, 0.655315
2677.76, 0.650507
2679.15, 0.646069
2680.54, 0.634418
2681.92, 0.634110
2683.31, 0.635220
2684.7, 0.632692
2686.09, 0.631151
2687.48, 0.626405
2688.88, 0.622090
2690.27, 0.617713
2691.67, 0.619378
2693.07, 0.625665
2694.47, 0.617713
2695.87, 0.602118
2697.27, 0.585598
2698.67, 0.572037
2700.08, 0.565071
2701.49, 0.555948
2702.9, 0.541771
2704.31, 0.531291
2705.72, 0.520011
2707.13, 0.510210
2708.54, 0.502936
2709.96, 0.495416
2711.38, 0.478649
2712.8, 0.460465
2714.22, 0.454116
2715.64, 0.451034
2717.06, 0.450109
2718.49, 0.451034
2719.91, 0.457321
2721.34, 0.446595
2722.77, 0.444500
2724.2, 0.449801
2725.63, 0.441479
2727.07, 0.434883
2728.5, 0.433034
2729.94, 0.431925
2731.38, 0.430445
2732.82, 0.431740
2734.26, 0.435192
2735.7, 0.430322
2737.15, 0.429644
2738.59, 0.438151
2740.04, 0.438705
2741.49, 0.429891
2742.94, 0.421384
2744.39, 0.419103
2745.84, 0.419042
2747.3, 0.418548
2748.76, 0.417932
2750.21, 0.417809
2751.67, 0.418055
2753.14, 0.420706
2754.6, 0.429891
2756.06, 0.423665
2757.53, 0.413309
2759.0, 0.410597
2760.46, 0.411583
2761.94, 0.415713
2763.41, 0.414603
2764.88, 0.411151
2766.36, 0.411891
2767.83, 0.411460
2769.31, 0.411521
2770.79, 0.411829
2772.27, 0.407083
2773.76, 0.404186
2775.24, 0.404063
2776.73, 0.404494
2778.22, 0.403754
2779.71, 0.403631
2781.2, 0.403385
2782.69, 0.401535
2784.18, 0.400611
2785.68, 0.404124
2787.18, 0.404802
2788.68, 0.400549
2790.18, 0.397960
2791.68, 0.397590
2793.19, 0.397652
2794.69, 0.397590
2796.2, 0.397344
2797.71, 0.396727
2799.22, 0.396912
2800.73, 0.399378
2802.24, 0.403200
2803.76, 0.402028
2805.28, 0.398823
2806.8, 0.397590
2808.32, 0.397344
2809.84, 0.396912
2811.36, 0.396974
2812.89, 0.397590
2814.42, 0.398022
2815.94, 0.397159
2817.48, 0.397590
2819.01, 0.398885
2820.54, 0.398453
2822.08, 0.397344
2823.61, 0.396850
2825.15, 0.397035
2826.69, 0.397344
2828.23, 0.397097
2829.78, 0.396604
2831.32, 0.397220
2832.87, 0.397713
2834.42, 0.397837
2835.97, 0.397775
2837.52, 0.397652
2839.08, 0.396850
2840.63, 0.396604
2842.19, 0.396481
2843.75, 0.396296
2845.31, 0.396234
2846.87, 0.396727
2848.44, 0.397344
2850.0, 0.396850
2851.57, 0.396727
2853.14, 0.397960
2854.71, 0.398515
2856.28, 0.398207
2857.86, 0.398392
2859.43, 0.399193
2861.01, 0.399624
2862.59, 0.399933
2864.17, 0.400734
2865.76, 0.401597
2867.34, 0.402275
2868.93, 0.403015
2870.52, 0.403878
2872.11, 0.404309
2873.7, 0.404432
2875.29, 0.405110
2876.89, 0.405850
2878.49, 0.406343
2880.08, 0.406960
2881.69, 0.407761
2883.29, 0.408439
2884.89, 0.409240
2886.5, 0.409980
2888.11, 0.410473
2889.72, 0.410597
2891.33, 0.411275
2892.94, 0.411891
2894.56, 0.412692
2896.17, 0.413124
2897.79, 0.413370
2899.42, 0.414295
2901.04, 0.414973
2902.66, 0.415096
2904.29, 0.415590
2905.92, 0.415405
2907.55, 0.415466
2909.18, 0.415775
2910.81, 0.415959
2912.45, 0.416453
2914.08, 0.416514
2915.72, 0.416391
2917.36, 0.416391
2919.01, 0.416576
2920.65, 0.416699
2922.3, 0.416699
2923.94, 0.416329
2925.59, 0.415836
2927.25, 0.415775
2928.9, 0.415775
2930.56, 0.415836
2932.21, 0.415713
2933.87, 0.415528
2935.53, 0.415405
2937.2, 0.415281
2938.86, 0.414973
2940.53, 0.414912
2942.2, 0.414912
2943.87, 0.414850
2945.54, 0.414480
2947.22, 0.414049
2948.89, 0.413555
2950.57, 0.413740
2952.25, 0.413864
2953.93, 0.413679
2955.62, 0.413432
2957.3, 0.413124
2958.99, 0.412816
2960.68, 0.412816
2962.37, 0.412754
2964.07, 0.412384
2965.76, 0.412323
2967.46, 0.412446
2969.16, 0.412446
2970.86, 0.412323
2972.56, 0.412446
2974.27, 0.412507
2975.98, 0.412261
2977.69, 0.412323
2979.4, 0.412384
2981.11, 0.412384
2982.83, 0.412323
2984.54, 0.412569
2986.26, 0.412816
2987.98, 0.412877
2989.71, 0.413062
2991.43, 0.413247
2993.16, 0.413555
2994.89, 0.413802
2996.62, 0.414418
2998.35, 0.414973
3000.09, 0.414973
3001.83, 0.415035
3003.57, 0.415343
3005.31, 0.415590
3007.05, 0.416021
3008.79, 0.416514
3010.54, 0.417007
3012.29, 0.417747
3014.04, 0.418055
3015.8, 0.418487
3017.55, 0.419103
3019.31, 0.419350
3021.07, 0.419781
3022.83, 0.420398
3024.59, 0.420829
3026.36, 0.421137
3028.13, 0.421754
3029.9, 0.422493
3031.67, 0.423233
3033.44, 0.423788
3035.22, 0.424466
3037.0, 0.425329
3038.78, 0.425945
3040.56, 0.426254
3042.34, 0.426377
3044.13, 0.426932
3045.92, 0.427795
3047.71, 0.428596
3049.5, 0.429089
3051.3, 0.429706
3053.09, 0.430137
3054.89, 0.430692
3056.69, 0.431185
3058.5, 0.431863
3060.3, 0.432418
3062.11, 0.433158
3063.92, 0.433774
3065.73, 0.434329
3067.55, 0.435007
3069.36, 0.435562
3071.18, 0.435931
3073.0, 0.436671
3074.82, 0.437226
3076.65, 0.437534
3078.48, 0.438089
3080.31, 0.439013
3082.14, 0.439630
3083.97, 0.440061
3085.8, 0.440863
3087.64, 0.441541
3089.48, 0.442096
3091.33, 0.442527
3093.17, 0.443020
3095.02, 0.443637
3096.87, 0.444438
3098.72, 0.444993
3100.57, 0.445178
3102.43, 0.445732
3104.28, 0.446534
3106.14, 0.447273
3108.01, 0.447643
3109.87, 0.448260
3111.74, 0.448876
3113.61, 0.449431
3115.48, 0.450047
3117.35, 0.450725
3119.23, 0.451280
3121.1, 0.451712
3122.98, 0.452390
3124.87, 0.453068
3126.75, 0.453623
3128.64, 0.454424
3130.53, 0.455287
3132.42, 0.455842
3134.31, 0.456396
3136.21, 0.456828
3138.11, 0.457444
3140.01, 0.458122
3141.91, 0.458862
3143.82, 0.459725
3145.73, 0.460526
3147.64, 0.461081
3149.55, 0.461513
3151.46, 0.461821
3153.38, 0.462499
3155.3, 0.463300
3157.22, 0.463855
3159.14, 0.464472
3161.07, 0.465088
3163.0, 0.465581
3164.93, 0.466136
3166.86, 0.466691
3168.8, 0.467369
3170.74, 0.467800
3172.68, 0.468232
3174.62, 0.468971
3176.56, 0.469588
3178.51, 0.470389
3180.46, 0.471006
3182.42, 0.471622
3184.37, 0.471869
3186.33, 0.472300
3188.29, 0.472917
3190.25, 0.473286
3192.21, 0.473718
3194.18, 0.474273
3196.15, 0.475074
3198.12, 0.475752
3200.09, 0.476122
3202.07, 0.476307
3204.05, 0.476553
3206.03, 0.477047
3208.02, 0.477416
3210.0, 0.477725
3211.99, 0.478218
3213.98, 0.478773
3215.98, 0.479142
3217.97, 0.479327
3219.97, 0.479512
3221.97, 0.479944
3223.98, 0.480437
3225.98, 0.480807
3227.99, 0.481238
3230.0, 0.481731
3232.02, 0.481916
3234.03, 0.482101
3236.05, 0.482101
3238.07, 0.482409
3240.1, 0.482718
3242.12, 0.482779
3244.15, 0.482779
3246.18, 0.483149
3248.22, 0.483704
3250.25, 0.484135
3252.29, 0.484320
3254.33, 0.484690
3256.38, 0.485122
3258.43, 0.485368
3260.47, 0.485491
3262.53, 0.485738
3264.58, 0.485861
3266.64, 0.486046
3268.7, 0.486170
3270.76, 0.486539
3272.82, 0.487033
3274.89, 0.487587
3276.96, 0.487895
3279.04, 0.488450
3281.11, 0.488697
3283.19, 0.488635
3285.27, 0.488820
3287.35, 0.489067
3289.44, 0.489313
3291.53, 0.489375
3293.62, 0.489375
3295.71, 0.489375
3297.81, 0.489498
3299.91, 0.489498
3302.01, 0.489375
3304.11, 0.489375
3306.22, 0.489621
3308.33, 0.490115
3310.44, 0.490669
3312.56, 0.490978
3314.68, 0.491163
3316.8, 0.491347
3318.92, 0.491779
3321.05, 0.491964
3323.18, 0.492026
3325.31, 0.491964
3327.44, 0.491779
3329.58, 0.491841
3331.72, 0.491841
3333.86, 0.491656
3336.01, 0.491409
3338.16, 0.491409
3340.31, 0.491347
3342.46, 0.491224
3344.61, 0.490854
3346.77, 0.490300
3348.94, 0.489560
3351.1, 0.488943
3353.27, 0.488142
3355.44, 0.487094
3357.61, 0.485923
3359.79, 0.484320
3361.97, 0.482656
3364.15, 0.480622
3366.33, 0.478341
3368.52, 0.476122
3370.71, 0.474149
3372.9, 0.472423
3375.1, 0.471067
3377.3, 0.470451
3379.5, 0.470019
3381.71, 0.470204
3383.91, 0.470882
3386.12, 0.471375
3388.34, 0.471437
3390.55, 0.471314
3392.77, 0.470574
3394.99, 0.469156
3397.22, 0.467245
3399.45, 0.465211
3401.68, 0.462684
3403.91, 0.459910
3406.15, 0.456828
3408.39, 0.454116
3410.63, 0.451773
3412.87, 0.449677
3415.12, 0.448075
3417.37, 0.447520
3419.63, 0.448260
3421.88, 0.450047
3424.14, 0.452636
3426.41, 0.455842
3428.67, 0.459047
3430.94, 0.462376
3433.21, 0.465335
3435.49, 0.467923
3437.77, 0.469896
3440.05, 0.471314
3442.33, 0.472670
3444.62, 0.473903
3446.91, 0.475012
3449.2, 0.476245
3451.5, 0.477293
3453.8, 0.478279
3456.1, 0.479204
3458.41, 0.479882
3460.72, 0.480375
3463.03, 0.480868
3465.34, 0.481177
3467.66, 0.481053
3469.98, 0.480807
3472.31, 0.480437
3474.63, 0.479944
3476.96, 0.479451
3479.3, 0.478773
3481.64, 0.478464
3483.97, 0.477910
3486.32, 0.477231
3488.66, 0.476368
3491.01, 0.474766
3493.36, 0.472732
3495.72, 0.470513
3498.08, 0.468355
3500.44, 0.466752
3502.81, 0.466136
3505.18, 0.466876
3507.55, 0.468602
3509.92, 0.471067
3512.3, 0.474149
3514.68, 0.477108
3517.06, 0.479635
3519.45, 0.481670
3521.84, 0.483334
3524.24, 0.484505
3526.64, 0.485122
3529.04, 0.485615
3531.44, 0.485985
3533.85, 0.486293
3536.26, 0.486416
3538.67, 0.486354
3541.09, 0.486170
3543.51, 0.486046
3545.93, 0.485985
3548.36, 0.486046
3550.79, 0.486046
3553.22, 0.485676
3555.66, 0.485615
3558.1, 0.485430
3560.54, 0.485060
3562.99, 0.484813
3565.44, 0.484505
3567.9, 0.484135
3570.35, 0.483765
3572.81, 0.483334
3575.28, 0.483087
3577.75, 0.482964
3580.22, 0.482656
3582.69, 0.482163
3585.17, 0.481793
3587.65, 0.481361
3590.14, 0.480807
3592.62, 0.480560
3595.11, 0.480437
3597.61, 0.480005
3600.11, 0.479697
3602.61, 0.479142
3605.11, 0.478711
3607.62, 0.478279
3610.14, 0.477848
3612.65, 0.477478
3615.17, 0.477231
3617.69, 0.476800
3620.22, 0.476368
3622.75, 0.475814
3625.28, 0.475321
3627.82, 0.475012
3630.36, 0.474643
3632.9, 0.474149
3635.45, 0.473595
3638.0, 0.473101
3640.56, 0.472608
3643.12, 0.472054
3645.68, 0.471560
3648.24, 0.471129
3650.81, 0.470821
3653.39, 0.470389
3655.96, 0.469896
3658.54, 0.469465
3661.13, 0.468910
3663.71, 0.468417
3666.3, 0.468108
3668.9, 0.467739
3671.5, 0.467307
3674.1, 0.466937
3676.7, 0.466506
3679.31, 0.465951
3681.93, 0.465704
3684.54, 0.465396
3687.17, 0.464841
3689.79, 0.464472
3692.42, 0.464163
3695.05, 0.463609
3697.69, 0.463177
3700.32, 0.462684
3702.97, 0.462252
3705.61, 0.461759
3708.27, 0.461266
3710.92, 0.460773
3713.58, 0.460403
3716.24, 0.459972
3718.91, 0.459479
3721.58, 0.459047
3724.25, 0.458554
3726.93, 0.458061
3729.61, 0.457506
3732.29, 0.457013
3734.98, 0.456581
3737.67, 0.456150
3740.37, 0.455595
3743.07, 0.455164
3745.78, 0.454486
3748.49, 0.453869
3751.2, 0.453438
3753.91, 0.452945
3756.63, 0.452513
3759.36, 0.451897
3762.09, 0.451280
3764.82, 0.450725
3767.55, 0.450109
3770.29, 0.449493
3773.04, 0.449061
3775.78, 0.448506
3778.54, 0.448075
3781.29, 0.447397
3784.05, 0.446595
3786.82, 0.445917
3789.59, 0.445363
3792.36, 0.444685
3795.13, 0.444068
3797.92, 0.443390
3800.7, 0.442835
3803.49, 0.442281
3806.28, 0.441602
3809.08, 0.440863
3811.88, 0.440185
3814.68, 0.439445
3817.49, 0.438829
3820.31, 0.438151
3823.12, 0.437596
3825.94, 0.436918
3828.77, 0.436116
3831.6, 0.435438
3834.43, 0.434883
3837.27, 0.434205
3840.11, 0.433342
3842.96, 0.432541
3845.81, 0.431801
3848.67, 0.431308
3851.53, 0.430630
3854.39, 0.429829
3857.26, 0.429212
3860.13, 0.428534
3863.01, 0.427856
3865.89, 0.427117
3868.77, 0.426500
3871.66, 0.425699
3874.55, 0.425021
3877.45, 0.424404
3880.35, 0.423726
3883.26, 0.422987
3886.17, 0.422247
3889.09, 0.421630
3892.01, 0.421014
3894.93, 0.420274
3897.86, 0.419596
3900.79, 0.418857
3903.73, 0.418117
3906.67, 0.417500
3909.62, 0.416822
3912.57, 0.415959
3915.52, 0.415281
3918.48, 0.414788
3921.45, 0.414295
3924.42, 0.413617
3927.39, 0.412816
3930.37, 0.411953
3933.35, 0.411398
3936.34, 0.410843
3939.33, 0.410227
3942.32, 0.409672
3945.32, 0.408994
3948.33, 0.408193
3951.34, 0.407576
3954.35, 0.406898
3957.37, 0.406343
3960.39, 0.405727
3963.42, 0.405049
3966.45, 0.404494
3969.49, 0.403816
3972.53, 0.403261
3975.58, 0.402645
3978.63, 0.401967
3981.68, 0.401227
3984.75, 0.400487
3987.81, 0.399871
3990.88, 0.399501
3993.95, 0.398823
3997.03, 0.398022
4000.12, 0.397467
4003.21, 0.396789
4006.3, 0.395987
4009.4, 0.395124
4012.5, 0.394385
4015.61, 0.393645
4018.72, 0.392905
4021.84, 0.392166
4024.96, 0.391426
4028.09, 0.390686
4031.22, 0.389762
4034.36, 0.388960
4037.5, 0.388282
4040.65, 0.387543
4043.8, 0.386926
4046.96, 0.386310
4050.12, 0.385693
4053.29, 0.384954
4056.46, 0.384275
4059.64, 0.383597
4062.82, 0.382981
4066.0, 0.382426
4069.19, 0.381748
4072.39, 0.381008
4075.59, 0.380330
4078.8, 0.379714
4082.01, 0.378974
4085.23, 0.378296
4088.45, 0.377680
4091.68, 0.377063
4094.91, 0.376509
4098.15, 0.375769
4101.39, 0.375029
4104.63, 0.374228
4107.89, 0.373550
4111.14, 0.372933
4114.41, 0.372255
4117.67, 0.371577
4120.95, 0.370899
4124.23, 0.370221
4127.51, 0.369543
4130.8, 0.368865
4134.09, 0.368125
4137.39, 0.367386
4140.7, 0.366708
4144.01, 0.365968
4147.32, 0.365228
4150.64, 0.364427
4153.97, 0.363687
4157.3, 0.363009
4160.64, 0.362269
4163.98, 0.361468
4167.33, 0.360852
4170.68, 0.360235
4174.04, 0.359434
4177.4, 0.358694
4180.77, 0.357954
4184.14, 0.357215
4187.52, 0.356598
4190.91, 0.355797
4194.3, 0.354996
4197.69, 0.354379
4201.1, 0.354071
4204.5, 0.353701
4207.92, 0.353516
4211.34, 0.353639
4214.76, 0.353824
4218.19, 0.353824
4221.62, 0.353763
4225.06, 0.353639
4228.51, 0.353393
4231.96, 0.352715
4235.42, 0.351852
4238.88, 0.350742
4242.35, 0.349571
4245.83, 0.347968
4249.31, 0.345934
4252.79, 0.344023
4256.28, 0.342852
4259.78, 0.343099
4263.29, 0.343345
4266.79, 0.343160
4270.31, 0.342790
4273.83, 0.342174
4277.35, 0.341434
4280.89, 0.340510
4284.42, 0.339585
4287.97, 0.338599
4291.52, 0.337674
4295.07, 0.336688
4298.63, 0.335763
4302.2, 0.334777
4305.78, 0.333668
4309.35, 0.332496
4312.94, 0.331448
4316.53, 0.330216
4320.13, 0.329044
4323.73, 0.328243
4327.34, 0.327380
4330.96, 0.326579
4334.58, 0.325839
4338.21, 0.324914
4341.84, 0.324113
4345.48, 0.323497
4349.12, 0.322757
4352.77, 0.321832
4356.43, 0.321154
4360.1, 0.320415
4363.76, 0.319736
4367.44, 0.318935
4371.12, 0.318195
4374.81, 0.317394
4378.51, 0.316716
4382.21, 0.315976
4385.92, 0.315237
4389.63, 0.314620
4393.35, 0.313880
4397.08, 0.313079
4400.81, 0.312463
4404.55, 0.311846
4408.29, 0.311045
4412.04, 0.310244
4415.8, 0.309627
4419.57, 0.308949
4423.34, 0.308209
4427.12, 0.307285
4430.9, 0.306545
4434.69, 0.305867
4438.49, 0.305312
4442.29, 0.304573
4446.1, 0.303894
4449.92, 0.303278
4453.74, 0.302723
4457.57, 0.301922
4461.41, 0.301182
4465.25, 0.300319
4469.1, 0.299641
4472.95, 0.299025
4476.82, 0.298408
4480.69, 0.297792
4484.56, 0.297175
4488.44, 0.296436
4492.33, 0.295634
4496.23, 0.294895
4500.13, 0.294278
4504.04, 0.293662
4507.96, 0.293045
4511.88, 0.292306
4515.81, 0.291628
4519.75, 0.290950
4523.69, 0.290395
4527.65, 0.289717
4531.6, 0.288977
4535.57, 0.288299
4539.54, 0.287683
4543.52, 0.286943
4547.5, 0.286388
4551.5, 0.285587
4555.5, 0.284909
4559.5, 0.284169
4563.52, 0.283429
4567.54, 0.282690
4571.56, 0.282135
4575.6, 0.281580
4579.64, 0.280964
4583.69, 0.280162
4587.75, 0.279423
4591.81, 0.278806
4595.88, 0.278067
4599.96, 0.277204
4604.04, 0.276587
4608.14, 0.276094
4612.24, 0.275416
4616.34, 0.274799
4620.46, 0.274060
4624.58, 0.273443
4628.71, 0.272889
4632.84, 0.272211
4636.99, 0.271409
4641.14, 0.270608
4645.3, 0.270053
4649.47, 0.269437
4653.64, 0.268820
4657.82, 0.268019
4662.01, 0.267402
4666.21, 0.266663
4670.41, 0.266046
4674.62, 0.265430
4678.84, 0.264875
4683.07, 0.264259
4687.3, 0.263766
4691.54, 0.263149
4695.79, 0.262533
4700.05, 0.261855
4704.31, 0.261177
4708.59, 0.260622
4712.87, 0.260129
4717.15, 0.259512
4721.45, 0.258834
4725.76, 0.258279
4730.07, 0.257725
4734.39, 0.257170
4738.72, 0.256430
4743.05, 0.255752
4747.39, 0.255136
4751.75, 0.254643
4756.1, 0.254149
4760.47, 0.253595
4764.85, 0.252917
4769.23, 0.252239
4773.62, 0.251745
4778.02, 0.251252
4782.43, 0.250698
4786.85, 0.250143
4791.27, 0.249465
4795.7, 0.248848
4800.14, 0.248355
4804.59, 0.247554
4809.05, 0.246814
4813.51, 0.246198
4817.99, 0.245766
4822.47, 0.245088
4826.96, 0.244410
4831.46, 0.243670
4835.96, 0.243054
4840.48, 0.242561
4845.0, 0.241883
4849.54, 0.240958
4854.08, 0.240095
4858.63, 0.239355
4863.18, 0.238554
4867.75, 0.237691
4872.33, 0.236890
4876.91, 0.236150
4881.5, 0.235287
4886.1, 0.234301
4890.71, 0.233376
4895.33, 0.232328
4899.96, 0.231034
4904.59, 0.229678
4909.24, 0.228445
4913.89, 0.227150
4918.55, 0.225733
4923.22, 0.224068
4927.9, 0.222342
4932.59, 0.220616
4937.29, 0.218829
4942.0, 0.216795
4946.71, 0.214760
4951.44, 0.212849
4956.17, 0.210877
4960.91, 0.208534
4965.67, 0.206377
4970.43, 0.204343
4975.2, 0.202432
4979.98, 0.200644
4984.76, 0.198857
4989.56, 0.197131
4994.37, 0.195590
4999.18, 0.193987
5004.01, 0.192631
5008.84, 0.191460
5013.69, 0.190473
5018.54, 0.189857
5023.4, 0.188932
5028.28, 0.188193
5033.16, 0.187638
5038.05, 0.187145
5042.95, 0.186837
5047.86, 0.186528
5052.78, 0.186282
5057.71, 0.186158
5062.65, 0.186097
5067.6, 0.185974
5072.56, 0.185912
5077.53, 0.185974
5082.5, 0.186097
5087.49, 0.185727
5092.49, 0.185542
5097.5, 0.185357
5102.51, 0.185172
5107.54, 0.185172
5112.58, 0.185049
5117.62, 0.184741
5122.68, 0.184309
5127.75, 0.183816
5132.82, 0.183508
5137.91, 0.183261
5143.01, 0.183261
5148.12, 0.182953
5153.23, 0.181720
5158.36, 0.181042
5163.5, 0.180487
5168.65, 0.179809
5173.81, 0.179008
5178.98, 0.178022
5184.15, 0.177220
5189.34, 0.176419
5194.54, 0.175679
5199.75, 0.175001
5204.98, 0.173892
5210.21, 0.173337
5215.45, 0.172166
5220.7, 0.170440
5225.96, 0.169330
5231.23, 0.168529
5236.52, 0.167789
5241.81, 0.166433
5247.12, 0.165015
5252.44, 0.163782
5257.76, 0.162611
5263.1, 0.161317
5268.45, 0.160269
5273.81, 0.159344
5279.18, 0.158296
5284.56, 0.157372
5289.95, 0.157002
5295.36, 0.155954
5300.77, 0.154906
5306.2, 0.154351
5311.63, 0.153735
5317.08, 0.153118
5322.54, 0.152687
5328.01, 0.152317
5333.49, 0.151886
5338.98, 0.151639
5344.49, 0.152009
5350.0, 0.152194
5355.53, 0.151084
5361.07, 0.150098
5366.62, 0.149543
5372.18, 0.149112
5377.75, 0.148680
5383.34, 0.148249
5388.93, 0.147756
5394.54, 0.147262
5400.16, 0.146523
5405.79, 0.145783
5411.44, 0.145228
5417.09, 0.145598
5422.76, 0.144982
5428.43, 0.142393
5434.12, 0.140975
5439.83, 0.139989
5445.54, 0.138879
5451.26, 0.137770
5457.0, 0.137215
5462.75, 0.136968
5468.52, 0.135489
5474.29, 0.134379
5480.08, 0.133393
5485.88, 0.131790
5491.69, 0.130989
5497.51, 0.130311
5503.35, 0.129818
5509.2, 0.129201
5515.06, 0.128955
5520.93, 0.128893
5526.82, 0.128585
5532.71, 0.128092
5538.63, 0.127907
5544.55, 0.127845
5550.49, 0.128092
5556.44, 0.127599
5562.4, 0.126797
5568.37, 0.126489
5574.36, 0.127167
5580.36, 0.126489
5586.37, 0.124332
5592.4, 0.122976
5598.44, 0.122174
5604.49, 0.120756
5610.56, 0.119339
5616.63, 0.117921
5622.73, 0.116072
5628.83, 0.114900
5634.95, 0.114777
5641.08, 0.114654
5647.23, 0.112373
5653.39, 0.110894
5659.56, 0.109476
5665.74, 0.108736
5671.94, 0.109538
5678.15, 0.109538
5684.38, 0.109476
5690.62, 0.110647
5696.87, 0.111264
5703.14, 0.113236
5709.42, 0.116010
5715.72, 0.117551
5722.03, 0.118969
5728.35, 0.120633
5734.69, 0.122852
5741.03, 0.125441
5747.4, 0.128030
5753.78, 0.129140
5760.17, 0.133270
5766.58, 0.136783
5773.0, 0.135612
5779.44, 0.135735
5785.88, 0.136352
5792.35, 0.136907
5798.83, 0.137646
5805.32, 0.137770
5811.83, 0.139002
5818.35, 0.141653
5824.89, 0.141037
5831.45, 0.138633
5838.01, 0.136783
5844.59, 0.135674
5851.19, 0.135550
5857.8, 0.136105
5864.43, 0.135859
5871.07, 0.135612
5877.73, 0.139002
5884.4, 0.137092
5891.09, 0.135489
5897.79, 0.134996
5904.5, 0.131482
5911.23, 0.130804
5917.98, 0.130742
5924.75, 0.130927
5931.53, 0.133640
5938.32, 0.133948
5945.13, 0.130434
5951.96, 0.129325
5958.8, 0.129078
5965.65, 0.130619
5972.53, 0.129571
5979.42, 0.128585
5986.32, 0.129263
5993.24, 0.127475
6000.18, 0.125010
6007.13, 0.124948
6014.1, 0.124886
6021.08, 0.123284
6028.09, 0.122729
6035.1, 0.123900
6042.14, 0.128893
6049.19, 0.132900
6056.25, 0.129633
6063.34, 0.131297
6070.44, 0.136352
6077.55, 0.138571
6084.69, 0.139927
6091.84, 0.143502
6099.0, 0.147571
6106.19, 0.153612
6113.39, 0.158913
6120.61, 0.158728
6127.84, 0.159406
6135.09, 0.162550
6142.36, 0.165447
6149.65, 0.167604
6156.95, 0.170563
6164.27, 0.171364
6171.61, 0.171796
6178.97, 0.175988
6186.34, 0.178145
6193.73, 0.175926
6201.14, 0.176111
6208.57, 0.177159
6216.01, 0.177898
6223.47, 0.178207
6230.95, 0.178515
6238.45, 0.178946
6245.97, 0.179440
6253.5, 0.180056
6261.06, 0.180734
6268.63, 0.181289
6276.21, 0.181659
6283.82, 0.181967
6291.45, 0.182460
6299.1, 0.182645
6306.76, 0.183015
6314.44, 0.183385
6322.14, 0.183816
6329.86, 0.184556
6337.6, 0.188316
6345.35, 0.189795
6353.13, 0.186282
6360.92, 0.186898
6368.74, 0.189487
6376.57, 0.188439
6384.43, 0.187884
6392.3, 0.188316
6400.19, 0.190473
6408.1, 0.198610
6416.03, 0.200336
6423.98, 0.194357
6431.95, 0.192816
6439.94, 0.191460
6447.95, 0.191460
6455.98, 0.191521
6464.03, 0.192446
6472.1, 0.194973
6480.19, 0.197809
6488.31, 0.202062
6496.44, 0.201014
6504.59, 0.195281
6512.76, 0.195343
6520.95, 0.196946
6529.16, 0.195097
6537.4, 0.195281
6545.65, 0.196946
6553.92, 0.198117
6562.22, 0.199288
6570.54, 0.202000
6578.88, 0.200028
6587.23, 0.199288
6595.61, 0.198610
6604.02, 0.197377
6612.44, 0.197870
6620.89, 0.199103
6629.35, 0.204220
6637.84, 0.206500
6646.35, 0.200521
6654.88, 0.197809
6663.44, 0.199165
6672.01, 0.201076
6680.61, 0.201939
6689.23, 0.199596
6697.88, 0.198918
6706.54, 0.201261
6715.23, 0.201569
6723.94, 0.200213
6732.67, 0.198672
6741.42, 0.197994
6750.2, 0.198055
6759.0, 0.197747
6767.82, 0.198425
6776.67, 0.199042
6785.54, 0.199966
6794.44, 0.197562
6803.35, 0.193371
6812.29, 0.192199
6821.26, 0.193001
6830.24, 0.191706
6839.25, 0.189487
6848.29, 0.190535
6857.35, 0.194110
6866.43, 0.192693
6875.54, 0.187145
6884.67, 0.185480
6893.82, 0.184987
6903.0, 0.185357
6912.2, 0.184556
6921.43, 0.183693
6930.69, 0.183385
6939.96, 0.183385
6949.27, 0.184802
6958.59, 0.186898
6967.95, 0.184309
6977.33, 0.182707
6986.73, 0.182891
6996.16, 0.182398
7005.61, 0.181042
7015.09, 0.180734
7024.6, 0.179871
7034.13, 0.179871
7043.69, 0.180981
7053.27, 0.178083
7062.88, 0.175063
7072.52, 0.173584
7082.18, 0.172351
7091.87, 0.171118
7101.58, 0.170193
7111.32, 0.169885
7121.09, 0.168837
7130.88, 0.167419
7140.71, 0.167481
7150.56, 0.167173
7160.43, 0.166680
7170.33, 0.166371
7180.27, 0.164522
7190.23, 0.163721
7200.21, 0.164152
7210.23, 0.163967
7220.27, 0.162241
7230.34, 0.161440
7240.44, 0.160762
7250.56, 0.160084
7260.72, 0.159468
7270.9, 0.159344
7281.12, 0.158235
7291.36, 0.156694
7301.63, 0.155831
7311.93, 0.155029
7322.25, 0.154228
7332.61, 0.154043
7343.0, 0.153303
7353.41, 0.152009
7363.86, 0.150776
7374.33, 0.149790
7384.83, 0.148804
7395.37, 0.147632
7405.93, 0.146523
7416.53, 0.145413
7427.15, 0.144119
7437.81, 0.142886
7448.5, 0.141961
7459.22, 0.141160
7469.96, 0.139865
7480.74, 0.138201
7491.55, 0.136537
7502.39, 0.135304
7513.27, 0.134133
7524.17, 0.132962
7535.11, 0.131605
7546.08, 0.130249
7557.08, 0.129016
7568.11, 0.127969
7579.17, 0.127044
7590.27, 0.126119
7601.4, 0.125195
7612.56, 0.124332
7623.76, 0.123530
7634.98, 0.122976
7646.24, 0.122482
7657.54, 0.122236
7668.87, 0.122174
7680.23, 0.122359
7691.62, 0.122544
7703.05, 0.122852
7714.51, 0.123037
7726.01, 0.123345
7737.54, 0.123839
7749.11, 0.124147
7760.71, 0.124147
7772.35, 0.124332
7784.02, 0.124640
7795.72, 0.124517
7807.46, 0.124270
7819.23, 0.124147
7831.04, 0.123962
7842.89, 0.123777
7854.77, 0.123530
7866.69, 0.123160
7878.65, 0.122729
7890.64, 0.122298
7902.67, 0.121743
7914.74, 0.121250
7926.84, 0.121003
7938.98, 0.120880
7951.16, 0.120756
7963.37, 0.120695
7975.62, 0.120818
7987.91, 0.120880
8000.24, 0.120448
8012.6, 0.119955
8025.01, 0.119462
8037.45, 0.118661
8049.93, 0.117921
8062.45, 0.116935
8075.01, 0.115702
8087.61, 0.114469
8100.24, 0.113236
8112.91, 0.111942
8125.63, 0.110586
8138.39, 0.109044
8151.18, 0.107627
8164.02, 0.106271
8176.9, 0.104668
8189.81, 0.103004
8202.77, 0.101216
8215.77, 0.0994280
8228.82, 0.0977640
8241.9, 0.0961000
8255.02, 0.0944970
8268.19, 0.0928940
8281.39, 0.0912300
8294.65, 0.0896890
8307.94, 0.0880860
8321.28, 0.0864220
8334.66, 0.0851890
8348.08, 0.0839560
8361.54, 0.0825380
8375.05, 0.0811820
8388.6, 0.0800110
8402.2, 0.0784700
8415.84, 0.0770520
8429.52, 0.0757580
8443.25, 0.0745250
8457.02, 0.0731690
8470.84, 0.0718740
8484.7, 0.0704570
8498.61, 0.0689160
8512.57, 0.0675600
8526.57, 0.0662650
8540.62, 0.0648470
8554.71, 0.0633060
8568.85, 0.0618880
8583.04, 0.0604090
8597.27, 0.0591150
8611.55, 0.0580050
8625.88, 0.0567720
8640.26, 0.0554780
8654.68, 0.0542450
8669.16, 0.0531350
8683.68, 0.0519640
8698.25, 0.0509780
8712.87, 0.0496220
8727.53, 0.0479570
8742.25, 0.0466630
8757.02, 0.0455530
8771.83, 0.0442590
8786.7, 0.0426560
8801.62, 0.0408690
8816.59, 0.0394510
8831.61, 0.0379100
8846.68, 0.0363690
8861.8, 0.0343350
8876.97, 0.0320540
8892.2, 0.0297730
8907.48, 0.0276160
8922.81, 0.0257050
8938.2, 0.0244100
8953.63, 0.0237940
8969.13, 0.0235470
8984.67, 0.0233010
9000.27, 0.0229920
9015.92, 0.0227460
9031.63, 0.0224990
9047.39, 0.0221910
9063.21, 0.0219450
9079.08, 0.0217600
9095.01, 0.0215130
9111.0, 0.0210200
9127.04, 0.0206500
9143.13, 0.0205880
9159.28, 0.0208350
9175.49, 0.0208970
9191.76, 0.0214510
9208.09, 0.0221290
9224.47, 0.0231770
9240.92, 0.0245330
9257.42, 0.0263830
9273.98, 0.0287250
9290.6, 0.0314990
9307.28, 0.0350130
9324.02, 0.0388960
9340.82, 0.0432110
9357.68, 0.0480810
9374.6, 0.0539370
9391.58, 0.0606560
9408.62, 0.0678060
9425.73, 0.0755730
9442.9, 0.0837710
9460.13, 0.0920930
9477.42, 0.100353
9494.78, 0.107627
9512.2, 0.113853
9529.69, 0.119092
9547.24, 0.123160
9564.86, 0.126181
9582.54, 0.128647
9600.28, 0.130558
9618.1, 0.131914
9635.97, 0.132962
9653.92, 0.133825
9671.93, 0.134133
9690.01, 0.133825
9708.16, 0.133208
9726.37, 0.133023
9744.65, 0.132838
9763.0, 0.132407
9781.43, 0.131667
9799.92, 0.130804
9818.48, 0.130003
9837.1, 0.129140
9855.8, 0.128215
9874.58, 0.127106
9893.42, 0.125688
9912.34, 0.124332
9931.33, 0.123222
9950.39, 0.121743
9969.52, 0.120448
9988.74, 0.119339
10008.0, 0.118599
10027.4, 0.117859
10046.8, 0.117305
10066.3, 0.117120
10085.9, 0.117305
10105.6, 0.118291
10125.3, 0.119339
10145.1, 0.120510
10165.0, 0.122852
10185.0, 0.126243
10205.0, 0.131051
10225.2, 0.137585
10245.4, 0.145783
10265.7, 0.154228
10286.0, 0.161687
10306.5, 0.167481
10327.0, 0.171118
10347.6, 0.172289
10368.3, 0.170440
10389.1, 0.166803
10409.9, 0.162118
10430.9, 0.156509
10451.9, 0.150961
10473.0, 0.146091
10494.2, 0.141900
10515.5, 0.138818
10536.9, 0.137030
10558.4, 0.139434
10579.9, 0.149728
10601.5, 0.168221
10623.3, 0.190104
10645.1, 0.210692
10667.0, 0.228075
10689.0, 0.241698
10711.1, 0.251067
10733.2, 0.256923
10755.5, 0.260252
10777.9, 0.262040
10800.3, 0.262348
10822.9, 0.261731
10845.5, 0.260252
10868.2, 0.257910
10891.1, 0.255136
10914.0, 0.252732
10937.0, 0.250204
10960.2, 0.247739
10983.4, 0.245273
11006.7, 0.242931
11030.1, 0.240588
11053.6, 0.238308
11077.3, 0.235780
11101.0, 0.233746
11124.8, 0.231773
11148.7, 0.229554
11172.7, 0.227397
11196.9, 0.225301
11221.1, 0.223267
11245.4, 0.221294
11269.9, 0.218705
11294.4, 0.215747
11319.1, 0.212110
11343.9, 0.207733
11368.8, 0.202247
11393.7, 0.195960
11418.8, 0.188747
11444.0, 0.181474
11469.4, 0.173584
11494.8, 0.164707
11520.3, 0.155584
11546.0, 0.146276
11571.8, 0.137092
11597.7, 0.128832
11623.7, 0.121681
11649.8, 0.115270
11676.0, 0.109353
11702.4, 0.104360
11728.9, 0.100106
11755.5, 0.0960380
11782.2, 0.0916610
11809.0, 0.0872230
11836.0, 0.0828470
11863.0, 0.0788400
11890.3, 0.0770520
11917.6, 0.0790250
11945.0, 0.0831550
11972.6, 0.0873470
12000.4, 0.0892570
12028.2, 0.0882710
12056.2, 0.0860520
12084.3, 0.0835860
12112.5, 0.0810590
12140.9, 0.0785320
12169.4, 0.0769290
12198.0, 0.0752650
12226.8, 0.0738470
12255.7, 0.0725520
12284.7, 0.0716900
12313.9, 0.0709500
12343.2, 0.0700250
12372.7, 0.0693470
12402.3, 0.0690390
12432.0, 0.0686690
12461.9, 0.0679910
12491.9, 0.0674360
12522.1, 0.0673130
12552.4, 0.0673750
12582.9, 0.0674360
12613.5, 0.0672510
12644.3, 0.0673130
12675.2, 0.0675600
12706.3, 0.0677440
12737.5, 0.0676210
12768.9, 0.0679290
12800.4, 0.0681760
12832.1, 0.0681760
12863.9, 0.0681140
12895.9, 0.0686690
12928.1, 0.0692240
12960.4, 0.0693470
12992.9, 0.0692850
13025.5, 0.0691620
13058.3, 0.0692850
13091.3, 0.0697790
13124.4, 0.0696550
13157.8, 0.0696550
13191.2, 0.0698400
13224.9, 0.0699020
13258.7, 0.0693470
13292.7, 0.0686690
13326.9, 0.0681140
13361.2, 0.0677440
13395.7, 0.0669430
13430.4, 0.0664500
13465.3, 0.0659570
13500.4, 0.0652790
13535.7, 0.0644770
13571.1, 0.0637990
13606.7, 0.0630600
13642.5, 0.0624430
13678.5, 0.0620730
13714.7, 0.0618880
13751.1, 0.0615190
13787.6, 0.0615190
13824.4, 0.0609020
13861.4, 0.0599160
13898.5, 0.0589910
13935.9, 0.0579430
13973.5, 0.0572650
14011.2, 0.0568340
14049.2, 0.0557860
14087.4, 0.0548610
14125.8, 0.0538750
14164.3, 0.0525810
14203.2, 0.0514710
14242.2, 0.0508550
14281.4, 0.0498680
14320.9, 0.0485120
14360.5, 0.0475880
14400.4, 0.0467860
14440.5, 0.0459230
14480.9, 0.0450600
14521.4, 0.0438890
14562.2, 0.0427790
14603.3, 0.0419780
14644.5, 0.0411150
14686.0, 0.0400670
14727.7, 0.0389580
14769.7, 0.0377860
14811.9, 0.0364920
14854.3, 0.0350740
14897.0, 0.0347040
14939.9, 0.0340260
14983.1, 0.0330400
15026.5, 0.0315610
15070.2, 0.0308830
15114.2, 0.0298350
15158.3, 0.0289100
15202.8, 0.0279240
15247.5, 0.0273070
15292.5, 0.0264440
15337.7, 0.0260750
15383.2, 0.0255200
15429.0, 0.0249650
15475.1, 0.0244100
15521.4, 0.0246340
15568.0, 0.0251510
15614.9, 0.0260860
15662.1, 0.0274320
15709.6, 0.0293390
15757.3, 0.0316500
15805.4, 0.0342610
15853.7, 0.0372220
15902.3, 0.0405810
15951.2, 0.0441950
16000.5, 0.0476940
16050.0, 0.0508780
16099.8, 0.0537770
16150.0, 0.0556700
16200.5, 0.0569470
16251.3, 0.0577860
16302.4, 0.0579680
16353.8, 0.0576320
16405.5, 0.0572520
16457.6, 0.0566020
16510.0, 0.0556080
16562.8, 0.0542980
16615.9, 0.0530220
16669.3, 0.0516450
16723.1, 0.0504060
16777.2, 0.0492020
16831.7, 0.0478490
16886.5, 0.0464310
16941.7, 0.0450430
16997.2, 0.0435260
17053.1, 0.0419020
17109.4, 0.0402530
17166.1, 0.0386750
17223.1, 0.0369860
17280.5, 0.0354980
17338.3, 0.0342810
17396.5, 0.0334810
17455.1, 0.0332920
17514.0, 0.0337490
17573.4, 0.0347890
17633.2, 0.0364260
17693.4, 0.0386560
17754.0, 0.0418480
17815.0, 0.0458690
17876.4, 0.0507420
17938.3, 0.0564390
18000.5, 0.0629280
18063.3, 0.0696910
18126.4, 0.0767180
18190.0, 0.0836660
18254.1, 0.0902080
18318.6, 0.0960440
18383.5, 0.101193
18449.0, 0.105336
18514.9, 0.108552
18581.2, 0.110881
18648.0, 0.112638
18715.4, 0.113718
18783.2, 0.114211
18851.5, 0.114113
18920.3, 0.113588
18989.6, 0.112539
19059.4, 0.111227
19129.7, 0.109824
19200.6, 0.108700
19272.0, 0.107843
19343.9, 0.107036
19416.3, 0.105814
19489.3, 0.103807
19562.8, 0.101192
19637.0, 0.0983960
19711.6, 0.0955680
19786.8, 0.0931200
19862.6, 0.0911210
19939.0, 0.0898950
20016.0, 0.0897020
20093.6, 0.0905760
20171.8, 0.0923090
20250.6, 0.0946340
20330.0, 0.0964770
20410.0, 0.0970480
20490.7, 0.0963070
20572.0, 0.0945810
20654.0, 0.0919060
20736.6, 0.0883520
20819.9, 0.0840970
20903.8, 0.0794210
20988.5, 0.0744560
21073.8, 0.0694930
21159.8, 0.0650420
21246.5, 0.0612850
21334.0, 0.0582650
21422.1, 0.0561090
21511.0, 0.0545180
21600.7, 0.0533830
21691.0, 0.0526730
21782.1, 0.0523430
21874.0, 0.0520190
21966.7, 0.0517040
22060.2, 0.0513280
22154.5, 0.0507670
22249.6, 0.0499430
22345.5, 0.0487850
22442.2, 0.0475230
22539.8, 0.0466390
22638.2, 0.0463120
22737.5, 0.0465820
22837.7, 0.0476710
22938.7, 0.0499130
23040.7, 0.0535450
23143.5, 0.0584110
23247.3, 0.0642930
23352.1, 0.0707230
23457.7, 0.0772800
23564.4, 0.0834260
23672.0, 0.0891830
23780.5, 0.0946030
23890.1, 0.0999680
24000.7, 0.105677
24112.3, 0.111688
24225.0, 0.117979
24338.7, 0.124231
24453.5, 0.130073
24569.4, 0.134350
24686.4, 0.136561
24804.5, 0.137185
24923.8, 0.136725
25044.2, 0.135825
25165.8, 0.135393
25288.6, 0.135192
25412.5, 0.133964
25537.7, 0.130561
25664.1, 0.124932
25791.8, 0.118186
25920.8, 0.111615
26051.1, 0.105792
26182.6, 0.100585
26315.5, 0.0963580
26449.8, 0.0929710
26585.4, 0.0902380
26722.5, 0.0881610
26860.9, 0.0873480
27000.8, 0.0875890
27142.1, 0.0893000
27285.0, 0.0921330
27429.4, 0.0962990
27575.3, 0.101504
27722.7, 0.107061
27871.8, 0.112188
28022.4, 0.117017
28174.7, 0.121147
28328.7, 0.124525
28484.4, 0.126721
28641.7, 0.129024
28800.9, 0.129641
28961.8, 0.128948
29124.5, 0.128537
29289.0, 0.127297
29455.4, 0.125949
29623.8, 0.124202
29794.0, 0.122285
29966.3, 0.120331
30140.5, 0.118319
30316.7, 0.115973
30495.1, 0.113683
30675.5, 0.111562
30858.1, 0.109525
31042.8, 0.107351
31229.8, 0.105323
31419.1, 0.103274
31610.7, 0.101262
31804.6, 0.0991440
32000.9, 0.0972190
32199.7, 0.0951650
32400.9, 0.0933500
32604.8, 0.0917440
32811.1, 0.0900870
33020.1, 0.0883650
33231.8, 0.0873790
33446.2, 0.0864090
33663.4, 0.0857490
33883.4, 0.0853150
34106.3, 0.0852930
34332.1, 0.0855570
34561.0, 0.0860580
34792.9, 0.0870000
35028.0, 0.0884880
35266.3, 0.0896110
35507.8, 0.0903670
35752.7, 0.0911650
36001.0, 0.0917980
36252.8, 0.0924000
36508.1, 0.0925140
36767.0, 0.0918410
37029.7, 0.0910910
37296.1, 0.0903670
37566.3, 0.0896020
37840.5, 0.0890670
38118.8, 0.0886920
38401.2, 0.0886380
38687.8, 0.0887330
38978.6, 0.0889690
39273.9, 0.0892880
39573.7, 0.0896800
39878.1, 0.0896570
40187.3, 0.0895990
40501.2, 0.0898210
40820.0, 0.0903440
41144.0, 0.0907160
41473.2, 0.0907220
41807.6, 0.0904750
42147.5, 0.0902880
42493.0, 0.0901280
42844.2, 0.0897090
43201.2, 0.0896160
43564.3, 0.0894840
43933.5, 0.0884830
44309.0, 0.0878660
44691.0, 0.0876740
45079.6, 0.0873100
45475.0, 0.0872510
45877.5, 0.0871330
46287.1, 0.0864360
46704.2, 0.0862500
47128.7, 0.0864140
47561.1, 0.0863500
48001.5, 0.0852800
48450.1, 0.0849280
48907.2, 0.0852550
49373.0, 0.0884540
49847.7, 0.0875640
50331.5, 0.0853400
50825.0, 0.0854410
51328.2, 0.0862660
51841.5, 0.0869140
52365.1, 0.0873560
52899.4, 0.0877800
53444.8, 0.0876600
54001.5, 0.0875870
54570.1, 0.0891630
55150.6, 0.0908960
55743.6, 0.0914430
56349.5, 0.0925750
56968.7, 0.0946430
57601.7, 0.0957280
58248.9, 0.0964560
58910.9, 0.0984850
59588.1, 0.101025
60281.0, 0.101915
60990.2, 0.103144
61716.3, 0.105379
62459.8, 0.108918
63221.6, 0.110551
64002.1, 0.112615
64802.1, 0.115207
65622.1, 0.118754
66463.4, 0.122970
67326.6, 0.125555
68212.4, 0.128971
69121.9, 0.133630
70056.0, 0.136416
71015.7, 0.141225
72002.0, 0.147774
73016.3, 0.152459
74059.4, 0.154915
75132.7, 0.157883
76237.6, 0.159376
77375.5, 0.157523
78547.9, 0.149923
79756.3, 0.138490
81002.5, 0.126787
82288.5, 0.125402
83615.7, 0.139004
84986.5, 0.152012
86402.9, 0.160234
87867.4, 0.169280
89382.4, 0.170847
90950.5, 0.167133
92574.6, 0.163847
94257.2, 0.161865
96002.7, 0.159683
97814.1, 0.154692
99695.1, 0.148311
101650.0, 0.147572
103683.0, 0.143628
105799.0, 0.126588
108003.0, 0.110063
110301.0, 0.109036
112699.0, 0.109654
115204.0, 0.0936950
117822.0, 0.0698090
120562.0, 0.0646000
123433.0, 0.0630640
126443.0, 0.0543630
129604.0, 0.0544250
132926.0, 0.0584330
136424.0, 0.0510760
140111.0, 0.0340430
144003.0, 0.0281660
148118.0, 0.0246060
152474.0, 0.0229190
157095.0, 0.0229110
162004.0, 0.0229110
167231.0, 0.0229110
172805.0, 0.0229110
178764.0, 0.0229110
185148.0, 0.0229110
192005.0, 0.0229110
199390.0, 0.0229110
207366.0, 0.0229110
216006.0, 0.0229110
