Database of Origin, USGS Spectral Database
Sample Description, See USGS database for additional info
Date Added,2016-08-03 20:57:55.815693

Data ID,USGS_amp02          
Sample ID, amphibole_nmnh78662.1887
Mineral Name, amphibole
Material Class,Inosilicate

Wavelength
1384.66, 0.641231
1385.03, 0.640465
1385.4, 0.641183
1385.77, 0.640705
1386.14, 0.640322
1386.51, 0.640705
1386.88, 0.640609
1387.25, 0.639269
1387.62, 0.636637
1387.99, 0.635680
1388.36, 0.635920
1388.74, 0.635824
1389.11, 0.634819
1389.48, 0.632187
1389.85, 0.628790
1390.23, 0.623574
1390.6, 0.614292
1390.97, 0.597018
1391.35, 0.567495
1391.72, 0.530029
1392.09, 0.499405
1392.47, 0.493902
1392.84, 0.512324
1393.21, 0.539934
1393.59, 0.565820
1393.96, 0.585821
1394.34, 0.598262
1394.71, 0.605583
1395.09, 0.611181
1395.46, 0.614244
1395.84, 0.612808
1396.22, 0.606731
1396.59, 0.596779
1396.97, 0.578548
1397.35, 0.556537
1397.72, 0.540795
1398.1, 0.538211
1398.48, 0.543857
1398.85, 0.553188
1399.23, 0.566490
1399.61, 0.581419
1399.99, 0.593286
1400.37, 0.601037
1400.74, 0.607688
1401.12, 0.612043
1401.5, 0.614148
1401.88, 0.616110
1402.26, 0.617019
1402.64, 0.616349
1403.02, 0.614866
1403.4, 0.611612
1403.78, 0.606731
1404.16, 0.601947
1404.54, 0.596922
1404.92, 0.594051
1405.3, 0.596587
1405.68, 0.602616
1406.06, 0.608837
1406.44, 0.612330
1406.83, 0.613861
1407.21, 0.615536
1407.59, 0.617210
1407.97, 0.617976
1408.35, 0.618598
1408.74, 0.617976
1409.12, 0.617258
1409.5, 0.617976
1409.89, 0.619124
1410.27, 0.619220
1410.65, 0.618981
1411.04, 0.618694
1411.42, 0.618885
1411.81, 0.618502
1412.19, 0.618311
1412.58, 0.617928
1412.96, 0.617019
1413.35, 0.617115
1413.73, 0.617306
1414.12, 0.617545
1414.5, 0.618168
1414.89, 0.619364
1415.28, 0.619364
1415.66, 0.619077
1416.05, 0.619077
1416.44, 0.618885
1416.82, 0.618981
1417.21, 0.619124
1417.6, 0.618742
1417.98, 0.618598
1418.37, 0.618215
1418.76, 0.618168
1419.15, 0.618263
1419.54, 0.618502
1419.93, 0.618311
1420.32, 0.618646
1420.71, 0.618694
1421.09, 0.618502
1421.48, 0.618502
1421.88, 0.618790
1422.27, 0.618933
1422.66, 0.618790
1423.05, 0.618215
1423.44, 0.617880
1423.83, 0.617880
1424.22, 0.618311
1424.61, 0.618359
1425.0, 0.618120
1425.39, 0.618072
1425.78, 0.618215
1426.18, 0.618215
1426.57, 0.618120
1426.96, 0.618072
1427.36, 0.617832
1427.75, 0.618024
1428.14, 0.618359
1428.54, 0.618215
1428.93, 0.617306
1429.32, 0.617210
1429.72, 0.617498
1430.11, 0.617450
1430.51, 0.617402
1430.9, 0.617402
1431.3, 0.617163
1431.69, 0.617019
1432.09, 0.616732
1432.48, 0.616588
1432.88, 0.616923
1433.28, 0.616971
1433.67, 0.617019
1434.07, 0.616828
1434.46, 0.616828
1434.86, 0.616971
1435.26, 0.616684
1435.66, 0.616636
1436.05, 0.616684
1436.45, 0.616541
1436.85, 0.616253
1437.25, 0.616062
1437.65, 0.615966
1438.05, 0.616062
1438.44, 0.616636
1438.84, 0.616541
1439.24, 0.616110
1439.64, 0.616301
1440.04, 0.616493
1440.44, 0.616349
1440.84, 0.615966
1441.24, 0.615871
1441.65, 0.615775
1442.05, 0.616206
1442.45, 0.616349
1442.85, 0.616206
1443.25, 0.616301
1443.65, 0.616349
1444.05, 0.616062
1444.46, 0.615871
1444.86, 0.615775
1445.26, 0.615297
1445.67, 0.615297
1446.07, 0.615727
1446.47, 0.615919
1446.88, 0.615871
1447.28, 0.616253
1447.68, 0.616062
1448.09, 0.615631
1448.49, 0.615679
1448.9, 0.615536
1449.3, 0.615440
1449.71, 0.615297
1450.11, 0.615249
1450.52, 0.615249
1450.93, 0.615584
1451.33, 0.615679
1451.74, 0.615871
1452.14, 0.615871
1452.55, 0.615966
1452.96, 0.615727
1453.36, 0.615871
1453.77, 0.615823
1454.18, 0.615727
1454.59, 0.615823
1455.0, 0.615536
1455.41, 0.615536
1455.81, 0.615344
1456.22, 0.615584
1456.63, 0.615727
1457.04, 0.615727
1457.45, 0.615919
1457.86, 0.615966
1458.27, 0.616014
1458.68, 0.616062
1459.09, 0.615966
1459.5, 0.615727
1459.91, 0.615823
1460.32, 0.616110
1460.74, 0.616158
1461.15, 0.616206
1461.56, 0.616301
1461.97, 0.616206
1462.39, 0.616014
1462.8, 0.616062
1463.21, 0.616206
1463.62, 0.616206
1464.04, 0.616110
1464.45, 0.616397
1464.86, 0.616014
1465.28, 0.615966
1465.69, 0.615966
1466.11, 0.616110
1466.52, 0.616493
1466.94, 0.616349
1467.35, 0.616062
1467.77, 0.616158
1468.18, 0.616253
1468.6, 0.616541
1469.02, 0.616923
1469.43, 0.616732
1469.85, 0.616349
1470.27, 0.616301
1470.68, 0.616541
1471.1, 0.616636
1471.52, 0.616732
1471.94, 0.616541
1472.35, 0.616971
1472.77, 0.617402
1473.19, 0.617498
1473.61, 0.617402
1474.03, 0.617306
1474.45, 0.617737
1474.87, 0.617976
1475.29, 0.618120
1475.71, 0.618168
1476.13, 0.618311
1476.55, 0.618598
1476.97, 0.618790
1477.39, 0.618598
1477.81, 0.618742
1478.23, 0.619124
1478.65, 0.619077
1479.07, 0.619364
1479.5, 0.619699
1479.92, 0.619747
1480.34, 0.619364
1480.76, 0.619459
1481.19, 0.619747
1481.61, 0.619938
1482.03, 0.620129
1482.46, 0.620751
1482.88, 0.620991
1483.31, 0.620704
1483.73, 0.620799
1484.16, 0.621278
1484.58, 0.621278
1485.01, 0.621469
1485.43, 0.621565
1485.86, 0.621660
1486.28, 0.621900
1486.71, 0.622378
1487.14, 0.622378
1487.56, 0.622283
1487.99, 0.622617
1488.42, 0.622809
1488.84, 0.623096
1489.27, 0.623527
1489.7, 0.623814
1490.13, 0.623527
1490.56, 0.623431
1490.98, 0.624005
1491.41, 0.624244
1491.84, 0.624292
1492.27, 0.624340
1492.7, 0.624579
1493.13, 0.624771
1493.56, 0.624962
1493.99, 0.625201
1494.42, 0.625106
1494.85, 0.625536
1495.29, 0.625680
1495.72, 0.625967
1496.15, 0.626206
1496.58, 0.625919
1497.01, 0.625967
1497.44, 0.626589
1497.88, 0.626972
1498.31, 0.627067
1498.74, 0.627307
1499.18, 0.627355
1499.61, 0.627594
1500.04, 0.627594
1500.48, 0.627402
1500.91, 0.627833
1501.35, 0.628264
1501.78, 0.628551
1502.22, 0.628551
1502.65, 0.628551
1503.09, 0.628934
1503.53, 0.629269
1503.96, 0.629556
1504.4, 0.629412
1504.83, 0.629508
1505.27, 0.629747
1505.71, 0.629795
1506.15, 0.630034
1506.58, 0.630273
1507.02, 0.630513
1507.46, 0.630752
1507.9, 0.630991
1508.34, 0.631087
1508.78, 0.631230
1509.21, 0.631613
1509.66, 0.631805
1510.09, 0.631900
1510.53, 0.632044
1510.97, 0.632474
1511.42, 0.632618
1511.86, 0.632714
1512.3, 0.632953
1512.74, 0.633384
1513.18, 0.633288
1513.62, 0.633097
1514.06, 0.633479
1514.51, 0.633910
1514.95, 0.634341
1515.39, 0.634149
1515.83, 0.634245
1516.28, 0.634341
1516.72, 0.634532
1517.16, 0.634723
1517.61, 0.634963
1518.05, 0.634963
1518.5, 0.635393
1518.94, 0.635776
1519.39, 0.635967
1519.83, 0.635920
1520.28, 0.635776
1520.73, 0.636063
1521.17, 0.636350
1521.62, 0.636877
1522.07, 0.636877
1522.51, 0.636685
1522.96, 0.636733
1523.41, 0.637020
1523.85, 0.636972
1524.3, 0.637020
1524.75, 0.637212
1525.2, 0.637642
1525.65, 0.637929
1526.1, 0.638169
1526.55, 0.638264
1527.0, 0.638886
1527.45, 0.639030
1527.9, 0.639030
1528.35, 0.638934
1528.8, 0.639461
1529.25, 0.639939
1529.7, 0.640322
1530.15, 0.640465
1530.6, 0.640609
1531.05, 0.640800
1531.51, 0.640992
1531.96, 0.641279
1532.41, 0.641422
1532.87, 0.641566
1533.32, 0.641709
1533.77, 0.641949
1534.23, 0.642188
1534.68, 0.642379
1535.14, 0.642906
1535.59, 0.643145
1536.05, 0.643241
1536.5, 0.643145
1536.96, 0.643384
1537.41, 0.643767
1537.87, 0.644102
1538.32, 0.644533
1538.78, 0.644963
1539.24, 0.645298
1539.7, 0.645490
1540.15, 0.645633
1540.61, 0.645633
1541.07, 0.645824
1541.53, 0.646112
1541.98, 0.646877
1542.44, 0.647356
1542.9, 0.647212
1543.36, 0.647451
1543.82, 0.647691
1544.28, 0.648073
1544.74, 0.648361
1545.2, 0.648600
1545.66, 0.648743
1546.12, 0.648887
1546.59, 0.649222
1547.05, 0.649557
1547.51, 0.649940
1547.97, 0.650466
1548.43, 0.650849
1548.9, 0.650753
1549.36, 0.650897
1549.82, 0.651136
1550.29, 0.651710
1550.75, 0.652141
1551.21, 0.652476
1551.68, 0.652667
1552.14, 0.652763
1552.61, 0.653002
1553.07, 0.653289
1553.54, 0.653337
1554.0, 0.653528
1554.47, 0.653911
1554.93, 0.654342
1555.4, 0.654724
1555.87, 0.654820
1556.34, 0.655059
1556.8, 0.655203
1557.27, 0.655490
1557.74, 0.655921
1558.21, 0.656208
1558.68, 0.656447
1559.14, 0.656734
1559.61, 0.657213
1560.08, 0.657500
1560.55, 0.657787
1561.02, 0.658122
1561.49, 0.657930
1561.96, 0.658361
1562.43, 0.658744
1562.9, 0.658792
1563.38, 0.659222
1563.85, 0.659318
1564.32, 0.659174
1564.79, 0.659796
1565.26, 0.660371
1565.74, 0.660658
1566.21, 0.660849
1566.68, 0.661041
1567.16, 0.661328
1567.63, 0.661519
1568.1, 0.661567
1568.58, 0.661423
1569.05, 0.661806
1569.53, 0.661998
1570.0, 0.662237
1570.48, 0.662620
1570.96, 0.662763
1571.43, 0.662955
1571.91, 0.662811
1572.39, 0.663242
1572.86, 0.663768
1573.34, 0.663959
1573.82, 0.664342
1574.3, 0.664294
1574.77, 0.664773
1575.25, 0.665108
1575.73, 0.664916
1576.21, 0.665012
1576.69, 0.665347
1577.17, 0.665634
1577.65, 0.665826
1578.13, 0.665921
1578.61, 0.666161
1579.09, 0.666783
1579.57, 0.667022
1580.05, 0.667070
1580.54, 0.667213
1581.02, 0.667548
1581.5, 0.667596
1581.98, 0.667835
1582.47, 0.668314
1582.95, 0.668601
1583.43, 0.668697
1583.92, 0.668649
1584.4, 0.668553
1584.88, 0.668744
1585.37, 0.669319
1585.85, 0.669749
1586.34, 0.669893
1586.82, 0.670084
1587.31, 0.670228
1587.8, 0.670323
1588.28, 0.670610
1588.77, 0.670898
1589.26, 0.671089
1589.74, 0.671376
1590.23, 0.671711
1590.72, 0.671950
1591.21, 0.672381
1591.7, 0.672525
1592.19, 0.672620
1592.67, 0.672764
1593.16, 0.673003
1593.65, 0.673003
1594.14, 0.673338
1594.63, 0.673673
1595.12, 0.673816
1595.61, 0.674199
1596.11, 0.674726
1596.6, 0.675061
1597.09, 0.675252
1597.58, 0.675491
1598.08, 0.675683
1598.57, 0.675970
1599.06, 0.676209
1599.55, 0.676448
1600.05, 0.676783
1600.54, 0.677022
1601.04, 0.677214
1601.53, 0.677070
1602.03, 0.677549
1602.52, 0.678266
1603.02, 0.678697
1603.51, 0.678841
1604.01, 0.679176
1604.5, 0.679223
1605.0, 0.679511
1605.5, 0.679845
1606.0, 0.679893
1606.49, 0.680180
1606.99, 0.680563
1607.49, 0.680850
1607.99, 0.680946
1608.49, 0.681329
1608.99, 0.681616
1609.49, 0.681855
1609.99, 0.682094
1610.49, 0.682525
1610.99, 0.682956
1611.49, 0.683003
1611.99, 0.683339
1612.49, 0.683673
1612.99, 0.683721
1613.49, 0.684056
1614.0, 0.684152
1614.5, 0.684439
1615.0, 0.684870
1615.51, 0.685109
1616.01, 0.685683
1616.51, 0.685875
1617.02, 0.685731
1617.52, 0.685922
1618.03, 0.686353
1618.53, 0.686688
1619.04, 0.687166
1619.54, 0.687454
1620.05, 0.687454
1620.55, 0.687597
1621.06, 0.687932
1621.57, 0.688267
1622.08, 0.688458
1622.58, 0.688745
1623.09, 0.689176
1623.6, 0.689415
1624.11, 0.689415
1624.62, 0.689415
1625.13, 0.689750
1625.64, 0.690181
1626.15, 0.690420
1626.66, 0.690707
1627.17, 0.690803
1627.68, 0.691090
1628.19, 0.691329
1628.7, 0.691808
1629.21, 0.692143
1629.72, 0.692191
1630.24, 0.692238
1630.75, 0.692430
1631.26, 0.692526
1631.78, 0.692765
1632.29, 0.693148
1632.8, 0.693387
1633.32, 0.693578
1633.83, 0.693722
1634.35, 0.694153
1634.86, 0.694296
1635.38, 0.694583
1635.9, 0.694631
1636.41, 0.694679
1636.93, 0.694775
1637.45, 0.695014
1637.96, 0.695397
1638.48, 0.695732
1639.0, 0.695732
1639.52, 0.695732
1640.04, 0.696019
1640.56, 0.696162
1641.08, 0.696449
1641.59, 0.696880
1642.11, 0.696784
1642.63, 0.696832
1643.16, 0.697119
1643.68, 0.697598
1644.2, 0.698124
1644.72, 0.698028
1645.24, 0.697885
1645.76, 0.698076
1646.29, 0.698411
1646.81, 0.698459
1647.33, 0.698507
1647.86, 0.698937
1648.38, 0.699320
1648.9, 0.699560
1649.43, 0.699703
1649.95, 0.699799
1650.48, 0.699799
1651.0, 0.699990
1651.53, 0.700038
1652.06, 0.700373
1652.58, 0.700469
1653.11, 0.700564
1653.64, 0.700708
1654.17, 0.701043
1654.69, 0.700995
1655.22, 0.701138
1655.75, 0.701521
1656.28, 0.701713
1656.81, 0.701761
1657.34, 0.701952
1657.87, 0.702048
1658.4, 0.702430
1658.93, 0.703005
1659.46, 0.703244
1659.99, 0.703340
1660.52, 0.703292
1661.05, 0.703340
1661.59, 0.703531
1662.12, 0.703818
1662.65, 0.703818
1663.19, 0.704057
1663.72, 0.704584
1664.26, 0.704871
1664.79, 0.704919
1665.32, 0.705110
1665.86, 0.705780
1666.39, 0.706067
1666.93, 0.706067
1667.47, 0.706210
1668.0, 0.706641
1668.54, 0.706593
1669.08, 0.706785
1669.61, 0.707215
1670.15, 0.707407
1670.69, 0.707502
1671.23, 0.707598
1671.77, 0.707598
1672.31, 0.707981
1672.85, 0.708220
1673.39, 0.708651
1673.93, 0.708890
1674.47, 0.708842
1675.01, 0.709082
1675.55, 0.709560
1676.09, 0.709895
1676.64, 0.710086
1677.18, 0.710326
1677.72, 0.710517
1678.26, 0.710613
1678.81, 0.710804
1679.35, 0.711043
1679.89, 0.711330
1680.44, 0.711522
1680.98, 0.711761
1681.53, 0.712096
1682.07, 0.712383
1682.62, 0.712575
1683.17, 0.712575
1683.71, 0.712766
1684.26, 0.713101
1684.81, 0.713340
1685.36, 0.713388
1685.9, 0.713675
1686.45, 0.714106
1687.0, 0.714345
1687.55, 0.714584
1688.1, 0.714728
1688.65, 0.714919
1689.2, 0.715350
1689.75, 0.715541
1690.3, 0.715541
1690.85, 0.715733
1691.41, 0.716115
1691.96, 0.716307
1692.51, 0.716355
1693.06, 0.716402
1693.61, 0.716498
1694.17, 0.716881
1694.72, 0.717168
1695.28, 0.717264
1695.83, 0.717407
1696.39, 0.717647
1696.94, 0.717790
1697.5, 0.718077
1698.05, 0.718269
1698.61, 0.718364
1699.17, 0.718460
1699.72, 0.718651
1700.28, 0.718747
1700.84, 0.719082
1701.4, 0.719369
1701.95, 0.719369
1702.51, 0.719656
1703.07, 0.719800
1703.63, 0.719991
1704.19, 0.720087
1704.75, 0.720135
1705.31, 0.720087
1705.88, 0.720278
1706.44, 0.720374
1707.0, 0.720470
1707.56, 0.720613
1708.12, 0.721092
1708.69, 0.721140
1709.25, 0.721379
1709.81, 0.721714
1710.38, 0.721570
1710.94, 0.721762
1711.51, 0.722001
1712.07, 0.722097
1712.64, 0.722097
1713.2, 0.722097
1713.77, 0.722288
1714.34, 0.722527
1714.9, 0.722671
1715.47, 0.722766
1716.04, 0.722766
1716.61, 0.722862
1717.18, 0.723054
1717.74, 0.723197
1718.31, 0.723388
1718.88, 0.723580
1719.45, 0.723819
1720.02, 0.723867
1720.59, 0.723819
1721.17, 0.724011
1721.74, 0.724202
1722.31, 0.724537
1722.88, 0.724489
1723.45, 0.724346
1724.03, 0.724537
1724.6, 0.724872
1725.18, 0.725015
1725.75, 0.725207
1726.33, 0.725494
1726.9, 0.725398
1727.48, 0.725446
1728.05, 0.725829
1728.63, 0.725877
1729.2, 0.725877
1729.78, 0.726068
1730.36, 0.726355
1730.94, 0.726499
1731.51, 0.726690
1732.09, 0.726690
1732.67, 0.726594
1733.25, 0.726786
1733.83, 0.727169
1734.41, 0.727312
1734.99, 0.727264
1735.57, 0.727551
1736.15, 0.727695
1736.73, 0.727982
1737.32, 0.728221
1737.9, 0.728269
1738.48, 0.728365
1739.07, 0.728700
1739.65, 0.728891
1740.23, 0.729130
1740.82, 0.729226
1741.4, 0.729370
1741.99, 0.729561
1742.57, 0.729609
1743.16, 0.729800
1743.74, 0.730470
1744.33, 0.730757
1744.92, 0.730709
1745.51, 0.730805
1746.09, 0.731188
1746.68, 0.731332
1747.27, 0.731236
1747.86, 0.731284
1748.45, 0.731427
1749.04, 0.731667
1749.63, 0.731954
1750.22, 0.732193
1750.81, 0.732480
1751.4, 0.732671
1751.99, 0.732863
1752.59, 0.733245
1753.18, 0.733341
1753.77, 0.733437
1754.37, 0.733580
1754.96, 0.733676
1755.56, 0.733867
1756.15, 0.733915
1756.74, 0.734298
1757.34, 0.734585
1757.94, 0.734825
1758.53, 0.734825
1759.13, 0.735016
1759.73, 0.735112
1760.32, 0.735303
1760.92, 0.735638
1761.52, 0.735973
1762.12, 0.736164
1762.72, 0.736451
1763.32, 0.736499
1763.92, 0.736499
1764.52, 0.736930
1765.12, 0.737121
1765.72, 0.737121
1766.32, 0.737313
1766.92, 0.737600
1767.53, 0.737504
1768.13, 0.737695
1768.73, 0.738126
1769.34, 0.738270
1769.94, 0.738222
1770.55, 0.738317
1771.15, 0.738461
1771.76, 0.738461
1772.36, 0.738461
1772.97, 0.738748
1773.57, 0.739035
1774.18, 0.739131
1774.79, 0.739227
1775.4, 0.739275
1776.0, 0.739514
1776.61, 0.739753
1777.22, 0.739849
1777.83, 0.739705
1778.44, 0.739705
1779.05, 0.739897
1779.66, 0.740040
1780.27, 0.740375
1780.88, 0.740471
1781.5, 0.740232
1782.11, 0.740471
1782.72, 0.740614
1783.33, 0.740710
1783.95, 0.740758
1784.56, 0.740758
1785.18, 0.740901
1785.79, 0.740854
1786.41, 0.740901
1787.02, 0.740901
1787.64, 0.740949
1788.26, 0.741189
1788.87, 0.741332
1789.49, 0.741236
1790.11, 0.741141
1790.73, 0.741236
1791.35, 0.741476
1791.96, 0.741715
1792.58, 0.741715
1793.21, 0.741811
1793.83, 0.741715
1794.45, 0.741667
1795.07, 0.742050
1795.69, 0.742193
1796.31, 0.742145
1796.93, 0.742050
1797.56, 0.742145
1798.18, 0.742433
1798.8, 0.742672
1799.43, 0.742576
1800.05, 0.742528
1800.68, 0.742576
1801.3, 0.742576
1801.93, 0.742624
1802.56, 0.742576
1803.18, 0.742815
1803.81, 0.742863
1804.44, 0.743055
1805.07, 0.742911
1805.7, 0.742433
1806.33, 0.742624
1806.95, 0.743102
1807.58, 0.743437
1808.22, 0.743485
1808.85, 0.743533
1809.48, 0.743533
1810.11, 0.743102
1810.74, 0.743007
1811.38, 0.743294
1812.01, 0.743294
1812.64, 0.743342
1813.28, 0.743772
1813.91, 0.744107
1814.55, 0.743772
1815.18, 0.742863
1815.82, 0.743246
1816.45, 0.743916
1817.09, 0.744394
1817.73, 0.744442
1818.36, 0.744347
1819.0, 0.744586
1819.64, 0.743390
1820.28, 0.742337
1820.92, 0.743390
1821.56, 0.743533
1822.2, 0.744394
1822.84, 0.745351
1823.48, 0.745926
1824.12, 0.746117
1824.76, 0.746021
1825.41, 0.744107
1826.05, 0.742241
1826.69, 0.744825
1827.34, 0.746452
1827.98, 0.745543
1828.63, 0.745351
1829.27, 0.745782
1829.92, 0.745782
1830.56, 0.744538
1831.21, 0.744873
1831.86, 0.746213
1832.5, 0.746691
1833.15, 0.747553
1833.8, 0.747505
1834.45, 0.746069
1835.1, 0.745495
1835.75, 0.744634
1836.4, 0.745017
1837.05, 0.745256
1837.7, 0.744873
1838.35, 0.747744
1839.01, 0.746978
1839.66, 0.744777
1840.31, 0.746643
1840.96, 0.746308
1841.62, 0.743820
1842.27, 0.746165
1842.93, 0.748892
1843.58, 0.749610
1844.24, 0.749897
1844.9, 0.749945
1845.55, 0.749610
1846.21, 0.746691
1846.87, 0.743964
1847.53, 0.745112
1848.18, 0.745973
1848.84, 0.748749
1849.5, 0.749897
1850.16, 0.749801
1850.82, 0.750136
1851.48, 0.750806
1852.14, 0.749849
1852.81, 0.748222
1853.47, 0.746308
1854.13, 0.747983
1854.8, 0.750806
1855.46, 0.750711
1856.12, 0.748175
1856.79, 0.748222
1857.45, 0.750423
1858.12, 0.751237
1858.79, 0.749658
1859.45, 0.746691
1860.12, 0.748031
1860.79, 0.750519
1861.46, 0.751667
1862.12, 0.751763
1862.79, 0.751667
1863.46, 0.750854
1864.13, 0.750328
1864.8, 0.751285
1865.48, 0.751907
1866.15, 0.751811
1866.82, 0.749754
1867.49, 0.746930
1868.16, 0.748509
1868.84, 0.750423
1869.51, 0.750041
1870.19, 0.747074
1870.86, 0.745304
1871.54, 0.749227
1872.21, 0.748414
1872.89, 0.745495
1873.56, 0.747935
1874.24, 0.750806
1874.92, 0.750423
1875.6, 0.750711
1876.28, 0.749562
1876.96, 0.748749
1877.64, 0.750950
1878.32, 0.752002
1879.0, 0.752098
1879.68, 0.752050
1880.36, 0.751572
1881.04, 0.751667
1881.73, 0.752290
1882.41, 0.752194
1883.09, 0.750998
1883.78, 0.749514
1884.46, 0.750758
1885.15, 0.751763
1885.83, 0.751524
1886.52, 0.751285
1887.21, 0.751667
1887.89, 0.752002
1888.58, 0.751667
1889.27, 0.749993
1889.96, 0.748557
1890.65, 0.750184
1891.34, 0.750423
1892.03, 0.749993
1892.72, 0.750615
1893.41, 0.750376
1894.1, 0.750663
1894.79, 0.750902
1895.49, 0.750950
1896.18, 0.750758
1896.87, 0.749897
1897.57, 0.749036
1898.26, 0.748844
1898.96, 0.746643
1899.65, 0.745734
1900.35, 0.747553
1901.05, 0.749419
1901.74, 0.749706
1902.44, 0.747265
1903.14, 0.747792
1903.84, 0.749562
1904.54, 0.747361
1905.24, 0.745734
1905.94, 0.746835
1906.64, 0.747361
1907.34, 0.749179
1908.04, 0.750232
1908.75, 0.750280
1909.45, 0.750232
1910.15, 0.749849
1910.86, 0.749323
1911.56, 0.749562
1912.27, 0.750041
1912.97, 0.747983
1913.68, 0.747983
1914.39, 0.750471
1915.09, 0.750998
1915.8, 0.750758
1916.51, 0.751045
1917.22, 0.751667
1917.93, 0.752050
1918.64, 0.751859
1919.35, 0.749945
1920.06, 0.747887
1920.77, 0.748940
1921.48, 0.751955
1922.19, 0.752912
1922.91, 0.752864
1923.62, 0.751620
1924.33, 0.752194
1925.05, 0.753486
1925.76, 0.753677
1926.48, 0.753151
1927.19, 0.752959
1927.91, 0.752625
1928.63, 0.752864
1929.35, 0.753629
1930.07, 0.753869
1930.78, 0.754060
1931.5, 0.754347
1932.22, 0.754347
1932.94, 0.754395
1933.66, 0.754395
1934.39, 0.755161
1935.11, 0.755304
1935.83, 0.754730
1936.55, 0.754730
1937.28, 0.755543
1938.0, 0.755687
1938.73, 0.755448
1939.45, 0.755448
1940.18, 0.756022
1940.9, 0.756118
1941.63, 0.756309
1942.36, 0.756548
1943.09, 0.756596
1943.81, 0.756500
1944.54, 0.756309
1945.27, 0.756787
1946.0, 0.756931
1946.73, 0.756835
1947.47, 0.756740
1948.2, 0.756979
1948.93, 0.757266
1949.66, 0.757122
1950.4, 0.757122
1951.13, 0.757122
1951.86, 0.757170
1952.6, 0.756931
1953.34, 0.756883
1954.07, 0.757027
1954.81, 0.757314
1955.55, 0.757410
1956.29, 0.757314
1957.02, 0.757314
1957.76, 0.757266
1958.5, 0.757218
1959.24, 0.757266
1959.98, 0.757314
1960.72, 0.757362
1961.47, 0.757457
1962.21, 0.757218
1962.95, 0.756931
1963.7, 0.756883
1964.44, 0.757074
1965.18, 0.757074
1965.93, 0.757027
1966.67, 0.756883
1967.42, 0.756740
1968.17, 0.756835
1968.92, 0.756931
1969.66, 0.756835
1970.41, 0.756740
1971.16, 0.756596
1971.91, 0.756644
1972.66, 0.756548
1973.41, 0.756118
1974.16, 0.756213
1974.92, 0.756213
1975.67, 0.756118
1976.42, 0.756022
1977.18, 0.755926
1977.93, 0.756070
1978.69, 0.756070
1979.44, 0.756070
1980.2, 0.755926
1980.95, 0.755735
1981.71, 0.755639
1982.47, 0.755735
1983.23, 0.755783
1983.99, 0.755735
1984.74, 0.755687
1985.51, 0.755448
1986.27, 0.755400
1987.03, 0.755065
1987.79, 0.754921
1988.55, 0.755113
1989.32, 0.755161
1990.08, 0.755161
1990.84, 0.755017
1991.61, 0.754969
1992.37, 0.755065
1993.14, 0.755161
1993.9, 0.755256
1994.67, 0.755304
1995.44, 0.755256
1996.21, 0.755161
1996.98, 0.754969
1997.75, 0.755017
1998.52, 0.755113
1999.29, 0.755161
2000.06, 0.755065
2000.83, 0.755065
2001.6, 0.754969
2002.38, 0.754969
2003.15, 0.755065
2003.93, 0.755065
2004.7, 0.755065
2005.48, 0.755304
2006.25, 0.755591
2007.03, 0.755448
2007.81, 0.755496
2008.58, 0.755639
2009.36, 0.755878
2010.14, 0.755974
2010.92, 0.756070
2011.7, 0.756213
2012.48, 0.756309
2013.26, 0.756357
2014.05, 0.756452
2014.83, 0.756500
2015.61, 0.756596
2016.4, 0.756740
2017.18, 0.756931
2017.97, 0.756835
2018.75, 0.756787
2019.54, 0.756979
2020.32, 0.757122
2021.11, 0.757362
2021.9, 0.757649
2022.69, 0.757792
2023.48, 0.757888
2024.27, 0.758079
2025.06, 0.758367
2025.85, 0.758510
2026.64, 0.758749
2027.44, 0.758701
2028.23, 0.758797
2029.02, 0.758941
2029.82, 0.758989
2030.61, 0.758989
2031.41, 0.759371
2032.2, 0.759611
2033.0, 0.759802
2033.8, 0.759706
2034.6, 0.759467
2035.4, 0.759419
2036.2, 0.759419
2037.0, 0.759515
2037.8, 0.759563
2038.6, 0.759467
2039.4, 0.759563
2040.2, 0.759658
2041.01, 0.759611
2041.81, 0.759515
2042.61, 0.759611
2043.42, 0.759467
2044.22, 0.759228
2045.03, 0.758989
2045.84, 0.759084
2046.65, 0.759132
2047.46, 0.758845
2048.26, 0.758462
2049.07, 0.758462
2049.88, 0.758367
2050.69, 0.758079
2051.51, 0.757840
2052.32, 0.757792
2053.13, 0.757744
2053.94, 0.757457
2054.76, 0.757314
2055.57, 0.757122
2056.39, 0.757122
2057.2, 0.756931
2058.02, 0.756740
2058.84, 0.756740
2059.66, 0.756596
2060.48, 0.756644
2061.29, 0.756500
2062.11, 0.756309
2062.94, 0.756405
2063.76, 0.756357
2064.58, 0.756261
2065.4, 0.756118
2066.22, 0.755926
2067.05, 0.755878
2067.87, 0.755926
2068.7, 0.755687
2069.52, 0.755496
2070.35, 0.755400
2071.18, 0.755352
2072.0, 0.755256
2072.83, 0.755113
2073.66, 0.754874
2074.49, 0.754730
2075.32, 0.754778
2076.15, 0.754682
2076.98, 0.754347
2077.82, 0.754060
2078.65, 0.754012
2079.48, 0.753964
2080.32, 0.753677
2081.15, 0.753534
2081.99, 0.753342
2082.83, 0.753007
2083.66, 0.752672
2084.5, 0.752433
2085.34, 0.752290
2086.18, 0.752050
2087.02, 0.751763
2087.86, 0.751715
2088.7, 0.751667
2089.54, 0.751667
2090.39, 0.751476
2091.23, 0.751380
2092.07, 0.751141
2092.92, 0.751093
2093.76, 0.751093
2094.61, 0.751237
2095.45, 0.751093
2096.3, 0.751045
2097.15, 0.751189
2098.0, 0.751189
2098.85, 0.751333
2099.7, 0.751285
2100.55, 0.751141
2101.4, 0.750950
2102.25, 0.750615
2103.1, 0.750328
2103.96, 0.749945
2104.81, 0.749419
2105.67, 0.748366
2106.52, 0.747361
2107.38, 0.745878
2108.24, 0.744251
2109.09, 0.742672
2109.95, 0.741763
2110.81, 0.741380
2111.67, 0.741523
2112.53, 0.741619
2113.39, 0.741571
2114.25, 0.741380
2115.12, 0.740949
2115.98, 0.740806
2116.84, 0.740949
2117.71, 0.741236
2118.58, 0.741428
2119.44, 0.741667
2120.31, 0.741763
2121.18, 0.742193
2122.04, 0.742385
2122.91, 0.742576
2123.78, 0.742911
2124.65, 0.743390
2125.52, 0.743437
2126.4, 0.743581
2127.27, 0.743437
2128.14, 0.743246
2129.02, 0.743150
2129.89, 0.743055
2130.77, 0.742768
2131.64, 0.742911
2132.52, 0.743246
2133.4, 0.743868
2134.27, 0.744682
2135.15, 0.745304
2136.03, 0.745830
2136.91, 0.746356
2137.79, 0.746739
2138.68, 0.746835
2139.56, 0.747026
2140.44, 0.747600
2141.33, 0.747935
2142.21, 0.748175
2143.1, 0.748127
2143.99, 0.748031
2144.87, 0.747887
2145.76, 0.747840
2146.65, 0.747935
2147.54, 0.747935
2148.43, 0.748366
2149.32, 0.748749
2150.21, 0.748844
2151.1, 0.748892
2151.99, 0.748797
2152.89, 0.749036
2153.78, 0.749179
2154.68, 0.749323
2155.57, 0.749419
2156.47, 0.749521
2157.37, 0.749265
2158.27, 0.749367
2159.16, 0.749521
2160.06, 0.749932
2160.96, 0.749675
2161.86, 0.749573
2162.77, 0.749778
2163.67, 0.749983
2164.57, 0.749881
2165.48, 0.749675
2166.38, 0.750035
2167.29, 0.750394
2168.2, 0.751010
2169.1, 0.751061
2170.01, 0.751420
2170.92, 0.751010
2171.83, 0.750753
2172.74, 0.750907
2173.65, 0.750291
2174.56, 0.750240
2175.47, 0.750137
2176.39, 0.749778
2177.3, 0.750189
2178.22, 0.750394
2179.13, 0.750291
2180.05, 0.750086
2180.96, 0.749727
2181.88, 0.749624
2182.8, 0.750035
2183.72, 0.749624
2184.64, 0.749727
2185.56, 0.749521
2186.48, 0.749573
2187.41, 0.749983
2188.33, 0.750189
2189.25, 0.749881
2190.18, 0.749881
2191.1, 0.749521
2192.03, 0.749727
2192.96, 0.749675
2193.89, 0.749367
2194.82, 0.749213
2195.74, 0.749008
2196.68, 0.748905
2197.61, 0.749213
2198.54, 0.749624
2199.47, 0.749265
2200.4, 0.748649
2201.34, 0.748598
2202.28, 0.749162
2203.21, 0.749111
2204.15, 0.749059
2205.08, 0.748905
2206.02, 0.748341
2206.96, 0.748495
2207.9, 0.748598
2208.84, 0.748443
2209.78, 0.748084
2210.73, 0.748443
2211.67, 0.748598
2212.61, 0.748392
2213.56, 0.748392
2214.5, 0.748495
2215.45, 0.748187
2216.4, 0.748033
2217.35, 0.748033
2218.3, 0.747622
2219.24, 0.747571
2220.2, 0.747828
2221.15, 0.747520
2222.1, 0.747725
2223.05, 0.747622
2224.0, 0.747417
2224.96, 0.747571
2225.91, 0.747314
2226.87, 0.747058
2227.83, 0.747109
2228.79, 0.747263
2229.74, 0.746904
2230.7, 0.746288
2231.66, 0.745775
2232.63, 0.745210
2233.59, 0.745159
2234.55, 0.744799
2235.51, 0.744132
2236.48, 0.743414
2237.44, 0.742644
2238.41, 0.741720
2239.38, 0.740385
2240.34, 0.739410
2241.31, 0.738589
2242.28, 0.737049
2243.25, 0.736074
2244.22, 0.734996
2245.19, 0.733405
2246.17, 0.731968
2247.14, 0.730838
2248.12, 0.730377
2249.09, 0.730171
2250.07, 0.730223
2251.04, 0.730017
2252.02, 0.729709
2253.0, 0.730325
2253.98, 0.730223
2254.96, 0.729966
2255.94, 0.730223
2256.92, 0.730582
2257.91, 0.730274
2258.89, 0.729966
2259.88, 0.729504
2260.86, 0.728785
2261.85, 0.727502
2262.83, 0.726424
2263.82, 0.725654
2264.81, 0.724217
2265.8, 0.722575
2266.79, 0.719957
2267.78, 0.717340
2268.78, 0.714825
2269.77, 0.712361
2270.76, 0.709384
2271.76, 0.707177
2272.75, 0.704405
2273.75, 0.701788
2274.75, 0.698862
2275.75, 0.695269
2276.75, 0.691933
2277.75, 0.688802
2278.75, 0.685158
2279.75, 0.681514
2280.75, 0.678024
2281.76, 0.674944
2282.76, 0.672172
2283.77, 0.670273
2284.77, 0.667809
2285.78, 0.665346
2286.79, 0.662934
2287.8, 0.659597
2288.81, 0.655491
2289.82, 0.650974
2290.83, 0.645585
2291.84, 0.638348
2292.86, 0.630700
2293.87, 0.623412
2294.89, 0.616894
2295.91, 0.611402
2296.92, 0.606577
2297.94, 0.602060
2298.96, 0.599443
2299.98, 0.599443
2301.0, 0.601958
2302.02, 0.605140
2303.04, 0.607757
2304.07, 0.608887
2305.09, 0.607757
2306.12, 0.605602
2307.15, 0.603446
2308.17, 0.602060
2309.2, 0.601598
2310.23, 0.600264
2311.26, 0.597903
2312.29, 0.595131
2313.32, 0.592257
2314.35, 0.590204
2315.39, 0.589280
2316.42, 0.588869
2317.46, 0.589177
2318.5, 0.589588
2319.53, 0.590101
2320.57, 0.590974
2321.61, 0.592308
2322.65, 0.595439
2323.69, 0.600212
2324.73, 0.607090
2325.78, 0.615610
2326.82, 0.623771
2327.86, 0.631162
2328.91, 0.637373
2329.96, 0.643224
2331.01, 0.649332
2332.05, 0.656158
2333.1, 0.663601
2334.15, 0.670427
2335.21, 0.676432
2336.26, 0.681462
2337.31, 0.685517
2338.36, 0.689161
2339.42, 0.692395
2340.48, 0.695218
2341.53, 0.697733
2342.59, 0.700094
2343.65, 0.702455
2344.71, 0.704200
2345.77, 0.705432
2346.83, 0.706356
2347.9, 0.706561
2348.96, 0.706715
2350.02, 0.706766
2351.09, 0.706407
2352.16, 0.705945
2353.23, 0.705278
2354.29, 0.705380
2355.36, 0.705586
2356.43, 0.705432
2357.51, 0.704816
2358.58, 0.704765
2359.65, 0.704765
2360.73, 0.703789
2361.8, 0.702712
2362.88, 0.700966
2363.96, 0.699067
2365.03, 0.697271
2366.11, 0.695269
2367.19, 0.692600
2368.27, 0.690188
2369.36, 0.687827
2370.44, 0.685107
2371.53, 0.681924
2372.61, 0.678229
2373.7, 0.674225
2374.78, 0.670068
2375.87, 0.665448
2376.96, 0.659597
2378.05, 0.653746
2379.14, 0.648305
2380.24, 0.643019
2381.33, 0.637424
2382.42, 0.632291
2383.52, 0.627364
2384.61, 0.623001
2385.71, 0.620538
2386.81, 0.619511
2387.91, 0.619973
2389.01, 0.621462
2390.11, 0.623771
2391.22, 0.626235
2392.32, 0.628904
2393.42, 0.631419
2394.53, 0.634396
2395.64, 0.638451
2396.74, 0.643121
2397.85, 0.648357
2398.96, 0.654362
2400.07, 0.659700
2401.18, 0.664165
2402.3, 0.667861
2403.41, 0.671197
2404.52, 0.674123
2405.64, 0.676227
2406.76, 0.678999
2407.88, 0.681257
2408.99, 0.682694
2410.11, 0.684080
2411.23, 0.685517
2412.36, 0.686287
2413.48, 0.686492
2414.6, 0.686082
2415.73, 0.685363
2416.85, 0.684696
2417.98, 0.684593
2419.11, 0.684799
2420.24, 0.685722
2421.37, 0.687211
2422.5, 0.688905
2423.64, 0.690291
2424.77, 0.691625
2425.9, 0.693062
2427.04, 0.694089
2428.18, 0.694397
2429.31, 0.694499
2430.45, 0.695013
2431.59, 0.695834
2432.73, 0.696347
2433.88, 0.696655
2435.02, 0.695936
2436.16, 0.695013
2437.31, 0.693216
2438.45, 0.690958
2439.6, 0.688597
2440.75, 0.686544
2441.9, 0.685260
2443.05, 0.684696
2444.2, 0.684696
2445.35, 0.685363
2446.51, 0.685414
2447.67, 0.685876
2448.82, 0.685722
2449.98, 0.684901
2451.14, 0.684029
2452.3, 0.683310
2453.46, 0.682746
2454.62, 0.681976
2455.78, 0.680846
2456.94, 0.679563
2458.11, 0.678024
2459.28, 0.676997
2460.44, 0.676535
2461.61, 0.676227
2462.78, 0.676227
2463.95, 0.676946
2465.12, 0.677510
2466.3, 0.678229
2467.47, 0.678999
2468.65, 0.679615
2469.82, 0.679871
2471.0, 0.679923
2472.18, 0.680436
2473.36, 0.680898
2474.54, 0.680436
2475.72, 0.680128
2476.9, 0.679615
2478.08, 0.679204
2479.27, 0.679050
2480.46, 0.679563
2481.64, 0.680333
2482.83, 0.680898
2484.02, 0.681770
2485.21, 0.682386
2486.4, 0.682694
2487.6, 0.683002
2488.79, 0.682899
2489.99, 0.682694
2491.18, 0.682797
2492.38, 0.683002
2493.58, 0.683053
2494.78, 0.683002
2495.98, 0.682797
2497.18, 0.683053
2498.39, 0.683156
2499.59, 0.683464
2500.8, 0.683618
2502.01, 0.684080
2503.21, 0.684337
2504.42, 0.684953
2505.63, 0.685260
2506.84, 0.685414
2508.06, 0.685517
2509.27, 0.686030
2510.49, 0.686082
2511.7, 0.685979
2512.92, 0.686030
2514.14, 0.686030
2515.36, 0.686236
2516.58, 0.686749
2517.8, 0.687622
2519.03, 0.689007
2520.25, 0.690342
2521.48, 0.692138
2522.7, 0.692857
2523.93, 0.693421
2525.16, 0.694140
2526.39, 0.694602
2527.62, 0.694705
2528.86, 0.694756
2530.09, 0.694653
2531.33, 0.695064
2532.56, 0.695321
2533.8, 0.695885
2535.04, 0.695526
2536.28, 0.695628
2537.52, 0.696450
2538.76, 0.696706
2540.01, 0.696655
2541.25, 0.696090
2542.5, 0.695731
2543.75, 0.696039
2544.99, 0.696296
2546.24, 0.695782
2547.49, 0.695372
2548.75, 0.695475
2550.0, 0.694294
2551.26, 0.693165
2552.51, 0.692241
2553.77, 0.692600
2555.03, 0.691882
2556.29, 0.690496
2557.55, 0.689213
2558.81, 0.687878
2560.08, 0.685876
2561.34, 0.685209
2562.61, 0.685466
2563.88, 0.685774
2565.14, 0.686800
2566.41, 0.687006
2567.68, 0.685569
2568.96, 0.684542
2570.23, 0.686544
2571.51, 0.687057
2572.78, 0.685517
2574.06, 0.688494
2575.34, 0.689315
2576.62, 0.689469
2577.9, 0.691574
2579.18, 0.691676
2580.47, 0.690650
2581.75, 0.691112
2583.04, 0.689110
2584.32, 0.691060
2585.61, 0.692292
2586.9, 0.691420
2588.2, 0.692344
2589.49, 0.693421
2590.78, 0.694345
2592.08, 0.692857
2593.37, 0.687930
2594.67, 0.687468
2595.97, 0.693729
2597.27, 0.696142
2598.57, 0.696244
2599.88, 0.695372
2601.18, 0.694294
2602.49, 0.693575
2603.79, 0.691676
2605.1, 0.691009
2606.41, 0.693370
2607.72, 0.694345
2609.03, 0.694705
2610.35, 0.696039
2611.66, 0.696347
2612.98, 0.696244
2614.3, 0.696604
2615.62, 0.693678
2616.94, 0.693986
2618.26, 0.695885
2619.58, 0.693473
2620.91, 0.696039
2622.23, 0.698041
2623.56, 0.697733
2624.89, 0.696142
2626.22, 0.695218
2627.55, 0.697630
2628.88, 0.695475
2630.21, 0.694653
2631.55, 0.698143
2632.89, 0.697682
2634.22, 0.698298
2635.56, 0.699632
2636.9, 0.700043
2638.25, 0.700248
2639.59, 0.700453
2640.93, 0.700351
2642.28, 0.700761
2643.63, 0.701069
2644.98, 0.700556
2646.33, 0.702096
2647.68, 0.703687
2649.03, 0.704457
2650.39, 0.703841
2651.74, 0.702506
2653.1, 0.703635
2654.46, 0.703841
2655.82, 0.704354
2657.18, 0.704765
2658.54, 0.703173
2659.9, 0.703019
2661.27, 0.703892
2662.64, 0.703584
2664.01, 0.700248
2665.38, 0.698862
2666.74, 0.700094
2668.12, 0.700556
2669.49, 0.695269
2670.87, 0.696963
2672.24, 0.698246
2673.62, 0.694551
2675.0, 0.688956
2676.38, 0.683053
2677.76, 0.679050
2679.15, 0.674533
2680.54, 0.670017
2681.92, 0.661958
2683.31, 0.653797
2684.7, 0.645380
2686.09, 0.635628
2687.48, 0.624285
2688.88, 0.612120
2690.27, 0.598827
2691.67, 0.585533
2693.07, 0.573112
2694.47, 0.564643
2695.87, 0.556996
2697.27, 0.549194
2698.67, 0.540109
2700.08, 0.531435
2701.49, 0.523531
2702.9, 0.517166
2704.31, 0.510904
2705.72, 0.506747
2707.13, 0.502333
2708.54, 0.497611
2709.96, 0.491400
2711.38, 0.486216
2712.8, 0.477439
2714.22, 0.462298
2715.64, 0.434736
2717.06, 0.382280
2718.49, 0.298823
2719.91, 0.200943
2721.34, 0.142174
2722.77, 0.146024
2724.2, 0.185083
2725.63, 0.238360
2727.07, 0.276855
2728.5, 0.269670
2729.94, 0.216855
2731.38, 0.175229
2732.82, 0.173330
2734.26, 0.200173
2735.7, 0.246419
2737.15, 0.284144
2738.59, 0.304469
2740.04, 0.309448
2741.49, 0.295795
2742.94, 0.275059
2744.39, 0.267822
2745.84, 0.288968
2747.3, 0.326129
2748.76, 0.351895
2750.21, 0.365342
2751.67, 0.373195
2753.14, 0.380432
2754.6, 0.385924
2756.06, 0.392956
2757.53, 0.392340
2759.0, 0.391211
2760.46, 0.400912
2761.94, 0.414975
2763.41, 0.426831
2764.88, 0.435352
2766.36, 0.441100
2767.83, 0.446695
2769.31, 0.451519
2770.79, 0.457730
2772.27, 0.465378
2773.76, 0.472101
2775.24, 0.477080
2776.73, 0.481905
2778.22, 0.486883
2779.71, 0.491503
2781.2, 0.495506
2782.69, 0.499304
2784.18, 0.501306
2785.68, 0.501512
2787.18, 0.502487
2788.68, 0.504488
2790.18, 0.505361
2791.68, 0.505772
2793.19, 0.505926
2794.69, 0.506336
2796.2, 0.506285
2797.71, 0.506131
2799.22, 0.506080
2800.73, 0.505053
2802.24, 0.503770
2803.76, 0.504488
2805.28, 0.505310
2806.8, 0.505566
2808.32, 0.505566
2809.84, 0.505772
2811.36, 0.505874
2812.89, 0.505874
2814.42, 0.505926
2815.94, 0.506490
2817.48, 0.506439
2819.01, 0.506439
2820.54, 0.506593
2822.08, 0.507311
2823.61, 0.507979
2825.15, 0.508184
2826.69, 0.508235
2828.23, 0.508441
2829.78, 0.508595
2831.32, 0.508543
2832.87, 0.508492
2834.42, 0.508646
2835.97, 0.508697
2837.52, 0.508800
2839.08, 0.508903
2840.63, 0.509108
2842.19, 0.509108
2843.75, 0.509057
2845.31, 0.508800
2846.87, 0.508492
2848.44, 0.508030
2850.0, 0.508081
2851.57, 0.507825
2853.14, 0.507414
2854.71, 0.507311
2856.28, 0.507209
2857.86, 0.506849
2859.43, 0.506747
2861.01, 0.506439
2862.59, 0.506028
2864.17, 0.505515
2865.76, 0.505104
2867.34, 0.504899
2868.93, 0.504540
2870.52, 0.504180
2872.11, 0.504027
2873.7, 0.504027
2875.29, 0.503719
2876.89, 0.503411
2878.49, 0.503205
2880.08, 0.503103
2881.69, 0.503051
2883.29, 0.502846
2884.89, 0.502692
2886.5, 0.502127
2888.11, 0.501768
2889.72, 0.501306
2891.33, 0.501050
2892.94, 0.500639
2894.56, 0.500126
2896.17, 0.499715
2897.79, 0.499612
2899.42, 0.498997
2901.04, 0.498586
2902.66, 0.498432
2904.29, 0.498073
2905.92, 0.497713
2907.55, 0.497611
2909.18, 0.497303
2910.81, 0.497097
2912.45, 0.496687
2914.08, 0.496430
2915.72, 0.496225
2917.36, 0.496174
2919.01, 0.495968
2920.65, 0.495866
2922.3, 0.495506
2923.94, 0.495352
2925.59, 0.495147
2927.25, 0.494993
2928.9, 0.495044
2930.56, 0.494890
2932.21, 0.494685
2933.87, 0.494582
2935.53, 0.494480
2937.2, 0.494377
2938.86, 0.494582
2940.53, 0.494839
2942.2, 0.495096
2943.87, 0.495198
2945.54, 0.495506
2947.22, 0.496020
2948.89, 0.496482
2950.57, 0.496943
2952.25, 0.496943
2953.93, 0.497097
2955.62, 0.497354
2957.3, 0.497765
2958.99, 0.497970
2960.68, 0.498483
2962.37, 0.498843
2964.07, 0.498997
2965.76, 0.499407
2967.46, 0.499869
2969.16, 0.500382
2970.86, 0.500947
2972.56, 0.501409
2974.27, 0.501871
2975.98, 0.502230
2977.69, 0.502846
2979.4, 0.503411
2981.11, 0.503873
2982.83, 0.504540
2984.54, 0.505258
2986.26, 0.505823
2987.98, 0.506439
2989.71, 0.507157
2991.43, 0.507979
2993.16, 0.508697
2994.89, 0.509364
2996.62, 0.510134
2998.35, 0.510802
3000.09, 0.511572
3001.83, 0.512495
3003.57, 0.513214
3005.31, 0.513933
3007.05, 0.514754
3008.79, 0.515678
3010.54, 0.516448
3012.29, 0.517269
3014.04, 0.518193
3015.8, 0.519219
3017.55, 0.519784
3019.31, 0.520502
3021.07, 0.521324
3022.83, 0.522093
3024.59, 0.522966
3026.36, 0.523787
3028.13, 0.524454
3029.9, 0.525224
3031.67, 0.525892
3033.44, 0.526456
3035.22, 0.527123
3037.0, 0.527791
3038.78, 0.528561
3040.56, 0.529074
3042.34, 0.529690
3044.13, 0.530460
3045.92, 0.531230
3047.71, 0.531897
3049.5, 0.532667
3051.3, 0.533385
3053.09, 0.534104
3054.89, 0.534976
3056.69, 0.535695
3058.5, 0.536362
3060.3, 0.536978
3062.11, 0.537543
3063.92, 0.538261
3065.73, 0.538723
3067.55, 0.539391
3069.36, 0.539955
3071.18, 0.540314
3073.0, 0.540828
3074.82, 0.541392
3076.65, 0.541906
3078.48, 0.542521
3080.31, 0.543291
3082.14, 0.543959
3083.97, 0.544882
3085.8, 0.545550
3087.64, 0.546217
3089.48, 0.546833
3091.33, 0.547500
3093.17, 0.548270
3095.02, 0.548989
3096.87, 0.549810
3098.72, 0.550528
3100.57, 0.551144
3102.43, 0.551863
3104.28, 0.552273
3106.14, 0.552735
3108.01, 0.553403
3109.87, 0.554275
3111.74, 0.555045
3113.61, 0.555610
3115.48, 0.556277
3117.35, 0.557201
3119.23, 0.558073
3121.1, 0.558946
3122.98, 0.559767
3124.87, 0.560588
3126.75, 0.561410
3128.64, 0.562436
3130.53, 0.563155
3132.42, 0.563976
3134.31, 0.564746
3136.21, 0.565618
3138.11, 0.566388
3140.01, 0.567158
3141.91, 0.567620
3143.82, 0.567979
3145.73, 0.568441
3147.64, 0.568595
3149.55, 0.568749
3151.46, 0.568801
3153.38, 0.569006
3155.3, 0.569109
3157.22, 0.569314
3159.14, 0.569365
3161.07, 0.569160
3163.0, 0.569057
3164.93, 0.568903
3166.86, 0.568749
3168.8, 0.568852
3170.74, 0.569314
3172.68, 0.570186
3174.62, 0.571162
3176.56, 0.572137
3178.51, 0.573112
3180.46, 0.574293
3182.42, 0.575627
3184.37, 0.576962
3186.33, 0.578450
3188.29, 0.579785
3190.25, 0.581119
3192.21, 0.582453
3194.18, 0.583891
3196.15, 0.585174
3198.12, 0.586354
3200.09, 0.587535
3202.07, 0.588818
3204.05, 0.590152
3206.03, 0.591179
3208.02, 0.592308
3210.0, 0.593335
3211.99, 0.594361
3213.98, 0.595388
3215.98, 0.596312
3217.97, 0.597184
3219.97, 0.597903
3221.97, 0.598570
3223.98, 0.599340
3225.98, 0.600264
3227.99, 0.600982
3230.0, 0.601650
3232.02, 0.602471
3234.03, 0.603138
3236.05, 0.603754
3238.07, 0.604627
3240.1, 0.605294
3242.12, 0.606064
3244.15, 0.606731
3246.18, 0.607193
3248.22, 0.607809
3250.25, 0.608630
3252.29, 0.609349
3254.33, 0.609862
3256.38, 0.610324
3258.43, 0.610991
3260.47, 0.611504
3262.53, 0.611812
3264.58, 0.612326
3266.64, 0.612787
3268.7, 0.612941
3270.76, 0.613198
3272.82, 0.613352
3274.89, 0.613352
3276.96, 0.613147
3279.04, 0.612480
3281.11, 0.611607
3283.19, 0.610375
3285.27, 0.609092
3287.35, 0.607860
3289.44, 0.606680
3291.53, 0.605653
3293.62, 0.604575
3295.71, 0.603241
3297.81, 0.601958
3299.91, 0.600777
3302.01, 0.599597
3304.11, 0.598673
3306.22, 0.598159
3308.33, 0.597903
3310.44, 0.597646
3312.56, 0.597697
3314.68, 0.597697
3316.8, 0.597595
3318.92, 0.597595
3321.05, 0.597851
3323.18, 0.598262
3325.31, 0.598313
3327.44, 0.598159
3329.58, 0.597646
3331.72, 0.596414
3333.86, 0.595028
3336.01, 0.593643
3338.16, 0.592462
3340.31, 0.591436
3342.46, 0.590512
3344.61, 0.589742
3346.77, 0.589075
3348.94, 0.589126
3351.1, 0.589691
3353.27, 0.590717
3355.44, 0.591846
3357.61, 0.592924
3359.79, 0.593745
3361.97, 0.594053
3364.15, 0.593848
3366.33, 0.593437
3368.52, 0.593129
3370.71, 0.593027
3372.9, 0.593078
3375.1, 0.593129
3377.3, 0.593745
3379.5, 0.594772
3381.71, 0.595952
3383.91, 0.597030
3386.12, 0.597903
3388.34, 0.598878
3390.55, 0.599597
3392.77, 0.599956
3394.99, 0.599853
3397.22, 0.599494
3399.45, 0.598827
3401.68, 0.598005
3403.91, 0.597236
3406.15, 0.596568
3408.39, 0.596106
3410.63, 0.595696
3412.87, 0.595490
3415.12, 0.595952
3417.37, 0.597338
3419.63, 0.599699
3421.88, 0.602573
3424.14, 0.605653
3426.41, 0.608681
3428.67, 0.611710
3430.94, 0.614430
3433.21, 0.616791
3435.49, 0.619049
3437.77, 0.620948
3440.05, 0.622540
3442.33, 0.623977
3444.62, 0.625260
3446.91, 0.626389
3449.2, 0.627518
3451.5, 0.628545
3453.8, 0.629623
3456.1, 0.630598
3458.41, 0.631624
3460.72, 0.632240
3463.03, 0.632651
3465.34, 0.632959
3467.66, 0.633010
3469.98, 0.632753
3472.31, 0.632600
3474.63, 0.632651
3476.96, 0.632702
3479.3, 0.632600
3481.64, 0.632497
3483.97, 0.632548
3486.32, 0.632343
3488.66, 0.631984
3491.01, 0.631368
3493.36, 0.630495
3495.72, 0.629417
3498.08, 0.628442
3500.44, 0.628288
3502.81, 0.628955
3505.18, 0.630598
3507.55, 0.633010
3509.92, 0.635936
3512.3, 0.638861
3514.68, 0.641530
3517.06, 0.643943
3519.45, 0.645893
3521.84, 0.647689
3524.24, 0.649229
3526.64, 0.650410
3529.04, 0.651488
3531.44, 0.652514
3533.85, 0.653438
3536.26, 0.654208
3538.67, 0.654824
3541.09, 0.655440
3543.51, 0.655953
3545.93, 0.656518
3548.36, 0.657031
3550.79, 0.657441
3553.22, 0.657903
3555.66, 0.658468
3558.1, 0.658776
3560.54, 0.659135
3562.99, 0.659700
3565.44, 0.660162
3567.9, 0.660572
3570.35, 0.660983
3572.81, 0.661291
3575.28, 0.661496
3577.75, 0.661753
3580.22, 0.662061
3582.69, 0.662215
3585.17, 0.662369
3587.65, 0.662779
3590.14, 0.662985
3592.62, 0.663190
3595.11, 0.663498
3597.61, 0.663703
3600.11, 0.664063
3602.61, 0.664114
3605.11, 0.664268
3607.62, 0.664371
3610.14, 0.664525
3612.65, 0.664576
3615.17, 0.664679
3617.69, 0.664781
3620.22, 0.665089
3622.75, 0.665243
3625.28, 0.665192
3627.82, 0.665141
3630.36, 0.665295
3632.9, 0.665346
3635.45, 0.665295
3638.0, 0.665500
3640.56, 0.665654
3643.12, 0.665756
3645.68, 0.665808
3648.24, 0.665808
3650.81, 0.665962
3653.39, 0.666116
3655.96, 0.666167
3658.54, 0.666270
3661.13, 0.666372
3663.71, 0.666578
3666.3, 0.666732
3668.9, 0.666783
3671.5, 0.666937
3674.1, 0.667245
3676.7, 0.667450
3679.31, 0.667656
3681.93, 0.667707
3684.54, 0.667809
3687.17, 0.667142
3689.79, 0.665243
3692.42, 0.665038
3695.05, 0.666988
3697.69, 0.668169
3700.32, 0.668117
3702.97, 0.667450
3705.61, 0.667809
3708.27, 0.668887
3710.92, 0.669452
3713.58, 0.669657
3716.24, 0.669811
3718.91, 0.669914
3721.58, 0.670017
3724.25, 0.670273
3726.93, 0.670479
3729.61, 0.670530
3732.29, 0.670632
3734.98, 0.670735
3737.67, 0.670838
3740.37, 0.670838
3743.07, 0.670940
3745.78, 0.671043
3748.49, 0.671094
3751.2, 0.671197
3753.91, 0.671146
3756.63, 0.671197
3759.36, 0.671351
3762.09, 0.671300
3764.82, 0.671300
3767.55, 0.671351
3770.29, 0.671300
3773.04, 0.671402
3775.78, 0.671351
3778.54, 0.671248
3781.29, 0.671351
3784.05, 0.671454
3786.82, 0.671402
3789.59, 0.671300
3792.36, 0.671197
3795.13, 0.671094
3797.92, 0.670992
3800.7, 0.670992
3803.49, 0.670940
3806.28, 0.670889
3809.08, 0.670786
3811.88, 0.670632
3814.68, 0.670427
3817.49, 0.670324
3820.31, 0.670222
3823.12, 0.670222
3825.94, 0.670222
3828.77, 0.670222
3831.6, 0.670170
3834.43, 0.670119
3837.27, 0.669965
3840.11, 0.669914
3842.96, 0.669914
3845.81, 0.669760
3848.67, 0.669657
3851.53, 0.669606
3854.39, 0.669555
3857.26, 0.669452
3860.13, 0.669401
3863.01, 0.669298
3865.89, 0.669247
3868.77, 0.669144
3871.66, 0.668939
3874.55, 0.668836
3877.45, 0.668682
3880.35, 0.668682
3883.26, 0.668528
3886.17, 0.668220
3889.09, 0.668117
3892.01, 0.668015
3894.93, 0.667963
3897.86, 0.667758
3900.79, 0.667450
3903.73, 0.667296
3906.67, 0.667040
3909.62, 0.666783
3912.57, 0.666424
3915.52, 0.666218
3918.48, 0.666064
3921.45, 0.665859
3924.42, 0.665756
3927.39, 0.665602
3930.37, 0.665397
3933.35, 0.665192
3936.34, 0.664987
3939.33, 0.664781
3942.32, 0.664371
3945.32, 0.664114
3948.33, 0.663857
3951.34, 0.663549
3954.35, 0.663087
3957.37, 0.662779
3960.39, 0.662574
3963.42, 0.662318
3966.45, 0.662061
3969.49, 0.661856
3972.53, 0.661548
3975.58, 0.661394
3978.63, 0.661188
3981.68, 0.661034
3984.75, 0.660932
3987.81, 0.660932
3990.88, 0.660983
3993.95, 0.661034
3997.03, 0.660983
4000.12, 0.661034
4003.21, 0.661034
4006.3, 0.661137
4009.4, 0.661137
4012.5, 0.661034
4015.61, 0.660983
4018.72, 0.660983
4021.84, 0.660778
4024.96, 0.660675
4028.09, 0.660572
4031.22, 0.660521
4034.36, 0.660213
4037.5, 0.659957
4040.65, 0.659803
4043.8, 0.659700
4046.96, 0.659289
4050.12, 0.659135
4053.29, 0.658879
4056.46, 0.658571
4059.64, 0.658314
4062.82, 0.657852
4066.0, 0.657544
4069.19, 0.657288
4072.39, 0.656980
4075.59, 0.656723
4078.8, 0.656364
4082.01, 0.656056
4085.23, 0.655645
4088.45, 0.655337
4091.68, 0.655080
4094.91, 0.654824
4098.15, 0.654413
4101.39, 0.654054
4104.63, 0.653643
4107.89, 0.653387
4111.14, 0.653079
4114.41, 0.652771
4117.67, 0.652463
4120.95, 0.652104
4124.23, 0.651847
4127.51, 0.651539
4130.8, 0.651180
4134.09, 0.650974
4137.39, 0.650666
4140.7, 0.650256
4144.01, 0.649948
4147.32, 0.649691
4150.64, 0.649435
4153.97, 0.649229
4157.3, 0.648921
4160.64, 0.648665
4163.98, 0.648459
4167.33, 0.648151
4170.68, 0.647946
4174.04, 0.647689
4177.4, 0.647433
4180.77, 0.647228
4184.14, 0.646920
4187.52, 0.646766
4190.91, 0.646509
4194.3, 0.646150
4197.69, 0.645636
4201.1, 0.644969
4204.5, 0.644148
4207.92, 0.643173
4211.34, 0.642095
4214.76, 0.640966
4218.19, 0.639837
4221.62, 0.638913
4225.06, 0.638040
4228.51, 0.637475
4231.96, 0.637014
4235.42, 0.636808
4238.88, 0.636962
4242.35, 0.637116
4245.83, 0.637373
4249.31, 0.638194
4252.79, 0.639221
4256.28, 0.639683
4259.78, 0.638605
4263.29, 0.637219
4266.79, 0.636244
4270.31, 0.635730
4273.83, 0.635576
4277.35, 0.635320
4280.89, 0.635114
4284.42, 0.635063
4287.97, 0.634858
4291.52, 0.634704
4295.07, 0.634807
4298.63, 0.634909
4302.2, 0.634909
4305.78, 0.634909
4309.35, 0.635063
4312.94, 0.635166
4316.53, 0.635269
4320.13, 0.635371
4323.73, 0.635371
4327.34, 0.635422
4330.96, 0.635422
4334.58, 0.635371
4338.21, 0.635371
4341.84, 0.635371
4345.48, 0.635217
4349.12, 0.635063
4352.77, 0.634858
4356.43, 0.634601
4360.1, 0.634396
4363.76, 0.634139
4367.44, 0.633780
4371.12, 0.633523
4374.81, 0.633164
4378.51, 0.632907
4382.21, 0.632600
4385.92, 0.632240
4389.63, 0.631830
4393.35, 0.631470
4397.08, 0.631008
4400.81, 0.630495
4404.55, 0.630085
4408.29, 0.629674
4412.04, 0.629161
4415.8, 0.628596
4419.57, 0.628031
4423.34, 0.627518
4427.12, 0.626954
4430.9, 0.626440
4434.69, 0.625773
4438.49, 0.625003
4442.29, 0.624233
4446.1, 0.623617
4449.92, 0.622796
4453.74, 0.622078
4457.57, 0.621256
4461.41, 0.620281
4465.25, 0.619306
4469.1, 0.618331
4472.95, 0.617202
4476.82, 0.616072
4480.69, 0.614892
4484.56, 0.613557
4488.44, 0.612223
4492.33, 0.610888
4496.23, 0.609503
4500.13, 0.608168
4504.04, 0.606680
4507.96, 0.605140
4511.88, 0.603600
4515.81, 0.602060
4519.75, 0.600418
4523.69, 0.598724
4527.65, 0.596979
4531.6, 0.595285
4535.57, 0.593591
4539.54, 0.592052
4543.52, 0.590512
4547.5, 0.588561
4551.5, 0.586252
4555.5, 0.583634
4559.5, 0.580862
4563.52, 0.578091
4567.54, 0.575319
4571.56, 0.572855
4575.6, 0.570494
4579.64, 0.568082
4583.69, 0.565772
4587.75, 0.563719
4591.81, 0.561769
4595.88, 0.559921
4599.96, 0.558073
4604.04, 0.556174
4608.14, 0.554019
4612.24, 0.551709
4616.34, 0.549194
4620.46, 0.546371
4624.58, 0.543394
4628.71, 0.540520
4632.84, 0.537594
4636.99, 0.534720
4641.14, 0.531794
4645.3, 0.528817
4649.47, 0.525994
4653.64, 0.523377
4657.82, 0.520656
4662.01, 0.518039
4666.21, 0.515318
4670.41, 0.512598
4674.62, 0.509775
4678.84, 0.506849
4683.07, 0.503873
4687.3, 0.500947
4691.54, 0.498175
4695.79, 0.495506
4700.05, 0.493043
4704.31, 0.490733
4708.59, 0.488680
4712.87, 0.486832
4717.15, 0.485190
4721.45, 0.483445
4725.76, 0.481597
4730.07, 0.479749
4734.39, 0.477542
4738.72, 0.475130
4743.05, 0.472358
4747.39, 0.469278
4751.75, 0.465994
4756.1, 0.462503
4760.47, 0.458705
4764.85, 0.454958
4769.23, 0.451058
4773.62, 0.447054
4778.02, 0.443205
4782.43, 0.439458
4786.85, 0.435711
4791.27, 0.432272
4795.7, 0.429090
4800.14, 0.426369
4804.59, 0.424265
4809.05, 0.422931
4813.51, 0.422161
4817.99, 0.421750
4822.47, 0.421596
4826.96, 0.421647
4831.46, 0.421647
4835.96, 0.421801
4840.48, 0.421801
4845.0, 0.421801
4849.54, 0.421750
4854.08, 0.421596
4858.63, 0.421185
4863.18, 0.420467
4867.75, 0.419748
4872.33, 0.419030
4876.91, 0.418311
4881.5, 0.417644
4886.1, 0.416925
4890.71, 0.416156
4895.33, 0.415283
4899.96, 0.414205
4904.59, 0.412922
4909.24, 0.411536
4913.89, 0.409740
4918.55, 0.407789
4923.22, 0.405634
4927.9, 0.403478
4932.59, 0.401425
4937.29, 0.399218
4942.0, 0.396959
4946.71, 0.394906
4951.44, 0.392853
4956.17, 0.390903
4960.91, 0.389055
4965.67, 0.387310
4970.43, 0.385462
4975.2, 0.383615
4979.98, 0.381767
4984.76, 0.379868
4989.56, 0.377866
4994.37, 0.376018
4999.18, 0.373914
5004.01, 0.371707
5008.84, 0.369346
5013.69, 0.366831
5018.54, 0.364213
5023.4, 0.361955
5028.28, 0.359645
5033.16, 0.357438
5038.05, 0.355282
5042.95, 0.353332
5047.86, 0.351484
5052.78, 0.349790
5057.71, 0.348199
5062.65, 0.346711
5067.6, 0.345222
5072.56, 0.343939
5077.53, 0.342759
5082.5, 0.341424
5087.49, 0.340295
5092.49, 0.339268
5097.5, 0.337883
5102.51, 0.336189
5107.54, 0.334290
5112.58, 0.332339
5117.62, 0.330594
5122.68, 0.329003
5127.75, 0.327617
5132.82, 0.326642
5137.91, 0.326334
5143.01, 0.326796
5148.12, 0.327977
5153.23, 0.330184
5158.36, 0.332750
5163.5, 0.335778
5168.65, 0.338909
5173.81, 0.342297
5178.98, 0.345684
5184.15, 0.349020
5189.34, 0.351895
5194.54, 0.354102
5199.75, 0.355744
5204.98, 0.356925
5210.21, 0.356565
5215.45, 0.355744
5220.7, 0.354410
5225.96, 0.351689
5231.23, 0.347943
5236.52, 0.343682
5241.81, 0.339525
5247.12, 0.335470
5252.44, 0.332083
5257.76, 0.329773
5263.1, 0.328285
5268.45, 0.327617
5273.81, 0.327001
5279.18, 0.326539
5284.56, 0.325821
5289.95, 0.324486
5295.36, 0.323101
5300.77, 0.321201
5306.2, 0.318635
5311.63, 0.315863
5317.08, 0.312989
5322.54, 0.310474
5328.01, 0.308575
5333.49, 0.307497
5338.98, 0.307138
5344.49, 0.307035
5350.0, 0.307651
5355.53, 0.309499
5361.07, 0.311398
5366.62, 0.312835
5372.18, 0.314016
5377.75, 0.314940
5383.34, 0.315607
5388.93, 0.316223
5394.54, 0.316428
5400.16, 0.316531
5405.79, 0.316120
5411.44, 0.315350
5417.09, 0.313605
5422.76, 0.312117
5428.43, 0.311449
5434.12, 0.309653
5439.83, 0.307087
5445.54, 0.304623
5451.26, 0.302262
5457.0, 0.299850
5462.75, 0.297848
5468.52, 0.297489
5474.29, 0.297745
5480.08, 0.298566
5485.88, 0.300209
5491.69, 0.301595
5497.51, 0.302827
5503.35, 0.303802
5509.2, 0.304469
5515.06, 0.304315
5520.93, 0.303802
5526.82, 0.303340
5532.71, 0.302519
5538.63, 0.301184
5544.55, 0.299388
5550.49, 0.297283
5556.44, 0.295590
5562.4, 0.293998
5568.37, 0.291997
5574.36, 0.289276
5580.36, 0.287377
5586.37, 0.286607
5592.4, 0.285273
5598.44, 0.283271
5604.49, 0.281577
5610.56, 0.279884
5616.63, 0.278087
5622.73, 0.276650
5628.83, 0.274751
5634.95, 0.272339
5641.08, 0.270388
5647.23, 0.270234
5653.39, 0.270029
5659.56, 0.270132
5665.74, 0.269875
5671.94, 0.268797
5678.15, 0.268694
5684.38, 0.268951
5690.62, 0.268797
5696.87, 0.269567
5703.14, 0.269413
5709.42, 0.268746
5715.72, 0.268848
5722.03, 0.268900
5728.35, 0.268540
5734.69, 0.267463
5741.03, 0.265974
5747.4, 0.264178
5753.78, 0.262946
5760.17, 0.259918
5766.58, 0.257300
5773.0, 0.257043
5779.44, 0.256068
5785.88, 0.255042
5792.35, 0.253810
5798.83, 0.252321
5805.32, 0.250833
5811.83, 0.248728
5818.35, 0.245751
5824.89, 0.244263
5831.45, 0.243390
5838.01, 0.242261
5844.59, 0.240413
5851.19, 0.238001
5857.8, 0.235076
5864.43, 0.232355
5871.07, 0.229532
5877.73, 0.225169
5884.4, 0.222860
5891.09, 0.220653
5897.79, 0.218240
5904.5, 0.217368
5911.23, 0.215777
5917.98, 0.214391
5924.75, 0.213724
5931.53, 0.212441
5938.32, 0.212800
5945.13, 0.215315
5951.96, 0.217214
5958.8, 0.218856
5965.65, 0.220139
5972.53, 0.222962
5979.42, 0.225529
5986.32, 0.227377
5993.24, 0.230353
6000.18, 0.232971
6007.13, 0.233690
6014.1, 0.233895
6021.08, 0.234254
6028.09, 0.233433
6035.1, 0.231175
6042.14, 0.226709
6049.19, 0.222911
6056.25, 0.222193
6063.34, 0.219472
6070.44, 0.215674
6077.55, 0.213570
6084.69, 0.211876
6091.84, 0.209361
6099.0, 0.206589
6106.19, 0.203304
6113.39, 0.200533
6120.61, 0.199712
6127.84, 0.198685
6135.09, 0.196889
6142.36, 0.195195
6149.65, 0.193706
6156.95, 0.192064
6164.27, 0.191191
6171.61, 0.190319
6178.97, 0.188728
6186.34, 0.187855
6193.73, 0.188163
6201.14, 0.187804
6208.57, 0.187393
6216.01, 0.187393
6223.47, 0.188009
6230.95, 0.188882
6238.45, 0.189857
6245.97, 0.190986
6253.5, 0.192526
6261.06, 0.194117
6268.63, 0.195965
6276.21, 0.198069
6283.82, 0.200430
6291.45, 0.202945
6299.1, 0.205717
6306.76, 0.208591
6314.44, 0.211671
6322.14, 0.214750
6329.86, 0.218035
6337.6, 0.220293
6345.35, 0.223886
6353.13, 0.228608
6360.92, 0.231637
6368.74, 0.233844
6376.57, 0.237231
6384.43, 0.239952
6392.3, 0.242261
6400.19, 0.243698
6408.1, 0.243134
6416.03, 0.245136
6423.98, 0.249396
6431.95, 0.251911
6439.94, 0.254477
6447.95, 0.256325
6455.98, 0.258275
6464.03, 0.259558
6472.1, 0.260072
6480.19, 0.260533
6488.31, 0.260893
6496.44, 0.263305
6504.59, 0.266949
6512.76, 0.267976
6520.95, 0.268540
6529.16, 0.270337
6537.4, 0.271107
6545.65, 0.270799
6553.92, 0.270542
6562.22, 0.269670
6570.54, 0.267873
6578.88, 0.267411
6587.23, 0.266025
6595.61, 0.264280
6604.02, 0.262587
6612.44, 0.259815
6620.89, 0.256684
6629.35, 0.252629
6637.84, 0.249806
6646.35, 0.249704
6654.88, 0.248472
6663.44, 0.246059
6672.01, 0.243544
6680.61, 0.241389
6689.23, 0.240413
6697.88, 0.238822
6706.54, 0.236359
6715.23, 0.234819
6723.94, 0.234049
6732.67, 0.233433
6741.42, 0.232355
6750.2, 0.231021
6759.0, 0.229738
6767.82, 0.227838
6776.67, 0.225785
6785.54, 0.223681
6794.44, 0.222603
6803.35, 0.222347
6812.29, 0.221217
6821.26, 0.219267
6830.24, 0.217984
6839.25, 0.217111
6848.29, 0.215058
6857.35, 0.212338
6866.43, 0.211465
6875.54, 0.212133
6884.67, 0.211619
6893.82, 0.210644
6903.0, 0.209361
6912.2, 0.208540
6921.43, 0.207616
6930.69, 0.206333
6939.96, 0.204793
6949.27, 0.202637
6958.59, 0.200122
6967.95, 0.198993
6977.33, 0.197710
6986.73, 0.195759
6996.16, 0.193860
7005.61, 0.192372
7015.09, 0.190524
7024.6, 0.188830
7034.13, 0.187034
7043.69, 0.184929
7053.27, 0.183852
7062.88, 0.182928
7072.52, 0.181439
7082.18, 0.179899
7091.87, 0.178308
7101.58, 0.176461
7111.32, 0.174356
7121.09, 0.172611
7130.88, 0.170969
7140.71, 0.168916
7150.56, 0.166863
7160.43, 0.165117
7170.33, 0.163424
7180.27, 0.162192
7190.23, 0.160549
7200.21, 0.158548
7210.23, 0.156649
7220.27, 0.155109
7230.34, 0.153210
7240.44, 0.151208
7250.56, 0.149001
7260.72, 0.146794
7270.9, 0.144330
7281.12, 0.142021
7291.36, 0.139865
7301.63, 0.137709
7311.93, 0.135502
7322.25, 0.133346
7332.61, 0.130985
7343.0, 0.128984
7353.41, 0.127136
7363.86, 0.125493
7374.33, 0.123851
7384.83, 0.122362
7395.37, 0.120874
7405.93, 0.119591
7416.53, 0.118308
7427.15, 0.117178
7437.81, 0.115998
7448.5, 0.114971
7459.22, 0.113894
7469.96, 0.112970
7480.74, 0.112251
7491.55, 0.111635
7502.39, 0.110865
7513.27, 0.110198
7524.17, 0.109582
7535.11, 0.109018
7546.08, 0.108350
7557.08, 0.107580
7568.11, 0.106503
7579.17, 0.105373
7590.27, 0.104090
7601.4, 0.102704
7612.56, 0.101062
7623.76, 0.0994190
7634.98, 0.0976740
7646.24, 0.0958780
7657.54, 0.0938250
7668.87, 0.0918230
7680.23, 0.0896670
7691.62, 0.0875630
7703.05, 0.0854070
7714.51, 0.0833030
7726.01, 0.0812500
7737.54, 0.0792990
7749.11, 0.0773490
7760.71, 0.0756040
7772.35, 0.0739100
7784.02, 0.0723700
7795.72, 0.0707280
7807.46, 0.0691370
7819.23, 0.0674940
7831.04, 0.0659550
7842.89, 0.0642090
7854.77, 0.0625160
7866.69, 0.0607190
7878.65, 0.0589230
7890.64, 0.0570240
7902.67, 0.0551250
7914.74, 0.0530200
7926.84, 0.0509670
7938.98, 0.0487090
7951.16, 0.0467070
7963.37, 0.0446030
7975.62, 0.0426010
7987.91, 0.0405990
8000.24, 0.0386490
8012.6, 0.0366980
8025.01, 0.0347990
8037.45, 0.0330540
8049.93, 0.0315140
8062.45, 0.0297690
8075.01, 0.0283320
8087.61, 0.0268950
8100.24, 0.0256630
8112.91, 0.0242260
8125.63, 0.0232000
8138.39, 0.0222760
8151.18, 0.0213520
8164.02, 0.0204790
8176.9, 0.0196580
8189.81, 0.0188370
8202.77, 0.0181700
8215.77, 0.0175020
8228.82, 0.0170920
8241.9, 0.0169890
8255.02, 0.0170400
8268.19, 0.0169380
8281.39, 0.0170400
8294.65, 0.0174510
8307.94, 0.0181180
8321.28, 0.0188880
8334.66, 0.0199660
8348.08, 0.0211980
8361.54, 0.0230460
8375.05, 0.0252530
8388.6, 0.0278700
8402.2, 0.0308470
8415.84, 0.0345430
8429.52, 0.0388030
8443.25, 0.0436790
8457.02, 0.0492730
8470.84, 0.0557410
8484.7, 0.0627720
8498.61, 0.0707280
8512.57, 0.0795050
8526.57, 0.0891540
8540.62, 0.0995220
8554.71, 0.110763
8568.85, 0.122670
8583.04, 0.135194
8597.27, 0.148180
8611.55, 0.161165
8625.88, 0.173484
8640.26, 0.184262
8654.68, 0.192423
8669.16, 0.197197
8683.68, 0.199198
8698.25, 0.199044
8712.87, 0.197197
8727.53, 0.194168
8742.25, 0.189857
8757.02, 0.184519
8771.83, 0.178206
8786.7, 0.170866
8801.62, 0.162910
8816.59, 0.154339
8831.61, 0.145100
8846.68, 0.135502
8861.8, 0.126263
8876.97, 0.119026
8892.2, 0.115536
8907.48, 0.115228
8922.81, 0.114869
8938.2, 0.113432
8953.63, 0.111687
8969.13, 0.110506
8984.67, 0.110609
9000.27, 0.112148
9015.92, 0.114612
9031.63, 0.118102
9047.39, 0.122619
9063.21, 0.128060
9079.08, 0.134014
9095.01, 0.140429
9111.0, 0.146999
9127.04, 0.153261
9143.13, 0.159472
9159.28, 0.165528
9175.49, 0.171123
9191.76, 0.175896
9208.09, 0.179335
9224.47, 0.181285
9240.92, 0.181901
9257.42, 0.181439
9273.98, 0.180105
9290.6, 0.178052
9307.28, 0.175126
9324.02, 0.171482
9340.82, 0.167222
9357.68, 0.162910
9374.6, 0.158804
9391.58, 0.155160
9408.62, 0.152337
9425.73, 0.150438
9442.9, 0.149206
9460.13, 0.148231
9477.42, 0.147718
9494.78, 0.147410
9512.2, 0.146999
9529.69, 0.146589
9547.24, 0.145973
9564.86, 0.145049
9582.54, 0.144946
9600.28, 0.147256
9618.1, 0.151465
9635.97, 0.154544
9653.92, 0.154288
9671.93, 0.150746
9690.01, 0.145665
9708.16, 0.140737
9726.37, 0.136580
9744.65, 0.134937
9763.0, 0.138120
9781.43, 0.146537
9799.92, 0.158702
9818.48, 0.171995
9837.1, 0.184160
9855.8, 0.194528
9874.58, 0.202894
9893.42, 0.209618
9912.34, 0.215109
9931.33, 0.219729
9950.39, 0.223886
9969.52, 0.227890
9988.74, 0.231688
10008.0, 0.235435
10027.4, 0.238771
10046.8, 0.241748
10066.3, 0.244417
10085.9, 0.246316
10105.6, 0.247291
10125.3, 0.246829
10145.1, 0.244982
10165.0, 0.241440
10185.0, 0.236410
10205.0, 0.231175
10225.2, 0.226299
10245.4, 0.221525
10265.7, 0.217368
10286.0, 0.213878
10306.5, 0.210285
10327.0, 0.206846
10347.6, 0.203304
10368.3, 0.199660
10389.1, 0.195965
10409.9, 0.192321
10430.9, 0.188266
10451.9, 0.183800
10473.0, 0.178976
10494.2, 0.173638
10515.5, 0.167427
10536.9, 0.160087
10558.4, 0.151516
10579.9, 0.142380
10601.5, 0.133244
10623.3, 0.124775
10645.1, 0.117281
10667.0, 0.110455
10689.0, 0.104090
10711.1, 0.0984440
10733.2, 0.0934660
10755.5, 0.0901810
10777.9, 0.0895650
10800.3, 0.0919770
10822.9, 0.0956730
10845.5, 0.0998300
10868.2, 0.103474
10891.1, 0.105733
10914.0, 0.106554
10937.0, 0.106297
10960.2, 0.105168
10983.4, 0.103834
11006.7, 0.102704
11030.1, 0.101729
11053.6, 0.100651
11077.3, 0.100087
11101.0, 0.0998300
11124.8, 0.0999330
11148.7, 0.0999330
11172.7, 0.100035
11196.9, 0.100600
11221.1, 0.101113
11245.4, 0.101627
11269.9, 0.102345
11294.4, 0.103115
11319.1, 0.104090
11343.9, 0.104963
11368.8, 0.105835
11393.7, 0.106657
11418.8, 0.107272
11444.0, 0.107529
11469.4, 0.107837
11494.8, 0.108042
11520.3, 0.108299
11546.0, 0.108094
11571.8, 0.107837
11597.7, 0.107580
11623.7, 0.107324
11649.8, 0.106913
11676.0, 0.106605
11702.4, 0.106246
11728.9, 0.105938
11755.5, 0.105476
11782.2, 0.105476
11809.0, 0.105989
11836.0, 0.106862
11863.0, 0.107991
11890.3, 0.109172
11917.6, 0.110249
11945.0, 0.110968
11972.6, 0.111276
12000.4, 0.111533
12028.2, 0.111687
12056.2, 0.111635
12084.3, 0.111379
12112.5, 0.111019
12140.9, 0.110352
12169.4, 0.109736
12198.0, 0.108966
12226.8, 0.107837
12255.7, 0.106708
12284.7, 0.105835
12313.9, 0.105014
12343.2, 0.104142
12372.7, 0.102910
12402.3, 0.101113
12432.0, 0.0987520
12461.9, 0.0959290
12491.9, 0.0926440
12522.1, 0.0889490
12552.4, 0.0852530
12582.9, 0.0819680
12613.5, 0.0788380
12644.3, 0.0758090
12675.2, 0.0726270
12706.3, 0.0697010
12737.5, 0.0661090
12768.9, 0.0621050
12800.4, 0.0580500
12832.1, 0.0545090
12863.9, 0.0515830
12895.9, 0.0493760
12928.1, 0.0479390
12960.4, 0.0483500
12992.9, 0.0517880
13025.5, 0.0593330
13058.3, 0.0690860
13091.3, 0.0787860
13124.4, 0.0857150
13157.8, 0.0890520
13191.2, 0.0886410
13224.9, 0.0852020
13258.7, 0.0803770
13292.7, 0.0757070
13326.9, 0.0720110
13361.2, 0.0699070
13395.7, 0.0684700
13430.4, 0.0672890
13465.3, 0.0659030
13500.4, 0.0644150
13535.7, 0.0632860
13571.1, 0.0628750
13606.7, 0.0626700
13642.5, 0.0622590
13678.5, 0.0613350
13714.7, 0.0602060
13751.1, 0.0588720
13787.6, 0.0577940
13824.4, 0.0568700
13861.4, 0.0571780
13898.5, 0.0570240
13935.9, 0.0564080
13973.5, 0.0554330
14011.2, 0.0539960
14049.2, 0.0525580
14087.4, 0.0516340
14125.8, 0.0502490
14164.3, 0.0493250
14203.2, 0.0491710
14242.2, 0.0493250
14281.4, 0.0494270
14320.9, 0.0506080
14360.5, 0.0526610
14400.4, 0.0551250
14440.5, 0.0573320
14480.9, 0.0592310
14521.4, 0.0603090
14562.2, 0.0605650
14603.3, 0.0596930
14644.5, 0.0581530
14686.0, 0.0559970
14727.7, 0.0537390
14769.7, 0.0511730
14811.9, 0.0490170
14854.3, 0.0465020
14897.0, 0.0438330
14939.9, 0.0412670
14983.1, 0.0394700
15026.5, 0.0383410
15070.2, 0.0378280
15114.2, 0.0372630
15158.3, 0.0369040
15202.8, 0.0363390
15247.5, 0.0359800
15292.5, 0.0352610
15337.7, 0.0345430
15383.2, 0.0340810
15429.0, 0.0338240
15475.1, 0.0336190
15521.4, 0.0336190
15568.0, 0.0338760
15614.9, 0.0344910
15662.1, 0.0345940
15709.6, 0.0345430
15757.3, 0.0342860
15805.4, 0.0340290
15853.7, 0.0333620
15902.3, 0.0330540
15951.2, 0.0326440
16000.5, 0.0318220
16050.0, 0.0305910
16099.8, 0.0295130
16150.0, 0.0282810
16200.5, 0.0272540
16251.3, 0.0263310
16302.4, 0.0258170
16353.8, 0.0251500
16405.5, 0.0252530
16457.6, 0.0256120
16510.0, 0.0267920
16562.8, 0.0282810
16615.9, 0.0299230
16669.3, 0.0327460
16723.1, 0.0369550
16777.2, 0.0421900
16831.7, 0.0495810
16886.5, 0.0579990
16941.7, 0.0677000
16997.2, 0.0787350
17053.1, 0.0914130
17109.4, 0.104655
17166.1, 0.118821
17223.1, 0.133192
17280.5, 0.147256
17338.3, 0.160447
17396.5, 0.173946
17455.1, 0.187188
17514.0, 0.200481
17573.4, 0.212441
17633.2, 0.223168
17693.4, 0.232458
17754.0, 0.238874
17815.0, 0.241902
17876.4, 0.242621
17938.3, 0.240003
18000.5, 0.235024
18063.3, 0.228865
18126.4, 0.223065
18190.0, 0.218548
18254.1, 0.216187
18318.6, 0.215828
18383.5, 0.218292
18449.0, 0.222757
18514.9, 0.229173
18581.2, 0.236718
18648.0, 0.244417
18715.4, 0.247872
18783.2, 0.250088
18851.5, 0.250780
18920.3, 0.250088
18989.6, 0.245103
19059.4, 0.241502
19129.7, 0.237486
19200.6, 0.235132
19272.0, 0.233332
19343.9, 0.232501
19416.3, 0.229316
19489.3, 0.225300
19562.8, 0.224747
19637.0, 0.226408
19711.6, 0.223085
19786.8, 0.217130
19862.6, 0.213530
19939.0, 0.208129
20016.0, 0.207160
20093.6, 0.212007
20171.8, 0.216161
20250.6, 0.218792
20330.0, 0.218100
20410.0, 0.218931
20490.7, 0.220592
20572.0, 0.221423
20654.0, 0.225023
20736.6, 0.229870
20819.9, 0.234994
20903.8, 0.239425
20988.5, 0.243025
21073.8, 0.244687
21159.8, 0.244826
21246.5, 0.250503
21334.0, 0.255627
21422.1, 0.255904
21511.0, 0.260750
21600.7, 0.267259
21691.0, 0.270305
21782.1, 0.272521
21874.0, 0.274875
21966.7, 0.279583
22060.2, 0.281383
22154.5, 0.279721
22249.6, 0.274459
22345.5, 0.269751
22442.2, 0.268505
22539.8, 0.269336
22638.2, 0.268643
22737.5, 0.265597
22837.7, 0.259919
22938.7, 0.253688
23040.7, 0.250226
23143.5, 0.243579
23247.3, 0.235271
23352.1, 0.226270
23457.7, 0.220869
23564.4, 0.217823
23672.0, 0.215330
23780.5, 0.213253
23890.1, 0.212838
24000.7, 0.212007
24112.3, 0.210760
24225.0, 0.211037
24338.7, 0.209791
24453.5, 0.203837
24569.4, 0.196636
24686.4, 0.190405
24804.5, 0.184589
24923.8, 0.183481
25044.2, 0.182650
25165.8, 0.179603
25288.6, 0.174064
25412.5, 0.172126
25537.7, 0.172957
25664.1, 0.178357
25791.8, 0.184173
25920.8, 0.188881
26051.1, 0.187358
26182.6, 0.184727
26315.5, 0.182373
26449.8, 0.177249
26585.4, 0.175588
26722.5, 0.176003
26860.9, 0.176141
27000.8, 0.172403
27142.1, 0.165617
27285.0, 0.162571
27429.4, 0.160632
27575.3, 0.160632
27722.7, 0.166587
27871.8, 0.171018
28022.4, 0.175726
28174.7, 0.184450
28328.7, 0.189158
28484.4, 0.191512
28641.7, 0.195390
28800.9, 0.199682
28961.8, 0.202313
29124.5, 0.204806
29289.0, 0.207299
29455.4, 0.210207
29623.8, 0.212007
29794.0, 0.214915
29966.3, 0.219346
30140.5, 0.226131
30316.7, 0.232501
30495.1, 0.237902
30675.5, 0.242056
30858.1, 0.242610
31042.8, 0.240671
31229.8, 0.237902
31419.1, 0.236240
31610.7, 0.237486
31804.6, 0.240671
32000.9, 0.246210
32199.7, 0.254380
32400.9, 0.261304
32604.8, 0.263520
32811.1, 0.255627
33020.1, 0.240810
33231.8, 0.232917
33446.2, 0.237486
33663.4, 0.250919
33883.4, 0.264212
34106.3, 0.274044
34332.1, 0.276537
34561.0, 0.273629
34792.9, 0.268643
35028.0, 0.266566
35266.3, 0.263104
35507.8, 0.258812
35752.7, 0.255488
36001.0, 0.258673
36252.8, 0.267951
36508.1, 0.279029
36767.0, 0.287615
37029.7, 0.290384
37296.1, 0.290800
37566.3, 0.290661
37840.5, 0.288169
38118.8, 0.279998
38401.2, 0.266843
38687.8, 0.248980
38978.6, 0.224470
39273.9, 0.197190
39573.7, 0.174618
39878.1, 0.161325
40187.3, 0.150385
40501.2, 0.138199
40820.0, 0.127536
41144.0, 0.122136
41473.2, 0.124351
41807.6, 0.134460
42147.5, 0.146231
42493.0, 0.156755
42844.2, 0.167417
43201.2, 0.177111
43564.3, 0.178911
43933.5, 0.177526
44309.0, 0.179465
44691.0, 0.181542
45079.6, 0.182927
45475.0, 0.186666
45877.5, 0.194697
46287.1, 0.202867
46704.2, 0.212007
47128.7, 0.226962
47561.1, 0.243718
48001.5, 0.260058
48450.1, 0.272936
48907.2, 0.270721
49373.0, 0.265735
49847.7, 0.267536
50331.5, 0.262689
50825.0, 0.255627
51328.2, 0.243579
51841.5, 0.228762
52365.1, 0.214776
52899.4, 0.197744
53444.8, 0.182373
54001.5, 0.174618
54570.1, 0.164925
55150.6, 0.154539
55743.6, 0.148862
56349.5, 0.148308
56968.7, 0.146646
57601.7, 0.144430
58248.9, 0.147754
58910.9, 0.150246
59588.1, 0.153016
60281.0, 0.151077
60990.2, 0.145261
61716.3, 0.141661
62459.8, 0.135153
63221.6, 0.129475
64002.1, 0.130306
64802.1, 0.136537
65622.1, 0.135291
66463.4, 0.128090
67326.6, 0.125321
68212.4, 0.117843
69121.9, 0.115766
70056.0, 0.124351
71015.7, 0.135153
72002.0, 0.141522
73016.3, 0.148308
74059.4, 0.159940
75132.7, 0.173233
76237.6, 0.188189
77375.5, 0.202729
78547.9, 0.214638
79756.3, 0.226824
81002.5, 0.237071
82288.5, 0.242333
83615.7, 0.248149
84986.5, 0.259504
86402.9, 0.274321
87867.4, 0.293015
89382.4, 0.257288
90950.5, 0.180988
92574.6, 0.253411
94257.2, 0.303262
96002.7, 0.305893
97814.1, 0.314756
99695.1, 0.307417
101650.0, 0.302985
103683.0, 0.312540
105799.0, 0.321264
108003.0, 0.316833
110301.0, 0.309771
112699.0, 0.304232
115204.0, 0.302155
117822.0, 0.300631
120562.0, 0.295092
123433.0, 0.291907
126443.0, 0.286784
129604.0, 0.282214
132926.0, 0.284845
136424.0, 0.283599
140111.0, 0.269059
144003.0, 0.267397
148118.0, 0.251472
152474.0, 0.216438
157095.0, 0.235686
162004.0, 0.234024
167231.0, 0.207714
172805.0, 0.214222
178764.0, 0.236102
185148.0, 0.230286
192005.0, 0.241779
199390.0, 0.247180
207366.0, 0.260335
216006.0, 0.253550
