Database of Origin, USGS Spectral Database
Sample Description, See USGS database for additional info
Date Added,2016-08-10 05:31:17.167399

Data ID,USGS_qua01          
Sample ID, quartz_avent_hs117.19129
Mineral Name, quartz
Material Class,Tectosilicate

Wavelength
221.1, 0.270093
229.1, 0.214122
236.1, 0.175496
242.1, 0.143048
248.1, 0.123628
253.6, 0.116887
258.6, 0.109125
263.6, 0.111990
268.6, 0.112653
273.1, 0.115268
277.1, 0.117576
281.1, 0.123176
285.1, 0.128152
289.1, 0.136537
293.1, 0.149802
297.1, 0.160489
301.1, 0.179732
305.1, 0.204467
309.1, 0.229186
313.1, 0.262686
317.1, 0.298843
321.1, 0.340841
325.1, 0.382966
329.1, 0.426611
333.1, 0.464189
337.1, 0.500262
341.1, 0.535798
345.1, 0.566600
349.1, 0.593693
353.1, 0.609967
357.1, 0.627886
360.6, 0.634945
363.6, 0.636420
366.6, 0.644480
369.6, 0.647008
372.6, 0.651717
375.6, 0.659155
378.6, 0.658856
381.1, 0.664007
383.1, 0.669023
385.1, 0.669377
387.1, 0.671221
389.1, 0.673579
391.1, 0.671881
393.1, 0.677276
395.1, 0.677566
397.1, 0.683140
399.1, 0.685142
401.1, 0.686643
403.1, 0.688768
405.1, 0.690143
407.1, 0.692571
409.1, 0.689635
411.1, 0.691246
412.8, 0.691221
415.8, 0.692403
418.8, 0.693440
421.8, 0.689202
424.8, 0.688873
427.8, 0.686671
430.8, 0.686970
433.8, 0.680857
436.8, 0.677895
439.8, 0.679662
442.8, 0.676225
445.8, 0.674407
448.8, 0.670729
451.3, 0.674706
453.3, 0.674299
455.3, 0.673780
457.3, 0.671747
459.3, 0.671588
461.3, 0.669271
463.3, 0.664358
465.3, 0.662956
467.3, 0.659182
469.3, 0.657333
471.3, 0.653751
473.3, 0.653621
475.3, 0.646222
477.3, 0.644168
479.3, 0.640226
481.3, 0.633784
483.3, 0.635428
485.3, 0.628353
487.3, 0.628461
489.3, 0.625488
491.3, 0.621927
493.3, 0.619138
495.3, 0.612645
497.3, 0.614019
499.3, 0.604757
501.3, 0.603240
503.3, 0.597740
505.3, 0.593551
507.3, 0.587480
509.3, 0.587767
511.3, 0.586659
513.3, 0.584776
515.3, 0.579625
517.3, 0.574503
519.3, 0.574152
521.3, 0.566468
523.3, 0.567305
525.3, 0.561905
527.3, 0.557593
529.3, 0.556314
531.3, 0.557790
533.3, 0.549939
535.3, 0.550321
537.3, 0.547921
539.3, 0.540739
541.3, 0.539540
543.3, 0.536165
545.3, 0.530989
547.3, 0.529532
549.3, 0.529983
551.3, 0.526347
553.3, 0.521513
555.3, 0.520891
557.3, 0.515676
559.3, 0.514084
561.3, 0.514650
563.3, 0.510811
565.3, 0.509361
567.3, 0.505906
569.3, 0.506755
571.3, 0.505465
573.3, 0.502476
575.3, 0.497968
577.3, 0.496672
579.3, 0.496054
581.3, 0.493390
583.3, 0.495038
585.3, 0.493239
587.3, 0.489500
589.3, 0.489138
591.3, 0.489798
593.3, 0.490818
595.3, 0.488795
597.3, 0.484602
599.3, 0.489196
601.1, 0.486477
602.7, 0.486100
604.3, 0.485054
605.9, 0.484823
607.5, 0.481656
609.1, 0.485013
610.7, 0.484936
612.3, 0.481912
613.9, 0.481922
615.5, 0.486541
617.1, 0.485235
618.7, 0.485596
620.3, 0.486512
621.9, 0.479724
623.5, 0.484575
625.1, 0.484326
626.7, 0.481555
628.3, 0.483412
629.9, 0.485393
631.7, 0.486621
633.7, 0.488305
635.7, 0.490464
637.7, 0.485145
639.7, 0.488366
641.7, 0.493391
643.7, 0.491556
645.7, 0.493842
647.7, 0.495700
649.7, 0.497002
651.7, 0.500273
653.7, 0.501462
655.7, 0.499817
657.7, 0.504923
659.7, 0.507532
661.7, 0.508121
663.7, 0.509406
665.7, 0.512972
667.7, 0.517225
670.2, 0.517565
673.2, 0.521175
676.2, 0.527392
679.2, 0.526430
682.2, 0.531798
685.2, 0.538167
688.2, 0.541993
691.2, 0.548132
694.2, 0.548956
697.2, 0.549574
700.2, 0.559317
702.0, 0.560462
704.0, 0.563080
706.0, 0.566957
708.0, 0.568798
710.0, 0.575531
712.0, 0.575555
714.0, 0.579146
716.0, 0.585453
718.0, 0.588912
720.0, 0.589350
722.0, 0.597281
724.0, 0.598805
726.0, 0.601341
728.0, 0.608638
730.0, 0.609933
732.0, 0.614095
734.0, 0.618561
736.0, 0.622674
738.0, 0.623494
740.0, 0.631530
742.0, 0.629246
744.0, 0.632603
746.0, 0.641653
748.0, 0.644625
750.5, 0.646789
753.5, 0.651750
756.5, 0.657007
759.5, 0.664093
762.5, 0.666971
765.5, 0.677031
768.5, 0.680386
771.5, 0.683401
774.5, 0.692049
777.5, 0.695682
781.0, 0.700963
785.0, 0.709464
789.0, 0.720142
793.0, 0.727887
797.0, 0.732012
801.5, 0.735768
806.5, 0.745954
811.5, 0.753384
816.5, 0.759962
822.0, 0.768348
828.0, 0.774966
835.0, 0.790174
851.0, 0.805449
859.0, 0.814483
871.0, 0.831413
883.0, 0.834402
894.0, 0.843557
904.0, 0.846061
914.0, 0.850780
924.0, 0.861392
933.0, 0.863638
941.0, 0.865762
949.0, 0.872677
957.0, 0.868558
964.0, 0.875342
970.0, 0.873199
976.0, 0.881887
982.0, 0.888283
988.0, 0.884192
994.0, 0.885492
1000.0, 0.887155
1006.0, 0.891741
1012.0, 0.891967
1018.0, 0.892727
1023.5, 0.899813
1028.5, 0.896808
1033.5, 0.898283
1038.5, 0.900303
1043.5, 0.901123
1048.5, 0.901624
1053.5, 0.902937
1058.5, 0.906298
1063.5, 0.905062
1068.5, 0.904306
1073.5, 0.904813
1078.5, 0.906440
1083.5, 0.903495
1088.5, 0.904807
1093.5, 0.907359
1098.5, 0.909517
1103.5, 0.911337
1108.5, 0.911359
1113.5, 0.914514
1118.5, 0.910516
1123.5, 0.913643
1128.5, 0.914064
1133.5, 0.913023
1138.5, 0.914966
1143.5, 0.915698
1148.5, 0.918868
1153.5, 0.917896
1158.5, 0.919422
1163.5, 0.916738
1168.5, 0.918444
1173.5, 0.914640
1178.5, 0.916763
1183.5, 0.915825
1188.5, 0.911990
1193.5, 0.921921
1198.5, 0.915576
1203.5, 0.918605
1208.5, 0.920821
1213.5, 0.919973
1218.5, 0.919912
1223.5, 0.920493
1228.5, 0.922547
1233.5, 0.920814
1238.5, 0.921658
1243.5, 0.922451
1248.5, 0.920624
1253.5, 0.919942
1258.5, 0.922480
1263.5, 0.924173
1268.5, 0.922754
1273.5, 0.923453
1278.5, 0.920735
1283.5, 0.922922
1288.5, 0.918756
1293.5, 0.916757
1298.5, 0.918454
1303.5, 0.920800
1308.5, 0.918590
1313.5, 0.919248
1318.5, 0.914313
1323.5, 0.919465
1328.5, 0.918464
1333.5, 0.917535
1338.5, 0.916129
1343.5, 0.919062
1348.5, 0.921255
1353.5, 0.921566
1358.5, 0.917634
1363.5, 0.913561
1368.5, 0.914788
1373.5, 0.915410
1378.5, 0.909157
1383.5, 0.906431
1388.5, 0.892599
1393.5, 0.854625
1398.5, 0.798150
1403.5, 0.769838
1408.5, 0.755046
1413.5, 0.763512
1418.5, 0.819575
1423.5, 0.858786
1428.5, 0.889048
1433.5, 0.902811
1438.5, 0.909709
1443.5, 0.911046
1448.5, 0.908630
1453.5, 0.906109
1458.5, 0.898050
1463.5, 0.892384
1468.5, 0.892055
1473.5, 0.899018
1478.5, 0.901913
1483.5, 0.907180
1488.5, 0.916341
1493.5, 0.918582
1498.5, 0.919897
1503.5, 0.918478
1508.5, 0.920795
1513.5, 0.917248
1518.5, 0.922490
1523.5, 0.918150
1528.5, 0.918027
1534.0, 0.916835
1540.0, 0.921022
1546.0, 0.918262
1552.0, 0.917077
1558.0, 0.918022
1564.0, 0.917895
1570.5, 0.915487
1577.5, 0.915045
1584.5, 0.911583
1591.5, 0.911702
1598.5, 0.907590
1605.5, 0.910182
1612.5, 0.905195
1619.5, 0.908843
1626.5, 0.902159
1633.5, 0.904954
1640.5, 0.901491
1647.5, 0.899219
1654.5, 0.893385
1661.5, 0.897664
1668.5, 0.887721
1676.0, 0.890255
1684.0, 0.883093
1692.0, 0.879547
1700.0, 0.879910
1708.0, 0.869998
1716.0, 0.867785
1724.0, 0.860571
1732.0, 0.860291
1740.0, 0.857744
1748.0, 0.860402
1756.0, 0.852358
1764.0, 0.850353
1772.0, 0.854842
1780.0, 0.854037
1788.0, 0.851711
1796.0, 0.851463
1805.0, 0.849074
1815.0, 0.844436
1825.0, 0.840529
1835.0, 0.837061
1845.0, 0.832095
1855.0, 0.833611
1865.0, 0.825220
1875.0, 0.820858
1885.0, 0.817071
1895.0, 0.815225
1905.0, 0.805336
1915.0, 0.805795
1925.0, 0.801863
1935.0, 0.799416
1945.0, 0.795244
1955.0, 0.790934
1965.0, 0.790741
1975.0, 0.791124
1985.0, 0.787043
1995.0, 0.789022
2005.0, 0.783247
2015.0, 0.781857
2025.0, 0.784213
2035.0, 0.777440
2045.0, 0.777247
2055.0, 0.772226
2065.0, 0.770450
2075.0, 0.768675
2085.0, 0.765819
2095.0, 0.761707
2105.0, 0.755550
2115.0, 0.756800
2125.0, 0.750450
2135.0, 0.744941
2145.0, 0.742964
2155.0, 0.734155
2165.0, 0.718457
2175.0, 0.691469
2185.0, 0.635361
2195.0, 0.600457
2205.0, 0.619105
2215.0, 0.665643
2225.0, 0.673599
2235.0, 0.661757
2245.0, 0.652344
2255.0, 0.647136
2265.0, 0.647859
2275.0, 0.657887
2285.0, 0.661713
2295.0, 0.670200
2305.0, 0.666839
2315.0, 0.653021
2325.0, 0.642531
2335.0, 0.624857
2345.0, 0.621810
2355.0, 0.618472
2365.0, 0.621876
2375.0, 0.622456
2386.0, 0.618287
2400.0, 0.611526
2418.0, 0.593115
2440.0, 0.576495
2466.0, 0.580195
2496.0, 0.589675
2528.0, 0.595419
2560.0, 0.587222
2592.0, 0.566996
2624.0, 0.555066
2656.0, 0.534250
2688.0, 0.495018
2720.0, 0.300322
2752.0, 0.118763
2784.0, 0.225062
2816.0, 0.354627
2848.0, 0.270754
2880.0, 0.303464
2912.0, 0.391563
2944.0, 0.403399
2976.0, 0.390523
