Database of Origin, USGS Spectral Database
Sample Description, See USGS database for additional info
Date Added,2016-08-10 05:40:19.752437

Data ID,USGS_sph07          
Sample ID, sphene_hs189.21059
Mineral Name, sphene
Material Class,Sulfide

Wavelength
221.1, 0.0578490
229.1, 0.0620190
236.1, 0.0603370
242.1, 0.0615160
248.1, 0.0597870
253.6, 0.0589990
258.6, 0.0581750
263.6, 0.0596840
268.6, 0.0589250
273.1, 0.0583400
277.1, 0.0572870
281.1, 0.0577670
285.1, 0.0580770
289.1, 0.0582360
293.1, 0.0602120
297.1, 0.0600820
301.1, 0.0613530
305.1, 0.0626760
309.1, 0.0646120
313.1, 0.0649060
317.1, 0.0657950
321.1, 0.0671870
325.1, 0.0691990
329.1, 0.0699080
333.1, 0.0699830
337.1, 0.0731390
341.1, 0.0735760
345.1, 0.0759110
349.1, 0.0751950
353.1, 0.0753500
357.1, 0.0774150
360.6, 0.0782770
363.6, 0.0786210
366.6, 0.0803480
369.6, 0.0815490
372.6, 0.0814910
375.6, 0.0835490
378.6, 0.0836840
381.1, 0.0840770
383.1, 0.0841990
385.1, 0.0857980
387.1, 0.0857710
389.1, 0.0877780
391.1, 0.0881760
393.1, 0.0872240
395.1, 0.0900810
397.1, 0.0888190
399.1, 0.0890950
401.1, 0.0900200
403.1, 0.0902210
405.1, 0.0886590
407.1, 0.0911960
409.1, 0.0918950
411.1, 0.0915460
412.8, 0.0918930
415.8, 0.0934580
418.8, 0.0917640
421.8, 0.0934500
424.8, 0.0947330
427.8, 0.0944820
430.8, 0.0957750
433.8, 0.0961770
436.8, 0.0965350
439.8, 0.0972410
442.8, 0.0976350
445.8, 0.0984740
448.8, 0.0972320
451.3, 0.100062
453.3, 0.0999740
455.3, 0.0970560
457.3, 0.100909
459.3, 0.101408
461.3, 0.101272
463.3, 0.100148
465.3, 0.102166
467.3, 0.102891
469.3, 0.102606
471.3, 0.103791
473.3, 0.104477
475.3, 0.103558
477.3, 0.104383
479.3, 0.104493
481.3, 0.104926
483.3, 0.107949
485.3, 0.104976
487.3, 0.105105
489.3, 0.105290
491.3, 0.108989
493.3, 0.108303
495.3, 0.107630
497.3, 0.107868
499.3, 0.110085
501.3, 0.109939
503.3, 0.109492
505.3, 0.111686
507.3, 0.110917
509.3, 0.112793
511.3, 0.110999
513.3, 0.112781
515.3, 0.112780
517.3, 0.114235
519.3, 0.113504
521.3, 0.116820
523.3, 0.113956
525.3, 0.116992
527.3, 0.119182
529.3, 0.118727
531.3, 0.120453
533.3, 0.119212
535.3, 0.121428
537.3, 0.123491
539.3, 0.123267
541.3, 0.126115
543.3, 0.124722
545.3, 0.124420
547.3, 0.129807
549.3, 0.126548
551.3, 0.128404
553.3, 0.130401
555.3, 0.130611
557.3, 0.131572
559.3, 0.132567
561.3, 0.134162
563.3, 0.133936
565.3, 0.138479
567.3, 0.137513
569.3, 0.137314
571.3, 0.137022
573.3, 0.141958
575.3, 0.141037
577.3, 0.142836
579.3, 0.143419
581.3, 0.145369
583.3, 0.145962
585.3, 0.147686
587.3, 0.148472
589.3, 0.148221
591.3, 0.151072
593.3, 0.152344
595.3, 0.153751
597.3, 0.154639
599.3, 0.154815
601.1, 0.156409
602.7, 0.157064
604.3, 0.158050
605.9, 0.161015
607.5, 0.162046
609.1, 0.162048
610.7, 0.164506
612.3, 0.163349
613.9, 0.163661
615.5, 0.165382
617.1, 0.166349
618.7, 0.165963
620.3, 0.167143
621.9, 0.169468
623.5, 0.170104
625.1, 0.169572
626.7, 0.171520
628.3, 0.171703
629.9, 0.174454
631.7, 0.173953
633.7, 0.176003
635.7, 0.175321
637.7, 0.176778
639.7, 0.178337
641.7, 0.179165
643.7, 0.180243
645.7, 0.182420
647.7, 0.181556
649.7, 0.182964
651.7, 0.183892
653.7, 0.186627
655.7, 0.187184
657.7, 0.187166
659.7, 0.188946
661.7, 0.189604
663.7, 0.191072
665.7, 0.193205
667.7, 0.191883
670.2, 0.193803
673.2, 0.196724
676.2, 0.198724
679.2, 0.199184
682.2, 0.200344
685.2, 0.201575
688.2, 0.204110
691.2, 0.202154
694.2, 0.207186
697.2, 0.207069
700.2, 0.209376
702.0, 0.207858
704.0, 0.210022
706.0, 0.211641
708.0, 0.213114
710.0, 0.214840
712.0, 0.215337
714.0, 0.216790
716.0, 0.216828
718.0, 0.217464
720.0, 0.218398
722.0, 0.220156
724.0, 0.220770
726.0, 0.222161
728.0, 0.221396
730.0, 0.220886
732.0, 0.222428
734.0, 0.224682
736.0, 0.224756
738.0, 0.226641
740.0, 0.226101
742.0, 0.229909
744.0, 0.228738
746.0, 0.229699
748.0, 0.231977
750.5, 0.231009
753.5, 0.231757
756.5, 0.236726
759.5, 0.238602
762.5, 0.236680
765.5, 0.240220
768.5, 0.242087
771.5, 0.243652
774.5, 0.244055
777.5, 0.245293
781.0, 0.246746
785.0, 0.248043
789.0, 0.249882
793.0, 0.250821
797.0, 0.251340
801.5, 0.254486
806.5, 0.253812
811.5, 0.257038
816.5, 0.258696
822.0, 0.260368
828.0, 0.264022
835.0, 0.265694
851.0, 0.267619
859.0, 0.268700
871.0, 0.270120
883.0, 0.270667
894.0, 0.270968
904.0, 0.273489
914.0, 0.275542
924.0, 0.277535
933.0, 0.280230
941.0, 0.278602
949.0, 0.279259
957.0, 0.282230
964.0, 0.281400
970.0, 0.284040
976.0, 0.281829
982.0, 0.283063
988.0, 0.282947
994.0, 0.284538
1000.0, 0.283385
1006.0, 0.285555
1012.0, 0.283327
1018.0, 0.285375
1023.5, 0.283619
1028.5, 0.287301
1033.5, 0.286241
1038.5, 0.285144
1043.5, 0.288166
1048.5, 0.286665
1053.5, 0.286400
1058.5, 0.288033
1063.5, 0.288690
1068.5, 0.287419
1073.5, 0.286860
1078.5, 0.288971
1083.5, 0.289507
1088.5, 0.289354
1093.5, 0.291932
1098.5, 0.292590
1103.5, 0.291562
1108.5, 0.291764
1113.5, 0.292896
1118.5, 0.293612
1123.5, 0.294332
1128.5, 0.294252
1133.5, 0.295685
1138.5, 0.296422
1143.5, 0.298239
1148.5, 0.297378
1153.5, 0.298892
1158.5, 0.299409
1163.5, 0.302360
1168.5, 0.302947
1173.5, 0.299122
1178.5, 0.301605
1183.5, 0.299458
1188.5, 0.304166
1193.5, 0.305097
1198.5, 0.303334
1203.5, 0.304954
1208.5, 0.305456
1213.5, 0.309177
1218.5, 0.309350
1223.5, 0.309512
1228.5, 0.310000
1233.5, 0.312451
1238.5, 0.313077
1243.5, 0.314745
1248.5, 0.316095
1253.5, 0.314122
1258.5, 0.314686
1263.5, 0.318757
1268.5, 0.318755
1273.5, 0.318361
1278.5, 0.322285
1283.5, 0.318970
1288.5, 0.320500
1293.5, 0.321951
1298.5, 0.323190
1303.5, 0.322484
1308.5, 0.327198
1313.5, 0.326121
1318.5, 0.328246
1323.5, 0.326360
1328.5, 0.325971
1333.5, 0.327031
1338.5, 0.328664
1343.5, 0.328363
1348.5, 0.327922
1353.5, 0.331982
1358.5, 0.331206
1363.5, 0.332137
1368.5, 0.334802
1373.5, 0.334084
1378.5, 0.330895
1383.5, 0.337774
1388.5, 0.335264
1393.5, 0.333386
1398.5, 0.333919
1403.5, 0.333375
1408.5, 0.334574
1413.5, 0.335397
1418.5, 0.336441
1423.5, 0.339103
1428.5, 0.336391
1433.5, 0.338823
1438.5, 0.339383
1443.5, 0.338441
1448.5, 0.340548
1453.5, 0.339011
1458.5, 0.339710
1463.5, 0.342258
1468.5, 0.341461
1473.5, 0.342951
1478.5, 0.342326
1483.5, 0.342055
1488.5, 0.345056
1493.5, 0.345611
1498.5, 0.342702
1503.5, 0.347510
1508.5, 0.345269
1513.5, 0.346646
1518.5, 0.346678
1523.5, 0.348887
1528.5, 0.349088
1534.0, 0.346356
1540.0, 0.350243
1546.0, 0.349577
1552.0, 0.350942
1558.0, 0.352461
1564.0, 0.351479
1570.5, 0.351637
1577.5, 0.353529
1584.5, 0.353169
1591.5, 0.352185
1598.5, 0.353829
1605.5, 0.354548
1612.5, 0.354171
1619.5, 0.357499
1626.5, 0.356000
1633.5, 0.355928
1640.5, 0.356853
1647.5, 0.353220
1654.5, 0.356554
1661.5, 0.357208
1668.5, 0.360104
1676.0, 0.358475
1684.0, 0.355035
1692.0, 0.353357
1700.0, 0.357767
1708.0, 0.361231
1716.0, 0.359595
1724.0, 0.362242
1732.0, 0.357485
1740.0, 0.363473
1748.0, 0.360837
1756.0, 0.362319
1764.0, 0.362671
1772.0, 0.366101
1780.0, 0.361768
1788.0, 0.363548
1796.0, 0.362915
1805.0, 0.364795
1815.0, 0.364492
1825.0, 0.364417
1835.0, 0.363187
1845.0, 0.363477
1855.0, 0.364365
1865.0, 0.366381
1875.0, 0.365401
1885.0, 0.365539
1895.0, 0.365436
1905.0, 0.363249
1915.0, 0.363289
1925.0, 0.363912
1935.0, 0.359545
1945.0, 0.362728
1955.0, 0.367343
1965.0, 0.364197
1975.0, 0.367045
1985.0, 0.367090
1995.0, 0.370793
2005.0, 0.370475
2015.0, 0.371679
2025.0, 0.370972
2035.0, 0.375834
2045.0, 0.373352
2055.0, 0.377636
2065.0, 0.372211
2075.0, 0.378678
2085.0, 0.375500
2095.0, 0.381519
2105.0, 0.374870
2115.0, 0.381420
2125.0, 0.384053
2135.0, 0.382473
2145.0, 0.381030
2155.0, 0.377667
2165.0, 0.375014
2175.0, 0.379156
2185.0, 0.375154
2195.0, 0.374721
2205.0, 0.370541
2215.0, 0.374820
2225.0, 0.375538
2235.0, 0.373692
2245.0, 0.372199
2255.0, 0.368693
2265.0, 0.371825
2275.0, 0.371259
2285.0, 0.376184
2295.0, 0.367086
2305.0, 0.371997
2315.0, 0.369170
2325.0, 0.365702
2335.0, 0.369782
2345.0, 0.367771
2355.0, 0.368777
2365.0, 0.372419
2375.0, 0.373106
2386.0, 0.369589
2400.0, 0.366657
2418.0, 0.369402
2440.0, 0.369168
2466.0, 0.367501
2496.0, 0.363784
2528.0, 0.363423
2560.0, 0.360434
2592.0, 0.362280
2624.0, 0.357770
2656.0, 0.355476
2688.0, 0.343201
2720.0, 0.269164
2752.0, 0.175764
2784.0, 0.153511
2816.0, 0.119946
2848.0, 0.111216
2880.0, 0.0962560
2912.0, 0.103460
2944.0, 0.106720
2976.0, 0.118474
