Database of Origin, USGS Spectral Database
Sample Description, See USGS database for additional info
Date Added,2016-08-10 02:55:43.904588

Data ID,USGS_hem13          
Sample ID, hematite_gds69.9602
Mineral Name, hematite
Material Class,Oxide

Wavelength
229.1, 0.0918640
236.1, 0.0839670
242.1, 0.0771070
248.1, 0.0717170
253.6, 0.0709210
258.6, 0.0758690
263.6, 0.0716970
268.6, 0.0722470
273.1, 0.0707210
277.1, 0.0713640
281.1, 0.0703270
285.1, 0.0709500
289.1, 0.0705100
293.1, 0.0700790
297.1, 0.0679470
301.1, 0.0683930
305.1, 0.0663950
309.1, 0.0634600
313.1, 0.0656510
317.1, 0.0646000
321.1, 0.0647690
325.1, 0.0594870
329.1, 0.0602450
333.1, 0.0578260
337.1, 0.0560670
341.1, 0.0523560
345.1, 0.0545800
349.1, 0.0567200
353.1, 0.0560600
357.1, 0.0543040
360.6, 0.0552740
363.6, 0.0552040
366.6, 0.0554540
369.6, 0.0592750
372.6, 0.0578420
375.6, 0.0581370
378.6, 0.0580380
381.1, 0.0623400
383.1, 0.0584270
385.1, 0.0605620
387.1, 0.0605760
389.1, 0.0609290
391.1, 0.0599950
393.1, 0.0639400
395.1, 0.0617420
397.1, 0.0622540
399.1, 0.0647100
401.1, 0.0619210
403.1, 0.0626510
405.1, 0.0628450
407.1, 0.0632620
409.1, 0.0647730
411.1, 0.0626820
412.8, 0.0625880
415.8, 0.0635820
418.8, 0.0638070
421.8, 0.0638500
424.8, 0.0641170
427.8, 0.0638760
430.8, 0.0656050
433.8, 0.0636950
436.8, 0.0635540
439.8, 0.0634650
442.8, 0.0650050
445.8, 0.0627350
448.8, 0.0642710
451.3, 0.0607360
453.3, 0.0621810
455.3, 0.0619020
457.3, 0.0612390
459.3, 0.0584810
461.3, 0.0601220
463.3, 0.0606270
465.3, 0.0627970
467.3, 0.0603090
469.3, 0.0600570
471.3, 0.0596330
473.3, 0.0595020
475.3, 0.0594110
477.3, 0.0596300
479.3, 0.0589430
481.3, 0.0591410
483.3, 0.0575230
485.3, 0.0608210
487.3, 0.0586260
489.3, 0.0608460
491.3, 0.0572790
493.3, 0.0607780
495.3, 0.0580760
497.3, 0.0576820
499.3, 0.0583800
501.3, 0.0580860
503.3, 0.0582190
505.3, 0.0565930
507.3, 0.0579890
509.3, 0.0575040
511.3, 0.0565070
513.3, 0.0573970
515.3, 0.0574450
517.3, 0.0598130
519.3, 0.0573990
521.3, 0.0577590
523.3, 0.0600800
525.3, 0.0577140
527.3, 0.0579540
529.3, 0.0573400
531.3, 0.0582360
533.3, 0.0603960
535.3, 0.0553600
537.3, 0.0579990
539.3, 0.0579370
541.3, 0.0605040
543.3, 0.0584230
545.3, 0.0606130
547.3, 0.0569700
549.3, 0.0582950
551.3, 0.0586000
553.3, 0.0597720
555.3, 0.0580460
557.3, 0.0582900
559.3, 0.0578940
561.3, 0.0580390
563.3, 0.0569460
565.3, 0.0575330
567.3, 0.0566760
569.3, 0.0578170
571.3, 0.0575740
573.3, 0.0576970
575.3, 0.0579980
577.3, 0.0573340
579.3, 0.0582880
581.3, 0.0586330
583.3, 0.0584410
585.3, 0.0593260
587.3, 0.0583610
589.3, 0.0602520
591.3, 0.0602730
593.3, 0.0614080
595.3, 0.0614560
597.3, 0.0611320
599.3, 0.0628030
601.1, 0.0635510
602.7, 0.0628310
604.3, 0.0665880
605.9, 0.0650030
607.5, 0.0666200
609.1, 0.0698980
610.7, 0.0671130
612.3, 0.0678720
613.9, 0.0657960
615.5, 0.0690060
617.1, 0.0661310
618.7, 0.0675880
620.3, 0.0667980
621.9, 0.0723540
623.5, 0.0669210
625.1, 0.0682280
626.7, 0.0698110
628.3, 0.0667440
629.9, 0.0674030
631.7, 0.0676380
633.7, 0.0676840
635.7, 0.0682870
637.7, 0.0679400
639.7, 0.0686150
641.7, 0.0707010
643.7, 0.0687280
645.7, 0.0689610
647.7, 0.0692680
649.7, 0.0694860
651.7, 0.0727470
653.7, 0.0697390
655.7, 0.0690440
657.7, 0.0707460
659.7, 0.0710170
661.7, 0.0755910
663.7, 0.0719700
665.7, 0.0722470
667.7, 0.0723510
670.2, 0.0732320
673.2, 0.0730050
676.2, 0.0774230
679.2, 0.0732300
682.2, 0.0766600
685.2, 0.0777960
688.2, 0.0784690
691.2, 0.0800080
694.2, 0.0789630
697.2, 0.0827370
700.2, 0.0828860
702.0, 0.0837050
704.0, 0.0843440
706.0, 0.0863450
708.0, 0.0881060
710.0, 0.0885470
712.0, 0.0907420
714.0, 0.0912480
716.0, 0.0917940
718.0, 0.0930830
720.0, 0.0943780
722.0, 0.0952490
724.0, 0.0953540
726.0, 0.0969820
728.0, 0.0984800
730.0, 0.0992040
732.0, 0.0999670
734.0, 0.0996620
736.0, 0.100600
738.0, 0.100471
740.0, 0.101807
742.0, 0.102754
744.0, 0.101703
746.0, 0.102737
748.0, 0.103380
750.5, 0.101339
753.5, 0.102464
756.5, 0.101872
759.5, 0.0994220
762.5, 0.100972
765.5, 0.0989130
768.5, 0.0986250
771.5, 0.0972700
774.5, 0.0963150
777.5, 0.0953460
781.0, 0.0946240
785.0, 0.0927170
789.0, 0.0909130
793.0, 0.0883480
797.0, 0.0887630
801.5, 0.0874040
806.5, 0.0837350
811.5, 0.0851160
816.5, 0.0845150
822.0, 0.0830270
828.0, 0.0816960
835.0, 0.0806320
843.0, 0.0804530
851.0, 0.0852250
859.0, 0.0802290
871.0, 0.0827610
883.0, 0.0807120
894.0, 0.0866380
904.0, 0.0848120
914.0, 0.0914450
924.0, 0.0938270
933.0, 0.0943200
941.0, 0.0954130
949.0, 0.101567
957.0, 0.105601
964.0, 0.111517
970.0, 0.120438
976.0, 0.129195
982.0, 0.136393
988.0, 0.139561
994.0, 0.145899
1000.0, 0.154348
1006.0, 0.162381
1012.0, 0.170832
1018.0, 0.176580
1023.5, 0.182292
1028.5, 0.189330
1033.5, 0.193135
1038.5, 0.202506
1043.5, 0.203322
1048.5, 0.206387
1053.5, 0.215533
1058.5, 0.219130
1063.5, 0.223509
1068.5, 0.227064
1073.5, 0.228161
1078.5, 0.236705
1083.5, 0.238901
1088.5, 0.243256
1093.5, 0.246011
1098.5, 0.249116
1103.5, 0.252864
1108.5, 0.258701
1113.5, 0.260601
1118.5, 0.264203
1123.5, 0.270985
1128.5, 0.270864
1133.5, 0.276259
1138.5, 0.278888
1143.5, 0.282723
1148.5, 0.283665
1153.5, 0.286198
1158.5, 0.291764
1163.5, 0.294414
1168.5, 0.294380
1173.5, 0.297390
1178.5, 0.300402
1183.5, 0.299680
1188.5, 0.307532
1193.5, 0.305241
1198.5, 0.304846
1203.5, 0.305381
1208.5, 0.309499
1213.5, 0.307368
1218.5, 0.307025
1223.5, 0.307160
1228.5, 0.309624
1233.5, 0.309222
1238.5, 0.309582
1243.5, 0.309042
1248.5, 0.310312
1253.5, 0.312569
1258.5, 0.308622
1263.5, 0.309079
1268.5, 0.311766
1273.5, 0.310919
1278.5, 0.310465
1283.5, 0.309222
1288.5, 0.311615
1293.5, 0.309635
1298.5, 0.310236
1303.5, 0.310128
1308.5, 0.311233
1313.5, 0.310093
1318.5, 0.310014
1323.5, 0.310942
1328.5, 0.311704
1333.5, 0.310953
1338.5, 0.308700
1343.5, 0.310238
1348.5, 0.313597
1353.5, 0.311077
1358.5, 0.310574
1363.5, 0.313293
1368.5, 0.311985
1373.5, 0.312390
1378.5, 0.314250
1383.5, 0.313368
1388.5, 0.313129
1393.5, 0.311523
1398.5, 0.312568
1403.5, 0.315242
1408.5, 0.314037
1413.5, 0.313625
1418.5, 0.314175
1423.5, 0.314342
1428.5, 0.313937
1433.5, 0.314137
1438.5, 0.314343
1443.5, 0.317225
1448.5, 0.314135
1453.5, 0.316456
1458.5, 0.316542
1463.5, 0.316991
1468.5, 0.315278
1473.5, 0.318581
1478.5, 0.318817
1483.5, 0.319181
1488.5, 0.316366
1493.5, 0.321901
1498.5, 0.319572
1503.5, 0.318214
1508.5, 0.321321
1513.5, 0.318131
1518.5, 0.325558
1523.5, 0.319444
1528.5, 0.320314
1534.0, 0.323900
1540.0, 0.322147
1546.0, 0.325055
1552.0, 0.322431
1558.0, 0.323617
1564.0, 0.325178
1570.5, 0.326036
1577.5, 0.333215
1584.5, 0.328060
1591.5, 0.328150
1598.5, 0.329600
1605.5, 0.329083
1612.5, 0.330400
1619.5, 0.330940
1626.5, 0.332640
1633.5, 0.333393
1640.5, 0.332857
1647.5, 0.333171
1654.5, 0.334786
1661.5, 0.333801
1668.5, 0.334847
1676.0, 0.337059
1684.0, 0.337182
1692.0, 0.338314
1700.0, 0.341271
1708.0, 0.339253
1716.0, 0.337125
1724.0, 0.340826
1732.0, 0.342790
1740.0, 0.344379
1748.0, 0.344459
1756.0, 0.348918
1764.0, 0.348855
1772.0, 0.349088
1780.0, 0.348802
1788.0, 0.355419
1796.0, 0.350511
1805.0, 0.359322
1815.0, 0.358504
1825.0, 0.354978
1835.0, 0.354944
1845.0, 0.354995
1855.0, 0.358678
1865.0, 0.357162
1875.0, 0.359544
1885.0, 0.362470
1895.0, 0.362487
1905.0, 0.361825
1915.0, 0.361881
1925.0, 0.366657
1935.0, 0.367300
1945.0, 0.368521
1955.0, 0.369020
1965.0, 0.371942
1975.0, 0.375193
1985.0, 0.375749
1995.0, 0.377675
2005.0, 0.375219
2015.0, 0.379557
2025.0, 0.380286
2035.0, 0.383371
2045.0, 0.385291
2055.0, 0.386753
2065.0, 0.384580
2075.0, 0.391043
2085.0, 0.388350
2095.0, 0.392430
2105.0, 0.393381
2115.0, 0.398410
2125.0, 0.398385
2135.0, 0.402794
2145.0, 0.399433
2155.0, 0.403299
2165.0, 0.402930
2175.0, 0.404189
2185.0, 0.405095
2195.0, 0.402505
2205.0, 0.405232
2215.0, 0.408026
2225.0, 0.411233
2235.0, 0.412228
2245.0, 0.411530
2255.0, 0.411967
2265.0, 0.412840
2275.0, 0.414483
2285.0, 0.410350
2295.0, 0.415520
2305.0, 0.423268
2315.0, 0.422171
2325.0, 0.421448
2335.0, 0.424337
2345.0, 0.422504
2355.0, 0.424011
2365.0, 0.427011
2375.0, 0.427193
2386.0, 0.431324
2400.0, 0.429996
2418.0, 0.433781
2440.0, 0.435003
2466.0, 0.436397
2496.0, 0.442051
2528.0, 0.442479
2560.0, 0.444615
2592.0, 0.444079
2624.0, 0.451611
2656.0, 0.447363
2688.0, 0.437023
2720.0, 0.400620
2752.0, 0.343101
2784.0, 0.321860
2816.0, 0.329133
2848.0, 0.301984
2880.0, 0.286980
2912.0, 0.282241
2944.0, 0.286377
2976.0, 0.320538
