Database of Origin,USGS Spectral Database
Sample Description,See USGS database for additional info
Date Added,2017-02-22 02:48:42.256343

Data ID,USGS_tre02          
Sample ID,tremolite_hs18.23065
Mineral Name,tremolite

Wavelength
1378.03, 0.487580
1378.4, 0.486541
1378.76, 0.486021
1379.13, 0.485588
1379.5, 0.484721
1379.87, 0.483595
1380.23, 0.482556
1380.6, 0.481776
1380.97, 0.482296
1381.34, 0.482122
1381.7, 0.482036
1382.07, 0.481949
1382.44, 0.481516
1382.81, 0.481949
1383.18, 0.482556
1383.55, 0.482642
1383.92, 0.482816
1384.29, 0.482122
1384.66, 0.481170
1385.03, 0.481170
1385.4, 0.480910
1385.77, 0.480650
1386.14, 0.479783
1386.51, 0.477791
1386.88, 0.476405
1387.25, 0.475712
1387.62, 0.474065
1387.99, 0.471120
1388.36, 0.468088
1388.74, 0.464796
1389.11, 0.460031
1389.48, 0.451021
1389.85, 0.436899
1390.23, 0.417666
1390.6, 0.389943
1390.97, 0.349398
1391.35, 0.300536
1391.72, 0.258345
1392.09, 0.234694
1392.47, 0.234520
1392.84, 0.248988
1393.21, 0.267788
1393.59, 0.290573
1393.96, 0.317690
1394.34, 0.345153
1394.71, 0.366465
1395.09, 0.378247
1395.46, 0.382926
1395.84, 0.383532
1396.22, 0.386304
1396.59, 0.397307
1396.97, 0.411775
1397.35, 0.423817
1397.72, 0.433520
1398.1, 0.441664
1398.48, 0.447382
1398.85, 0.451887
1399.23, 0.455872
1399.61, 0.459251
1399.99, 0.461763
1400.37, 0.463236
1400.74, 0.463756
1401.12, 0.464362
1401.5, 0.465315
1401.88, 0.466355
1402.26, 0.466528
1402.64, 0.466355
1403.02, 0.466788
1403.4, 0.467654
1403.78, 0.467914
1404.16, 0.467308
1404.54, 0.467135
1404.92, 0.467654
1405.3, 0.468348
1405.68, 0.468261
1406.06, 0.468261
1406.44, 0.467828
1406.83, 0.467395
1407.21, 0.467481
1407.59, 0.467395
1407.97, 0.466961
1408.35, 0.466701
1408.74, 0.467048
1409.12, 0.466528
1409.5, 0.465922
1409.89, 0.466528
1410.27, 0.466701
1410.65, 0.466788
1411.04, 0.466008
1411.42, 0.465142
1411.81, 0.465055
1412.19, 0.465662
1412.58, 0.465575
1412.96, 0.465402
1413.35, 0.465315
1413.73, 0.464709
1414.12, 0.464189
1414.5, 0.463929
1414.89, 0.464189
1415.28, 0.464709
1415.66, 0.464536
1416.05, 0.463323
1416.44, 0.463323
1416.82, 0.463496
1417.21, 0.463323
1417.6, 0.463149
1417.98, 0.463063
1418.37, 0.462890
1418.76, 0.462370
1419.15, 0.462370
1419.54, 0.462630
1419.93, 0.462456
1420.32, 0.461590
1420.71, 0.461070
1421.09, 0.461417
1421.48, 0.461157
1421.88, 0.460464
1422.27, 0.459944
1422.66, 0.460377
1423.05, 0.460204
1423.44, 0.459944
1423.83, 0.459944
1424.22, 0.460290
1424.61, 0.460204
1425.0, 0.459944
1425.39, 0.459944
1425.78, 0.459597
1426.18, 0.459164
1426.57, 0.458731
1426.96, 0.458558
1427.36, 0.458385
1427.75, 0.458211
1428.14, 0.458038
1428.54, 0.457865
1428.93, 0.458038
1429.32, 0.457691
1429.72, 0.457085
1430.11, 0.457345
1430.51, 0.457432
1430.9, 0.457605
1431.3, 0.457085
1431.69, 0.456305
1432.09, 0.456219
1432.48, 0.456565
1432.88, 0.456565
1433.28, 0.455872
1433.67, 0.455612
1434.07, 0.455872
1434.46, 0.456132
1434.86, 0.456045
1435.26, 0.455785
1435.66, 0.455612
1436.05, 0.455266
1436.45, 0.454833
1436.85, 0.454659
1437.25, 0.454313
1437.65, 0.454313
1438.05, 0.454399
1438.44, 0.454573
1438.84, 0.454399
1439.24, 0.454053
1439.64, 0.453966
1440.04, 0.453273
1440.44, 0.453273
1440.84, 0.453706
1441.24, 0.453360
1441.65, 0.453186
1442.05, 0.453100
1442.45, 0.452667
1442.85, 0.452840
1443.25, 0.453100
1443.65, 0.452580
1444.05, 0.452233
1444.46, 0.452147
1444.86, 0.451974
1445.26, 0.451281
1445.67, 0.451021
1446.07, 0.451800
1446.47, 0.452233
1446.88, 0.451714
1447.28, 0.451194
1447.68, 0.451281
1448.09, 0.450847
1448.49, 0.450587
1448.9, 0.450501
1449.3, 0.450068
1449.71, 0.449981
1450.11, 0.449894
1450.52, 0.449461
1450.93, 0.449894
1451.33, 0.449808
1451.74, 0.449461
1452.14, 0.449375
1452.55, 0.449721
1452.96, 0.449981
1453.36, 0.449808
1453.77, 0.449461
1454.18, 0.449375
1454.59, 0.448855
1455.0, 0.448768
1455.41, 0.448855
1455.81, 0.448941
1456.22, 0.449201
1456.63, 0.448941
1457.04, 0.448855
1457.45, 0.449115
1457.86, 0.448595
1458.27, 0.447815
1458.68, 0.447295
1459.09, 0.447295
1459.5, 0.447988
1459.91, 0.448075
1460.32, 0.447728
1460.74, 0.447122
1461.15, 0.447209
1461.56, 0.447209
1461.97, 0.447122
1462.39, 0.447035
1462.8, 0.446429
1463.21, 0.446169
1463.62, 0.446342
1464.04, 0.446256
1464.45, 0.446949
1464.86, 0.447382
1465.28, 0.447209
1465.69, 0.446689
1466.11, 0.446342
1466.52, 0.446862
1466.94, 0.446689
1467.35, 0.446342
1467.77, 0.446256
1468.18, 0.445822
1468.6, 0.445476
1469.02, 0.445216
1469.43, 0.445129
1469.85, 0.445043
1470.27, 0.445043
1470.68, 0.445303
1471.1, 0.445563
1471.52, 0.445822
1471.94, 0.445909
1472.35, 0.445389
1472.77, 0.445043
1473.19, 0.444869
1473.61, 0.445043
1474.03, 0.445476
1474.45, 0.445389
1474.87, 0.445476
1475.29, 0.445216
1475.71, 0.444869
1476.13, 0.445129
1476.55, 0.445822
1476.97, 0.446169
1477.39, 0.445822
1477.81, 0.445216
1478.23, 0.444956
1478.65, 0.445476
1479.07, 0.445303
1479.5, 0.445303
1479.92, 0.445216
1480.34, 0.444956
1480.76, 0.444956
1481.19, 0.445129
1481.61, 0.445216
1482.03, 0.445043
1482.46, 0.445216
1482.88, 0.445303
1483.31, 0.445909
1483.73, 0.446256
1484.16, 0.445736
1484.58, 0.445389
1485.01, 0.445129
1485.43, 0.444869
1485.86, 0.445303
1486.28, 0.445649
1486.71, 0.445909
1487.14, 0.445909
1487.56, 0.445909
1487.99, 0.445996
1488.42, 0.445996
1488.84, 0.445909
1489.27, 0.446169
1489.7, 0.446082
1490.13, 0.445996
1490.56, 0.445822
1490.98, 0.445563
1491.41, 0.445822
1491.84, 0.446082
1492.27, 0.445822
1492.7, 0.445996
1493.13, 0.446256
1493.56, 0.445996
1493.99, 0.445996
1494.42, 0.446169
1494.85, 0.446082
1495.29, 0.445996
1495.72, 0.446169
1496.15, 0.446082
1496.58, 0.446082
1497.01, 0.445996
1497.44, 0.446256
1497.88, 0.445996
1498.31, 0.445649
1498.74, 0.445736
1499.18, 0.445822
1499.61, 0.446256
1500.04, 0.446516
1500.48, 0.446429
1500.91, 0.446516
1501.35, 0.446429
1501.78, 0.446342
1502.22, 0.446342
1502.65, 0.446516
1503.09, 0.446689
1503.53, 0.446602
1503.96, 0.446342
1504.4, 0.446516
1504.83, 0.447035
1505.27, 0.447642
1505.71, 0.447295
1506.15, 0.446342
1506.58, 0.446256
1507.02, 0.446516
1507.46, 0.446775
1507.9, 0.446775
1508.34, 0.446689
1508.78, 0.446949
1509.21, 0.447295
1509.66, 0.447209
1510.09, 0.447295
1510.53, 0.447295
1510.97, 0.447295
1511.42, 0.447642
1511.86, 0.447642
1512.3, 0.447728
1512.74, 0.447209
1513.18, 0.447035
1513.62, 0.447295
1514.06, 0.447555
1514.51, 0.447555
1514.95, 0.447815
1515.39, 0.447902
1515.83, 0.447555
1516.28, 0.447555
1516.72, 0.448075
1517.16, 0.448508
1517.61, 0.448508
1518.05, 0.448508
1518.5, 0.448335
1518.94, 0.448075
1519.39, 0.447902
1519.83, 0.448075
1520.28, 0.448595
1520.73, 0.448681
1521.17, 0.448335
1521.62, 0.448248
1522.07, 0.448422
1522.51, 0.448248
1522.96, 0.448335
1523.41, 0.448681
1523.85, 0.448595
1524.3, 0.448508
1524.75, 0.448595
1525.2, 0.448335
1525.65, 0.448075
1526.1, 0.448248
1526.55, 0.448508
1527.0, 0.448855
1527.45, 0.449028
1527.9, 0.448855
1528.35, 0.449028
1528.8, 0.449288
1529.25, 0.449548
1529.7, 0.449461
1530.15, 0.449548
1530.6, 0.449201
1531.05, 0.449115
1531.51, 0.449461
1531.96, 0.449548
1532.41, 0.449288
1532.87, 0.449548
1533.32, 0.449634
1533.77, 0.449548
1534.23, 0.449721
1534.68, 0.449894
1535.14, 0.450241
1535.59, 0.450761
1536.05, 0.451107
1536.5, 0.451540
1536.96, 0.451281
1537.41, 0.450847
1537.87, 0.451107
1538.32, 0.450847
1538.78, 0.451021
1539.24, 0.451887
1539.7, 0.452320
1540.15, 0.452233
1540.61, 0.452147
1541.07, 0.451974
1541.53, 0.451887
1541.98, 0.451974
1542.44, 0.452320
1542.9, 0.452840
1543.36, 0.453273
1543.82, 0.453100
1544.28, 0.453273
1544.74, 0.453186
1545.2, 0.453186
1545.66, 0.453446
1546.12, 0.453533
1546.59, 0.453620
1547.05, 0.453620
1547.51, 0.453793
1547.97, 0.453880
1548.43, 0.453880
1548.9, 0.453966
1549.36, 0.454226
1549.82, 0.454399
1550.29, 0.454746
1550.75, 0.454746
1551.21, 0.454486
1551.68, 0.454746
1552.14, 0.455352
1552.61, 0.455785
1553.07, 0.455612
1553.54, 0.455179
1554.0, 0.455352
1554.47, 0.455699
1554.93, 0.456045
1555.4, 0.455959
1555.87, 0.455959
1556.34, 0.455959
1556.8, 0.456132
1557.27, 0.456652
1557.74, 0.457085
1558.21, 0.456912
1558.68, 0.456998
1559.14, 0.457345
1559.61, 0.457691
1560.08, 0.457691
1560.55, 0.457518
1561.02, 0.457432
1561.49, 0.457605
1561.96, 0.457518
1562.43, 0.457605
1562.9, 0.457951
1563.38, 0.458385
1563.85, 0.458211
1564.32, 0.458038
1564.79, 0.457778
1565.26, 0.458038
1565.74, 0.458298
1566.21, 0.458471
1566.68, 0.458904
1567.16, 0.459251
1567.63, 0.458818
1568.1, 0.458644
1568.58, 0.458904
1569.05, 0.459251
1569.53, 0.459164
1570.0, 0.459164
1570.48, 0.459424
1570.96, 0.459771
1571.43, 0.460117
1571.91, 0.460204
1572.39, 0.459944
1572.86, 0.459597
1573.34, 0.459857
1573.82, 0.459944
1574.3, 0.460290
1574.77, 0.460204
1575.25, 0.459857
1575.73, 0.460031
1576.21, 0.460031
1576.69, 0.460464
1577.17, 0.460897
1577.65, 0.461243
1578.13, 0.461330
1578.61, 0.461330
1579.09, 0.461503
1579.57, 0.461330
1580.05, 0.461070
1580.54, 0.461417
1581.02, 0.461937
1581.5, 0.462110
1581.98, 0.461937
1582.47, 0.461763
1582.95, 0.462023
1583.43, 0.462283
1583.92, 0.462110
1584.4, 0.462023
1584.88, 0.462196
1585.37, 0.462196
1585.85, 0.462370
1586.34, 0.462716
1586.82, 0.462630
1587.31, 0.462716
1587.8, 0.462976
1588.28, 0.463063
1588.77, 0.462976
1589.26, 0.462803
1589.74, 0.463063
1590.23, 0.463149
1590.72, 0.463063
1591.21, 0.463236
1591.7, 0.463409
1592.19, 0.463756
1592.67, 0.463929
1593.16, 0.464102
1593.65, 0.464449
1594.14, 0.464536
1594.63, 0.464189
1595.12, 0.464189
1595.61, 0.464362
1596.11, 0.464796
1596.6, 0.465055
1597.09, 0.464969
1597.58, 0.465055
1598.08, 0.465315
1598.57, 0.465835
1599.06, 0.466008
1599.55, 0.466095
1600.05, 0.465922
1600.54, 0.465749
1601.04, 0.465835
1601.53, 0.466008
1602.03, 0.466268
1602.52, 0.466355
1603.02, 0.466615
1603.51, 0.466701
1604.01, 0.467221
1604.5, 0.467308
1605.0, 0.467395
1605.5, 0.467481
1606.0, 0.467741
1606.49, 0.468088
1606.99, 0.468088
1607.49, 0.468001
1607.99, 0.468174
1608.49, 0.468348
1608.99, 0.468261
1609.49, 0.468521
1609.99, 0.469214
1610.49, 0.469387
1610.99, 0.469301
1611.49, 0.469474
1611.99, 0.469474
1612.49, 0.469041
1612.99, 0.469301
1613.49, 0.469820
1614.0, 0.469907
1614.5, 0.469820
1615.0, 0.469560
1615.51, 0.469907
1616.01, 0.470340
1616.51, 0.470687
1617.02, 0.470947
1617.52, 0.470427
1618.03, 0.470687
1618.53, 0.471293
1619.04, 0.471293
1619.54, 0.471293
1620.05, 0.471380
1620.55, 0.471466
1621.06, 0.471726
1621.57, 0.471900
1622.08, 0.471900
1622.58, 0.471466
1623.09, 0.471813
1623.6, 0.472073
1624.11, 0.472159
1624.62, 0.472159
1625.13, 0.472246
1625.64, 0.472333
1626.15, 0.472593
1626.66, 0.472593
1627.17, 0.472766
1627.68, 0.472766
1628.19, 0.473199
1628.7, 0.473286
1629.21, 0.473372
1629.72, 0.473546
1630.24, 0.473286
1630.75, 0.473199
1631.26, 0.473459
1631.78, 0.473459
1632.29, 0.473546
1632.8, 0.473546
1633.32, 0.473632
1633.83, 0.473892
1634.35, 0.474065
1634.86, 0.474325
1635.38, 0.474499
1635.9, 0.474672
1636.41, 0.474672
1636.93, 0.474239
1637.45, 0.474239
1637.96, 0.474672
1638.48, 0.474759
1639.0, 0.474672
1639.52, 0.474672
1640.04, 0.474845
1640.56, 0.474932
1641.08, 0.475192
1641.59, 0.475365
1642.11, 0.475452
1642.63, 0.475192
1643.16, 0.475105
1643.68, 0.475365
1644.2, 0.475538
1644.72, 0.475625
1645.24, 0.475712
1645.76, 0.475798
1646.29, 0.475712
1646.81, 0.475625
1647.33, 0.475885
1647.86, 0.476231
1648.38, 0.476231
1648.9, 0.476231
1649.43, 0.476145
1649.95, 0.476145
1650.48, 0.476491
1651.0, 0.476838
1651.53, 0.476924
1652.06, 0.476664
1652.58, 0.476664
1653.11, 0.476751
1653.64, 0.476924
1654.17, 0.477444
1654.69, 0.477444
1655.22, 0.477271
1655.75, 0.477358
1656.28, 0.477617
1656.81, 0.477877
1657.34, 0.477964
1657.87, 0.477791
1658.4, 0.477791
1658.93, 0.477704
1659.46, 0.477964
1659.99, 0.478224
1660.52, 0.478051
1661.05, 0.477964
1661.59, 0.478051
1662.12, 0.478224
1662.65, 0.478397
1663.19, 0.478570
1663.72, 0.478570
1664.26, 0.478917
1664.79, 0.479523
1665.32, 0.479523
1665.86, 0.479350
1666.39, 0.479350
1666.93, 0.479783
1667.47, 0.479783
1668.0, 0.479870
1668.54, 0.480043
1669.08, 0.480043
1669.61, 0.480130
1670.15, 0.480130
1670.69, 0.480390
1671.23, 0.480736
1671.77, 0.480996
1672.31, 0.481083
1672.85, 0.480996
1673.39, 0.481256
1673.93, 0.481429
1674.47, 0.481429
1675.01, 0.481689
1675.55, 0.481516
1676.09, 0.481603
1676.64, 0.481776
1677.18, 0.481776
1677.72, 0.482122
1678.26, 0.482469
1678.81, 0.482469
1679.35, 0.482469
1679.89, 0.482989
1680.44, 0.482902
1680.98, 0.482382
1681.53, 0.482556
1682.07, 0.483075
1682.62, 0.483422
1683.17, 0.483422
1683.71, 0.483509
1684.26, 0.483509
1684.81, 0.483682
1685.36, 0.483682
1685.9, 0.483595
1686.45, 0.483335
1687.0, 0.483595
1687.55, 0.484115
1688.1, 0.484462
1688.65, 0.484635
1689.2, 0.484462
1689.75, 0.484462
1690.3, 0.484808
1690.85, 0.484895
1691.41, 0.484635
1691.96, 0.484808
1692.51, 0.485155
1693.06, 0.484981
1693.61, 0.484808
1694.17, 0.484981
1694.72, 0.485155
1695.28, 0.485415
1695.83, 0.485415
1696.39, 0.485761
1696.94, 0.486108
1697.5, 0.485761
1698.05, 0.485934
1698.61, 0.486108
1699.17, 0.485934
1699.72, 0.485848
1700.28, 0.485761
1700.84, 0.486108
1701.4, 0.486108
1701.95, 0.486108
1702.51, 0.486281
1703.07, 0.486368
1703.63, 0.486281
1704.19, 0.486281
1704.75, 0.486541
1705.31, 0.486541
1705.88, 0.486714
1706.44, 0.486801
1707.0, 0.486801
1707.56, 0.486801
1708.12, 0.486887
1708.69, 0.486887
1709.25, 0.486627
1709.81, 0.486454
1710.38, 0.486541
1710.94, 0.486974
1711.51, 0.487234
1712.07, 0.487234
1712.64, 0.487147
1713.2, 0.486974
1713.77, 0.486974
1714.34, 0.487147
1714.9, 0.487321
1715.47, 0.487667
1716.04, 0.487667
1716.61, 0.487754
1717.18, 0.487927
1717.74, 0.487667
1718.31, 0.487234
1718.88, 0.487234
1719.45, 0.487407
1720.02, 0.487754
1720.59, 0.487840
1721.17, 0.488014
1721.74, 0.488100
1722.31, 0.488274
1722.88, 0.488187
1723.45, 0.488014
1724.03, 0.488100
1724.6, 0.488187
1725.18, 0.488187
1725.75, 0.488447
1726.33, 0.488447
1726.9, 0.488533
1727.48, 0.488447
1728.05, 0.488447
1728.63, 0.488793
1729.2, 0.488793
1729.78, 0.488620
1730.36, 0.488967
1730.94, 0.489140
1731.51, 0.489053
1732.09, 0.489140
1732.67, 0.489053
1733.25, 0.489140
1733.83, 0.489140
1734.41, 0.489313
1734.99, 0.489486
1735.57, 0.489486
1736.15, 0.489746
1736.73, 0.490006
1737.32, 0.489833
1737.9, 0.489660
1738.48, 0.489660
1739.07, 0.489920
1739.65, 0.490006
1740.23, 0.490439
1740.82, 0.490699
1741.4, 0.490699
1741.99, 0.490699
1742.57, 0.490613
1743.16, 0.490526
1743.74, 0.490786
1744.33, 0.490873
1744.92, 0.491046
1745.51, 0.491219
1746.09, 0.491479
1746.68, 0.491652
1747.27, 0.491566
1747.86, 0.491479
1748.45, 0.491392
1749.04, 0.491479
1749.63, 0.491652
1750.22, 0.492172
1750.81, 0.492432
1751.4, 0.492086
1751.99, 0.491999
1752.59, 0.492345
1753.18, 0.492692
1753.77, 0.492605
1754.37, 0.492432
1754.96, 0.492952
1755.56, 0.493212
1756.15, 0.492952
1756.74, 0.492779
1757.34, 0.493212
1757.94, 0.492952
1758.53, 0.492779
1759.13, 0.493038
1759.73, 0.492952
1760.32, 0.492865
1760.92, 0.493125
1761.52, 0.493472
1762.12, 0.493645
1762.72, 0.493645
1763.32, 0.493818
1763.92, 0.493645
1764.52, 0.493558
1765.12, 0.493905
1765.72, 0.494511
1766.32, 0.494598
1766.92, 0.494338
1767.53, 0.494425
1768.13, 0.494598
1768.73, 0.494338
1769.34, 0.494251
1769.94, 0.494425
1770.55, 0.494425
1771.15, 0.494598
1771.76, 0.494685
1772.36, 0.494598
1772.97, 0.494425
1773.57, 0.494771
1774.18, 0.495031
1774.79, 0.494858
1775.4, 0.495031
1776.0, 0.495118
1776.61, 0.495118
1777.22, 0.494771
1777.83, 0.494425
1778.44, 0.494771
1779.05, 0.495118
1779.66, 0.495118
1780.27, 0.495118
1780.88, 0.494858
1781.5, 0.494685
1782.11, 0.494944
1782.72, 0.495204
1783.33, 0.495291
1783.95, 0.495118
1784.56, 0.494944
1785.18, 0.495204
1785.79, 0.495378
1786.41, 0.495118
1787.02, 0.495118
1787.64, 0.495378
1788.26, 0.495464
1788.87, 0.495551
1789.49, 0.495291
1790.11, 0.495204
1790.73, 0.495204
1791.35, 0.495378
1791.96, 0.495204
1792.58, 0.495118
1793.21, 0.495204
1793.83, 0.495204
1794.45, 0.495204
1795.07, 0.494944
1795.69, 0.494944
1796.31, 0.495291
1796.93, 0.495724
1797.56, 0.495724
1798.18, 0.495378
1798.8, 0.495464
1799.43, 0.495291
1800.05, 0.495031
1800.68, 0.495031
1801.3, 0.494858
1801.93, 0.495031
1802.56, 0.495204
1803.18, 0.495204
1803.81, 0.495638
1804.44, 0.495638
1805.07, 0.495464
1805.7, 0.495464
1806.33, 0.495638
1806.95, 0.495811
1807.58, 0.495551
1808.22, 0.495291
1808.85, 0.495378
1809.48, 0.495551
1810.11, 0.495378
1810.74, 0.495378
1811.38, 0.495551
1812.01, 0.495551
1812.64, 0.495724
1813.28, 0.495811
1813.91, 0.495897
1814.55, 0.495551
1815.18, 0.495464
1815.82, 0.495551
1816.45, 0.495724
1817.09, 0.495551
1817.73, 0.495638
1818.36, 0.495811
1819.0, 0.495811
1819.64, 0.495897
1820.28, 0.495984
1820.92, 0.495984
1821.56, 0.495984
1822.2, 0.496071
1822.84, 0.495984
1823.48, 0.496331
1824.12, 0.496244
1824.76, 0.496244
1825.41, 0.496071
1826.05, 0.495811
1826.69, 0.496244
1827.34, 0.496677
1827.98, 0.496504
1828.63, 0.496244
1829.27, 0.496677
1829.92, 0.496677
1830.56, 0.496331
1831.21, 0.496417
1831.86, 0.496244
1832.5, 0.496504
1833.15, 0.496937
1833.8, 0.496850
1834.45, 0.496590
1835.1, 0.496764
1835.75, 0.496677
1836.4, 0.496764
1837.05, 0.497024
1837.7, 0.497197
1838.35, 0.497457
1839.01, 0.497024
1839.66, 0.496590
1840.31, 0.496937
1840.96, 0.497110
1841.62, 0.496677
1842.27, 0.497024
1842.93, 0.497543
1843.58, 0.497630
1844.24, 0.497803
1844.9, 0.497630
1845.55, 0.497284
1846.21, 0.496850
1846.87, 0.496764
1847.53, 0.496850
1848.18, 0.496764
1848.84, 0.497457
1849.5, 0.497803
1850.16, 0.498063
1850.82, 0.498063
1851.48, 0.497543
1852.14, 0.497370
1852.81, 0.497717
1853.47, 0.497284
1854.13, 0.497197
1854.8, 0.497543
1855.46, 0.497717
1856.12, 0.497370
1856.79, 0.497543
1857.45, 0.497890
1858.12, 0.497717
1858.79, 0.497543
1859.45, 0.497284
1860.12, 0.497370
1860.79, 0.497630
1861.46, 0.497803
1862.12, 0.498063
1862.79, 0.498150
1863.46, 0.497890
1864.13, 0.497890
1864.8, 0.497977
1865.48, 0.497890
1866.15, 0.497630
1866.82, 0.497110
1867.49, 0.496764
1868.16, 0.497110
1868.84, 0.497284
1869.51, 0.496937
1870.19, 0.496417
1870.86, 0.496244
1871.54, 0.497110
1872.21, 0.497024
1872.89, 0.496417
1873.56, 0.496677
1874.24, 0.496850
1874.92, 0.496850
1875.6, 0.496937
1876.28, 0.496504
1876.96, 0.496244
1877.64, 0.496417
1878.32, 0.496677
1879.0, 0.496850
1879.68, 0.496677
1880.36, 0.496417
1881.04, 0.496590
1881.73, 0.496244
1882.41, 0.496071
1883.09, 0.495984
1883.78, 0.495811
1884.46, 0.495897
1885.15, 0.495897
1885.83, 0.495638
1886.52, 0.495638
1887.21, 0.495811
1887.89, 0.495638
1888.58, 0.495118
1889.27, 0.494771
1889.96, 0.494685
1890.65, 0.494771
1891.34, 0.494425
1892.03, 0.494078
1892.72, 0.494165
1893.41, 0.494078
1894.1, 0.494165
1894.79, 0.494251
1895.49, 0.493991
1896.18, 0.493558
1896.87, 0.493298
1897.57, 0.492952
1898.26, 0.492692
1898.96, 0.492259
1899.65, 0.492086
1900.35, 0.492086
1901.05, 0.492086
1901.74, 0.491999
1902.44, 0.491306
1903.14, 0.491219
1903.84, 0.491739
1904.54, 0.491566
1905.24, 0.491306
1905.94, 0.491306
1906.64, 0.491132
1907.34, 0.491392
1908.04, 0.491566
1908.75, 0.491739
1909.45, 0.491739
1910.15, 0.491826
1910.86, 0.491999
1911.56, 0.492432
1912.27, 0.492519
1912.97, 0.492086
1913.68, 0.492086
1914.39, 0.492605
1915.09, 0.492692
1915.8, 0.492519
1916.51, 0.492605
1917.22, 0.493038
1917.93, 0.493212
1918.64, 0.493645
1919.35, 0.493558
1920.06, 0.493125
1920.77, 0.493125
1921.48, 0.493645
1922.19, 0.493905
1922.91, 0.494165
1923.62, 0.493818
1924.33, 0.493905
1925.05, 0.494078
1925.76, 0.494078
1926.48, 0.494078
1927.19, 0.494511
1927.91, 0.494511
1928.63, 0.494598
1929.35, 0.494598
1930.07, 0.494598
1930.78, 0.494598
1931.5, 0.494771
1932.22, 0.494771
1932.94, 0.494771
1933.66, 0.495031
1934.39, 0.495291
1935.11, 0.495378
1935.83, 0.495378
1936.55, 0.495378
1937.28, 0.495378
1938.0, 0.495291
1938.73, 0.495291
1939.45, 0.495638
1940.18, 0.495638
1940.9, 0.495378
1941.63, 0.495811
1942.36, 0.495897
1943.09, 0.495464
1943.81, 0.495204
1944.54, 0.495204
1945.27, 0.495464
1946.0, 0.495638
1946.73, 0.495724
1947.47, 0.495811
1948.2, 0.495378
1948.93, 0.495118
1949.66, 0.495291
1950.4, 0.495464
1951.13, 0.495551
1951.86, 0.495378
1952.6, 0.495378
1953.34, 0.495551
1954.07, 0.495551
1954.81, 0.495204
1955.55, 0.495118
1956.29, 0.494858
1957.02, 0.494685
1957.76, 0.494771
1958.5, 0.494771
1959.24, 0.494771
1959.98, 0.494771
1960.72, 0.494598
1961.47, 0.494338
1962.21, 0.494425
1962.95, 0.494511
1963.7, 0.494165
1964.44, 0.493905
1965.18, 0.493472
1965.93, 0.493385
1966.67, 0.493385
1967.42, 0.493038
1968.17, 0.492605
1968.92, 0.492779
1969.66, 0.492779
1970.41, 0.492519
1971.16, 0.492519
1971.91, 0.492519
1972.66, 0.492086
1973.41, 0.491739
1974.16, 0.491652
1974.92, 0.491826
1975.67, 0.492086
1976.42, 0.491652
1977.18, 0.491392
1977.93, 0.491306
1978.69, 0.491219
1979.44, 0.490873
1980.2, 0.490699
1980.95, 0.490699
1981.71, 0.490699
1982.47, 0.490526
1983.23, 0.490353
1983.99, 0.490093
1984.74, 0.490006
1985.51, 0.489746
1986.27, 0.489660
1987.03, 0.489660
1987.79, 0.489660
1988.55, 0.489573
1989.32, 0.489313
1990.08, 0.488967
1990.84, 0.488793
1991.61, 0.488793
1992.37, 0.488793
1993.14, 0.488620
1993.9, 0.488880
1994.67, 0.489140
1995.44, 0.488793
1996.21, 0.488707
1996.98, 0.488967
1997.75, 0.489053
1998.52, 0.488967
1999.29, 0.489053
2000.06, 0.489053
2000.83, 0.489053
2001.6, 0.489053
2002.38, 0.489053
2003.15, 0.489053
2003.93, 0.488967
2004.7, 0.488793
2005.48, 0.488967
2006.25, 0.489313
2007.03, 0.489486
2007.81, 0.489227
2008.58, 0.489053
2009.36, 0.489227
2010.14, 0.489400
2010.92, 0.489573
2011.7, 0.490006
2012.48, 0.490266
2013.26, 0.490353
2014.05, 0.490699
2014.83, 0.490959
2015.61, 0.491392
2016.4, 0.491566
2017.18, 0.491392
2017.97, 0.491652
2018.75, 0.491912
2019.54, 0.492172
2020.32, 0.492432
2021.11, 0.492259
2021.9, 0.492172
2022.69, 0.492432
2023.48, 0.492865
2024.27, 0.493212
2025.06, 0.493212
2025.85, 0.493212
2026.64, 0.493385
2027.44, 0.493472
2028.23, 0.493731
2029.02, 0.493905
2029.82, 0.493905
2030.61, 0.493731
2031.41, 0.493731
2032.2, 0.493991
2033.0, 0.494078
2033.8, 0.493645
2034.6, 0.493385
2035.4, 0.493558
2036.2, 0.493645
2037.0, 0.493385
2037.8, 0.492952
2038.6, 0.492952
2039.4, 0.493212
2040.2, 0.493038
2041.01, 0.492605
2041.81, 0.492086
2042.61, 0.492086
2043.42, 0.492259
2044.22, 0.491999
2045.03, 0.491739
2045.84, 0.491392
2046.65, 0.491479
2047.46, 0.491046
2048.26, 0.490439
2049.07, 0.490180
2049.88, 0.490093
2050.69, 0.490093
2051.51, 0.489833
2052.32, 0.489573
2053.13, 0.489227
2053.94, 0.489227
2054.76, 0.489140
2055.57, 0.488967
2056.39, 0.488793
2057.2, 0.488793
2058.02, 0.488967
2058.84, 0.489140
2059.66, 0.489140
2060.48, 0.489053
2061.29, 0.488967
2062.11, 0.488967
2062.94, 0.488880
2063.76, 0.488793
2064.58, 0.488707
2065.4, 0.488274
2066.22, 0.487840
2067.05, 0.487754
2067.87, 0.487494
2068.7, 0.487407
2069.52, 0.487061
2070.35, 0.486541
2071.18, 0.486541
2072.0, 0.486194
2072.83, 0.485761
2073.66, 0.485674
2074.49, 0.485241
2075.32, 0.484808
2076.15, 0.484635
2076.98, 0.484462
2077.82, 0.484635
2078.65, 0.484462
2079.48, 0.484115
2080.32, 0.483855
2081.15, 0.483595
2081.99, 0.483162
2082.83, 0.482642
2083.66, 0.482209
2084.5, 0.481863
2085.34, 0.481603
2086.18, 0.481083
2087.02, 0.480996
2087.86, 0.480823
2088.7, 0.480736
2089.54, 0.481083
2090.39, 0.481170
2091.23, 0.480910
2092.07, 0.480910
2092.92, 0.481083
2093.76, 0.481256
2094.61, 0.481256
2095.45, 0.481170
2096.3, 0.481170
2097.15, 0.481170
2098.0, 0.480996
2098.85, 0.480996
2099.7, 0.480476
2100.55, 0.479870
2101.4, 0.479697
2102.25, 0.479350
2103.1, 0.478570
2103.96, 0.477358
2104.81, 0.476231
2105.67, 0.474672
2106.52, 0.472853
2107.38, 0.470513
2108.24, 0.468001
2109.09, 0.465975
2109.95, 0.466300
2110.81, 0.466543
2111.67, 0.466300
2112.53, 0.467353
2113.39, 0.468082
2114.25, 0.468325
2115.12, 0.468811
2115.98, 0.469865
2116.84, 0.470270
2117.71, 0.470351
2118.58, 0.469622
2119.44, 0.468811
2120.31, 0.469216
2121.18, 0.470270
2122.04, 0.470756
2122.91, 0.471080
2123.78, 0.470837
2124.65, 0.471242
2125.52, 0.472133
2126.4, 0.471890
2127.27, 0.470675
2128.14, 0.469784
2129.02, 0.469135
2129.89, 0.468730
2130.77, 0.468973
2131.64, 0.469946
2132.52, 0.470513
2133.4, 0.471890
2134.27, 0.472944
2135.15, 0.473187
2136.03, 0.473592
2136.91, 0.474321
2137.79, 0.474402
2138.68, 0.475374
2139.56, 0.475779
2140.44, 0.475698
2141.33, 0.475131
2142.21, 0.474888
2143.1, 0.474969
2143.99, 0.475050
2144.87, 0.475293
2145.76, 0.475374
2146.65, 0.475212
2147.54, 0.475455
2148.43, 0.476509
2149.32, 0.477562
2150.21, 0.477967
2151.1, 0.478210
2151.99, 0.478777
2152.89, 0.478453
2153.78, 0.477886
2154.68, 0.478048
2155.57, 0.478129
2156.47, 0.478615
2157.37, 0.478696
2158.27, 0.479101
2159.16, 0.479020
2160.06, 0.478858
2160.96, 0.478696
2161.86, 0.478696
2162.77, 0.479020
2163.67, 0.479101
2164.57, 0.479345
2165.48, 0.480236
2166.38, 0.480884
2167.29, 0.480722
2168.2, 0.480560
2169.1, 0.480641
2170.01, 0.480236
2170.92, 0.480560
2171.83, 0.480722
2172.74, 0.479507
2173.65, 0.478615
2174.56, 0.478534
2175.47, 0.478615
2176.39, 0.478615
2177.3, 0.478210
2178.22, 0.478210
2179.13, 0.478372
2180.05, 0.478777
2180.96, 0.478939
2181.88, 0.478777
2182.8, 0.478858
2183.72, 0.478696
2184.64, 0.477886
2185.56, 0.477805
2186.48, 0.478129
2187.41, 0.478291
2188.33, 0.477886
2189.25, 0.478048
2190.18, 0.478129
2191.1, 0.477724
2192.03, 0.477805
2192.96, 0.477805
2193.89, 0.477562
2194.82, 0.478048
2195.74, 0.478372
2196.68, 0.478210
2197.61, 0.477400
2198.54, 0.477157
2199.47, 0.477076
2200.4, 0.477562
2201.34, 0.477805
2202.28, 0.477481
2203.21, 0.476671
2204.15, 0.476185
2205.08, 0.476023
2206.02, 0.475698
2206.96, 0.475455
2207.9, 0.475374
2208.84, 0.475293
2209.78, 0.475536
2210.73, 0.475617
2211.67, 0.475455
2212.61, 0.475698
2213.56, 0.475536
2214.5, 0.474807
2215.45, 0.474807
2216.4, 0.474807
2217.35, 0.474321
2218.3, 0.473754
2219.24, 0.473916
2220.2, 0.473592
2221.15, 0.473025
2222.1, 0.472700
2223.05, 0.473187
2224.0, 0.472863
2224.96, 0.472538
2225.91, 0.472295
2226.87, 0.471566
2227.83, 0.470432
2228.79, 0.469784
2229.74, 0.469703
2230.7, 0.469865
2231.66, 0.469054
2232.63, 0.467920
2233.59, 0.467272
2234.55, 0.466543
2235.51, 0.464598
2236.48, 0.463140
2237.44, 0.462167
2238.41, 0.460952
2239.38, 0.459412
2240.34, 0.458278
2241.31, 0.456739
2242.28, 0.455523
2243.25, 0.454065
2244.22, 0.452849
2245.19, 0.452768
2246.17, 0.453173
2247.14, 0.453579
2248.12, 0.454389
2249.09, 0.455118
2250.07, 0.455037
2251.04, 0.455118
2252.02, 0.455361
2253.0, 0.454713
2253.98, 0.453984
2254.96, 0.452768
2255.94, 0.451553
2256.92, 0.449770
2257.91, 0.447178
2258.89, 0.444504
2259.88, 0.441344
2260.86, 0.437536
2261.85, 0.433241
2262.83, 0.428461
2263.82, 0.423356
2264.81, 0.418009
2265.8, 0.412985
2266.79, 0.408367
2267.78, 0.403505
2268.78, 0.399454
2269.77, 0.396699
2270.76, 0.394268
2271.76, 0.392486
2272.75, 0.390379
2273.75, 0.388110
2274.75, 0.385761
2275.75, 0.383006
2276.75, 0.380089
2277.75, 0.376929
2278.75, 0.372635
2279.75, 0.368340
2280.75, 0.363965
2281.76, 0.359508
2282.76, 0.354809
2283.77, 0.350272
2284.77, 0.345815
2285.78, 0.341116
2286.79, 0.335525
2287.8, 0.329772
2288.81, 0.322561
2289.82, 0.314053
2290.83, 0.306518
2291.84, 0.301089
2292.86, 0.296957
2293.87, 0.293311
2294.89, 0.289341
2295.91, 0.284236
2296.92, 0.278402
2297.94, 0.273217
2298.96, 0.271353
2299.98, 0.272244
2301.0, 0.275242
2302.02, 0.279213
2303.04, 0.281238
2304.07, 0.280347
2305.09, 0.277349
2306.12, 0.272974
2307.15, 0.268922
2308.17, 0.265762
2309.2, 0.262764
2310.23, 0.259118
2311.26, 0.255553
2312.29, 0.253609
2313.32, 0.253852
2314.35, 0.255634
2315.39, 0.259767
2316.42, 0.265924
2317.46, 0.272406
2318.5, 0.278402
2319.53, 0.284236
2320.57, 0.290556
2321.61, 0.298334
2322.65, 0.308706
2323.69, 0.322237
2324.73, 0.338037
2325.78, 0.354404
2326.82, 0.369880
2327.86, 0.383168
2328.91, 0.394025
2329.96, 0.402776
2331.01, 0.409906
2332.05, 0.415497
2333.1, 0.419710
2334.15, 0.423761
2335.21, 0.427083
2336.26, 0.429352
2337.31, 0.431216
2338.36, 0.432836
2339.42, 0.433403
2340.48, 0.434052
2341.53, 0.435186
2342.59, 0.435591
2343.65, 0.435186
2344.71, 0.434376
2345.77, 0.433079
2346.83, 0.430892
2347.9, 0.429028
2348.96, 0.427002
2350.02, 0.424896
2351.09, 0.422870
2352.16, 0.420844
2353.23, 0.419143
2354.29, 0.418171
2355.36, 0.418009
2356.43, 0.418009
2357.51, 0.417036
2358.58, 0.416145
2359.65, 0.415011
2360.73, 0.413714
2361.8, 0.411527
2362.88, 0.408042
2363.96, 0.403910
2365.03, 0.399535
2366.11, 0.395078
2367.19, 0.390946
2368.27, 0.387381
2369.36, 0.383249
2370.44, 0.378063
2371.53, 0.372878
2372.61, 0.367773
2373.7, 0.361777
2374.78, 0.355457
2375.87, 0.349137
2376.96, 0.341926
2378.05, 0.334553
2379.14, 0.327585
2380.24, 0.321670
2381.33, 0.316160
2382.42, 0.310812
2383.52, 0.306518
2384.61, 0.304249
2385.71, 0.304735
2386.81, 0.308382
2387.91, 0.312676
2389.01, 0.317618
2390.11, 0.323371
2391.22, 0.328719
2392.32, 0.334067
2393.42, 0.339414
2394.53, 0.345329
2395.64, 0.351892
2396.74, 0.359427
2397.85, 0.368745
2398.96, 0.378306
2400.07, 0.386328
2401.18, 0.393215
2402.3, 0.398887
2403.41, 0.402614
2404.52, 0.405207
2405.64, 0.406746
2406.76, 0.407880
2407.88, 0.408367
2408.99, 0.408934
2410.11, 0.409177
2411.23, 0.408123
2412.36, 0.405936
2413.48, 0.403991
2414.6, 0.402695
2415.73, 0.401723
2416.85, 0.400993
2417.98, 0.400669
2419.11, 0.401560
2420.24, 0.403262
2421.37, 0.405531
2422.5, 0.408123
2423.64, 0.410068
2424.77, 0.411040
2425.9, 0.411446
2427.04, 0.412175
2428.18, 0.412418
2429.31, 0.412337
2430.45, 0.412904
2431.59, 0.412985
2432.73, 0.411851
2433.88, 0.410473
2435.02, 0.407799
2436.16, 0.404639
2437.31, 0.401560
2438.45, 0.398076
2439.6, 0.394592
2440.75, 0.392567
2441.9, 0.391675
2443.05, 0.392080
2444.2, 0.393458
2445.35, 0.395808
2446.51, 0.397752
2447.67, 0.398968
2448.82, 0.400021
2449.98, 0.399859
2451.14, 0.398644
2452.3, 0.398157
2453.46, 0.397104
2454.62, 0.394592
2455.78, 0.391999
2456.94, 0.389569
2458.11, 0.387300
2459.28, 0.385355
2460.44, 0.383573
2461.61, 0.382358
2462.78, 0.382033
2463.95, 0.382195
2465.12, 0.382601
2466.3, 0.383087
2467.47, 0.383654
2468.65, 0.384302
2469.82, 0.384950
2471.0, 0.386085
2472.18, 0.387543
2473.36, 0.388434
2474.54, 0.389083
2475.72, 0.389488
2476.9, 0.389083
2478.08, 0.389002
2479.27, 0.389488
2480.46, 0.390541
2481.64, 0.391837
2482.83, 0.392810
2484.02, 0.393701
2485.21, 0.394268
2486.4, 0.394754
2487.6, 0.394997
2488.79, 0.394916
2489.99, 0.395159
2491.18, 0.395403
2492.38, 0.395889
2493.58, 0.396132
2494.78, 0.396294
2495.98, 0.396618
2497.18, 0.396780
2498.39, 0.397185
2499.59, 0.398157
2500.8, 0.399778
2502.01, 0.401398
2503.21, 0.402128
2504.42, 0.402857
2505.63, 0.403505
2506.84, 0.404153
2508.06, 0.404558
2509.27, 0.405045
2510.49, 0.404558
2511.7, 0.403262
2512.92, 0.402209
2514.14, 0.401641
2515.36, 0.401236
2516.58, 0.401885
2517.8, 0.403586
2519.03, 0.405855
2520.25, 0.408367
2521.48, 0.410635
2522.7, 0.412094
2523.93, 0.413957
2525.16, 0.415497
2526.39, 0.415821
2527.62, 0.415902
2528.86, 0.415902
2530.09, 0.416145
2531.33, 0.415902
2532.56, 0.415092
2533.8, 0.414849
2535.04, 0.415092
2536.28, 0.415497
2537.52, 0.415902
2538.76, 0.416388
2540.01, 0.416064
2541.25, 0.415416
2542.5, 0.415011
2543.75, 0.414849
2544.99, 0.414849
2546.24, 0.414930
2547.49, 0.414281
2548.75, 0.413390
2550.0, 0.412499
2551.26, 0.411527
2552.51, 0.410311
2553.77, 0.408934
2555.03, 0.407070
2556.29, 0.404801
2557.55, 0.403019
2558.81, 0.402614
2560.08, 0.402209
2561.34, 0.401723
2562.61, 0.401804
2563.88, 0.401966
2565.14, 0.402533
2566.41, 0.403505
2567.68, 0.403748
2568.96, 0.403667
2570.23, 0.404234
2571.51, 0.405774
2572.78, 0.406746
2574.06, 0.407961
2575.34, 0.409825
2576.62, 0.411121
2577.9, 0.412013
2579.18, 0.413066
2580.47, 0.413552
2581.75, 0.414362
2583.04, 0.413876
2584.32, 0.413714
2585.61, 0.414119
2586.9, 0.414200
2588.2, 0.414362
2589.49, 0.415578
2590.78, 0.417117
2592.08, 0.417928
2593.37, 0.416226
2594.67, 0.414200
2595.97, 0.414605
2597.27, 0.416874
2598.57, 0.418171
2599.88, 0.418252
2601.18, 0.417441
2602.49, 0.416955
2603.79, 0.416631
2605.1, 0.416793
2606.41, 0.418009
2607.72, 0.419872
2609.03, 0.421655
2610.35, 0.423275
2611.66, 0.424004
2612.98, 0.424085
2614.3, 0.424085
2615.62, 0.422870
2616.94, 0.421331
2618.26, 0.421412
2619.58, 0.421412
2620.91, 0.421331
2622.23, 0.422384
2623.56, 0.423518
2624.89, 0.423842
2626.22, 0.423518
2627.55, 0.423761
2628.88, 0.424085
2630.21, 0.423356
2631.55, 0.423113
2632.89, 0.423437
2634.22, 0.424085
2635.56, 0.424572
2636.9, 0.424977
2638.25, 0.424653
2639.59, 0.424572
2640.93, 0.424977
2642.28, 0.425382
2643.63, 0.425544
2644.98, 0.425868
2646.33, 0.426678
2647.68, 0.428137
2649.03, 0.428866
2650.39, 0.429271
2651.74, 0.428947
2653.1, 0.428947
2654.46, 0.429028
2655.82, 0.428704
2657.18, 0.428137
2658.54, 0.427245
2659.9, 0.426840
2661.27, 0.427651
2662.64, 0.427813
2664.01, 0.426354
2665.38, 0.423923
2666.74, 0.421250
2668.12, 0.418576
2669.49, 0.413390
2670.87, 0.405531
2672.24, 0.399211
2673.62, 0.392243
2675.0, 0.384059
2676.38, 0.374984
2677.76, 0.366071
2679.15, 0.356105
2680.54, 0.344924
2681.92, 0.332851
2683.31, 0.320859
2684.7, 0.308544
2686.09, 0.296633
2687.48, 0.285046
2688.88, 0.273946
2690.27, 0.262926
2691.67, 0.253528
2693.07, 0.244129
2694.47, 0.233838
2695.87, 0.222495
2697.27, 0.211313
2698.67, 0.202968
2700.08, 0.198917
2701.49, 0.196162
2702.9, 0.193407
2704.31, 0.191786
2705.72, 0.192192
2707.13, 0.192273
2708.54, 0.190733
2709.96, 0.186520
2711.38, 0.180281
2712.8, 0.172989
2714.22, 0.161645
2715.64, 0.142280
2717.06, 0.114245
2718.49, 0.0858060
2719.91, 0.0663600
2721.34, 0.0586620
2722.77, 0.0597970
2724.2, 0.0657110
2725.63, 0.0754340
2727.07, 0.0843470
2728.5, 0.0907480
2729.94, 0.0975540
2731.38, 0.107601
2732.82, 0.120403
2734.26, 0.133691
2735.7, 0.146007
2737.15, 0.153462
2738.59, 0.157189
2740.04, 0.160754
2741.49, 0.165939
2742.94, 0.174447
2744.39, 0.182306
2745.84, 0.185629
2747.3, 0.187087
2748.76, 0.188464
2750.21, 0.189356
2751.67, 0.189842
2753.14, 0.190895
2754.6, 0.191300
2756.06, 0.192840
2757.53, 0.194784
2759.0, 0.195027
2760.46, 0.195595
2761.94, 0.197782
2763.41, 0.199727
2764.88, 0.201023
2766.36, 0.201834
2767.83, 0.202482
2769.31, 0.203292
2770.79, 0.204102
2772.27, 0.205075
2773.76, 0.207505
2775.24, 0.210422
2776.73, 0.212610
2778.22, 0.214230
2779.71, 0.214798
2781.2, 0.215122
2782.69, 0.215770
2784.18, 0.216985
2785.68, 0.217958
2787.18, 0.218444
2788.68, 0.219416
2790.18, 0.220631
2791.68, 0.222333
2793.19, 0.223953
2794.69, 0.225088
2796.2, 0.226465
2797.71, 0.227681
2799.22, 0.228896
2800.73, 0.229949
2802.24, 0.230597
2803.76, 0.231327
2805.28, 0.232299
2806.8, 0.233271
2808.32, 0.234406
2809.84, 0.235459
2811.36, 0.236431
2812.89, 0.237404
2814.42, 0.238214
2815.94, 0.239024
2817.48, 0.240158
2819.01, 0.240888
2820.54, 0.241455
2822.08, 0.242346
2823.61, 0.242994
2825.15, 0.243237
2826.69, 0.243399
2828.23, 0.243805
2829.78, 0.244372
2831.32, 0.245020
2832.87, 0.245992
2834.42, 0.246802
2835.97, 0.247370
2837.52, 0.247775
2839.08, 0.248423
2840.63, 0.248990
2842.19, 0.249395
2843.75, 0.249800
2845.31, 0.249962
2846.87, 0.250368
2848.44, 0.250611
2850.0, 0.250773
2851.57, 0.251016
2853.14, 0.251421
2854.71, 0.251664
2856.28, 0.251826
2857.86, 0.252312
2859.43, 0.252717
2861.01, 0.252798
2862.59, 0.252717
2864.17, 0.252960
2865.76, 0.253122
2867.34, 0.253122
2868.93, 0.253285
2870.52, 0.253365
2872.11, 0.253609
2873.7, 0.254014
2875.29, 0.254257
2876.89, 0.254662
2878.49, 0.255067
2880.08, 0.255472
2881.69, 0.255634
2883.29, 0.255634
2884.89, 0.255634
2886.5, 0.255958
2888.11, 0.256039
2889.72, 0.255715
2891.33, 0.255391
2892.94, 0.255310
2894.56, 0.255634
2896.17, 0.256201
2897.79, 0.256282
2899.42, 0.256120
2901.04, 0.256525
2902.66, 0.257255
2904.29, 0.257417
2905.92, 0.257417
2907.55, 0.257498
2909.18, 0.257417
2910.81, 0.257579
2912.45, 0.257984
2914.08, 0.258470
2915.72, 0.258794
2917.36, 0.259118
2919.01, 0.259361
2920.65, 0.259685
2922.3, 0.260253
2923.94, 0.260415
2925.59, 0.260820
2927.25, 0.261063
2928.9, 0.260982
2930.56, 0.260901
2932.21, 0.260901
2933.87, 0.260901
2935.53, 0.261225
2937.2, 0.261225
2938.86, 0.261225
2940.53, 0.261144
2942.2, 0.261063
2943.87, 0.260982
2945.54, 0.260982
2947.22, 0.260901
2948.89, 0.261144
2950.57, 0.260982
2952.25, 0.260658
2953.93, 0.260091
2955.62, 0.259523
2957.3, 0.258875
2958.99, 0.258389
2960.68, 0.257984
2962.37, 0.257255
2964.07, 0.256039
2965.76, 0.255391
2967.46, 0.255472
2969.16, 0.255391
2970.86, 0.255310
2972.56, 0.255715
2974.27, 0.256282
2975.98, 0.256931
2977.69, 0.257741
2979.4, 0.258551
2981.11, 0.259604
2982.83, 0.260820
2984.54, 0.262116
2986.26, 0.263251
2987.98, 0.264223
2989.71, 0.265519
2991.43, 0.266816
2993.16, 0.267950
2994.89, 0.268922
2996.62, 0.270057
2998.35, 0.271191
3000.09, 0.272406
3001.83, 0.273379
3003.57, 0.274189
3005.31, 0.274837
3007.05, 0.275890
3008.79, 0.277106
3010.54, 0.277916
3012.29, 0.278483
3014.04, 0.279375
3015.8, 0.280266
3017.55, 0.281238
3019.31, 0.282210
3021.07, 0.282940
3022.83, 0.283669
3024.59, 0.284155
3026.36, 0.284803
3028.13, 0.285532
3029.9, 0.285857
3031.67, 0.286262
3033.44, 0.286748
3035.22, 0.287477
3037.0, 0.287963
3038.78, 0.288287
3040.56, 0.288936
3042.34, 0.289665
3044.13, 0.290232
3045.92, 0.290961
3047.71, 0.291609
3049.5, 0.292258
3051.3, 0.292987
3053.09, 0.293797
3054.89, 0.294364
3056.69, 0.294931
3058.5, 0.295580
3060.3, 0.296309
3062.11, 0.296876
3063.92, 0.297443
3065.73, 0.297929
3067.55, 0.298253
3069.36, 0.298416
3071.18, 0.298578
3073.0, 0.299226
3074.82, 0.299955
3076.65, 0.300036
3078.48, 0.300198
3080.31, 0.300684
3082.14, 0.301332
3083.97, 0.302062
3085.8, 0.302872
3087.64, 0.303844
3089.48, 0.304654
3091.33, 0.305141
3093.17, 0.305789
3095.02, 0.306437
3096.87, 0.307085
3098.72, 0.307733
3100.57, 0.308544
3102.43, 0.309435
3104.28, 0.310245
3106.14, 0.310893
3108.01, 0.311379
3109.87, 0.311866
3111.74, 0.312514
3113.61, 0.313324
3115.48, 0.313891
3117.35, 0.314620
3119.23, 0.315593
3121.1, 0.316646
3122.98, 0.317618
3124.87, 0.318429
3126.75, 0.319320
3128.64, 0.320373
3130.53, 0.321103
3132.42, 0.321913
3134.31, 0.322804
3136.21, 0.323614
3138.11, 0.324344
3140.01, 0.324830
3141.91, 0.325073
3143.82, 0.325154
3145.73, 0.324992
3147.64, 0.324668
3149.55, 0.324181
3151.46, 0.323695
3153.38, 0.323290
3155.3, 0.323047
3157.22, 0.322723
3159.14, 0.322480
3161.07, 0.322318
3163.0, 0.321994
3164.93, 0.321021
3166.86, 0.320049
3168.8, 0.319806
3170.74, 0.320130
3172.68, 0.320859
3174.62, 0.321913
3176.56, 0.323290
3178.51, 0.324668
3180.46, 0.326045
3182.42, 0.327666
3184.37, 0.329691
3186.33, 0.331879
3188.29, 0.333986
3190.25, 0.335930
3192.21, 0.337956
3194.18, 0.339981
3196.15, 0.341926
3198.12, 0.343871
3200.09, 0.345815
3202.07, 0.347517
3204.05, 0.349056
3206.03, 0.350515
3208.02, 0.352054
3210.0, 0.353432
3211.99, 0.354647
3213.98, 0.355619
3215.98, 0.356510
3217.97, 0.357564
3219.97, 0.358698
3221.97, 0.359670
3223.98, 0.360400
3225.98, 0.360967
3227.99, 0.361777
3230.0, 0.362668
3232.02, 0.363641
3234.03, 0.364370
3236.05, 0.365099
3238.07, 0.365828
3240.1, 0.366477
3242.12, 0.367206
3244.15, 0.368097
3246.18, 0.369069
3248.22, 0.369961
3250.25, 0.370690
3252.29, 0.371257
3254.33, 0.371905
3256.38, 0.372553
3258.43, 0.373121
3260.47, 0.373607
3262.53, 0.373931
3264.58, 0.374417
3266.64, 0.374822
3268.7, 0.374903
3270.76, 0.374984
3272.82, 0.374903
3274.89, 0.374579
3276.96, 0.373850
3279.04, 0.372716
3281.11, 0.371176
3283.19, 0.369069
3285.27, 0.366639
3287.35, 0.363803
3289.44, 0.361210
3291.53, 0.358860
3293.62, 0.356754
3295.71, 0.354728
3297.81, 0.352459
3299.91, 0.349785
3302.01, 0.347193
3304.11, 0.344681
3306.22, 0.342493
3308.33, 0.341116
3310.44, 0.340873
3312.56, 0.341359
3314.68, 0.341926
3316.8, 0.342331
3318.92, 0.342574
3321.05, 0.342655
3323.18, 0.342817
3325.31, 0.343141
3327.44, 0.343465
3329.58, 0.343465
3331.72, 0.342574
3333.86, 0.340549
3336.01, 0.337956
3338.16, 0.335444
3340.31, 0.333094
3342.46, 0.330582
3344.61, 0.328233
3346.77, 0.326612
3348.94, 0.326207
3351.1, 0.327017
3353.27, 0.328638
3355.44, 0.331231
3357.61, 0.334553
3359.79, 0.338037
3361.97, 0.341197
3364.15, 0.343790
3366.33, 0.345896
3368.52, 0.347355
3370.71, 0.348084
3372.9, 0.348651
3375.1, 0.349461
3377.3, 0.349947
3379.5, 0.350839
3381.71, 0.352054
3383.91, 0.353513
3386.12, 0.355133
3388.34, 0.356835
3390.55, 0.357969
3392.77, 0.359103
3394.99, 0.360319
3397.22, 0.361291
3399.45, 0.362182
3401.68, 0.362668
3403.91, 0.363074
3406.15, 0.363641
3408.39, 0.364208
3410.63, 0.364775
3412.87, 0.365666
3415.12, 0.366801
3417.37, 0.368016
3419.63, 0.369637
3421.88, 0.371419
3424.14, 0.373283
3426.41, 0.375308
3428.67, 0.377658
3430.94, 0.379927
3433.21, 0.381709
3435.49, 0.383411
3437.77, 0.385274
3440.05, 0.386895
3442.33, 0.388353
3444.62, 0.389650
3446.91, 0.390865
3449.2, 0.392080
3451.5, 0.393134
3453.8, 0.394106
3456.1, 0.395078
3458.41, 0.395646
3460.72, 0.396213
3463.03, 0.396375
3465.34, 0.396051
3467.66, 0.395240
3469.98, 0.394268
3472.31, 0.393215
3474.63, 0.392486
3476.96, 0.392162
3479.3, 0.392324
3481.64, 0.392648
3483.97, 0.393296
3486.32, 0.394106
3488.66, 0.394997
3491.01, 0.395565
3493.36, 0.396051
3495.72, 0.396618
3498.08, 0.397023
3500.44, 0.397428
3502.81, 0.398157
3505.18, 0.399373
3507.55, 0.401560
3509.92, 0.403910
3512.3, 0.406260
3514.68, 0.408529
3517.06, 0.410878
3519.45, 0.413066
3521.84, 0.415173
3524.24, 0.417036
3526.64, 0.418900
3529.04, 0.420520
3531.44, 0.421898
3533.85, 0.423032
3536.26, 0.423761
3538.67, 0.424572
3541.09, 0.425058
3543.51, 0.425544
3545.93, 0.426273
3548.36, 0.426840
3550.79, 0.427326
3553.22, 0.427651
3555.66, 0.428056
3558.1, 0.428542
3560.54, 0.428947
3562.99, 0.429190
3565.44, 0.429433
3567.9, 0.429676
3570.35, 0.430162
3572.81, 0.430405
3575.28, 0.430567
3577.75, 0.430730
3580.22, 0.430811
3582.69, 0.430973
3585.17, 0.431378
3587.65, 0.431864
3590.14, 0.432107
3592.62, 0.432107
3595.11, 0.432188
3597.61, 0.432431
3600.11, 0.432593
3602.61, 0.432512
3605.11, 0.432593
3607.62, 0.432836
3610.14, 0.432998
3612.65, 0.432998
3615.17, 0.432998
3617.69, 0.432836
3620.22, 0.432755
3622.75, 0.432755
3625.28, 0.432755
3627.82, 0.432836
3630.36, 0.432998
3632.9, 0.432755
3635.45, 0.432674
3638.0, 0.432917
3640.56, 0.433079
3643.12, 0.432917
3645.68, 0.432836
3648.24, 0.432755
3650.81, 0.432755
3653.39, 0.432836
3655.96, 0.432836
3658.54, 0.432917
3661.13, 0.433079
3663.71, 0.432998
3666.3, 0.433160
3668.9, 0.433403
3671.5, 0.433484
3674.1, 0.433646
3676.7, 0.433889
3679.31, 0.433808
3681.93, 0.433727
3684.54, 0.433484
3687.17, 0.431459
3689.79, 0.427083
3692.42, 0.425949
3695.05, 0.429190
3697.69, 0.431621
3700.32, 0.432512
3702.97, 0.433565
3705.61, 0.434214
3708.27, 0.434538
3710.92, 0.434781
3713.58, 0.434943
3716.24, 0.434862
3718.91, 0.435024
3721.58, 0.435024
3724.25, 0.434943
3726.93, 0.435105
3729.61, 0.435348
3732.29, 0.435186
3734.98, 0.434943
3737.67, 0.434862
3740.37, 0.434862
3743.07, 0.434700
3745.78, 0.434538
3748.49, 0.434700
3751.2, 0.434700
3753.91, 0.434619
3756.63, 0.434538
3759.36, 0.434376
3762.09, 0.434376
3764.82, 0.434133
3767.55, 0.433971
3770.29, 0.433971
3773.04, 0.433889
3775.78, 0.433646
3778.54, 0.433322
3781.29, 0.432998
3784.05, 0.432836
3786.82, 0.432431
3789.59, 0.432107
3792.36, 0.431540
3795.13, 0.431054
3797.92, 0.430324
3800.7, 0.429514
3803.49, 0.428866
3806.28, 0.428218
3809.08, 0.427570
3811.88, 0.427164
3814.68, 0.426840
3817.49, 0.426354
3820.31, 0.425787
3823.12, 0.425382
3825.94, 0.425058
3828.77, 0.424491
3831.6, 0.423761
3834.43, 0.423275
3837.27, 0.422708
3840.11, 0.422222
3842.96, 0.421817
3845.81, 0.421331
3848.67, 0.420601
3851.53, 0.420115
3854.39, 0.419710
3857.26, 0.419305
3860.13, 0.418738
3863.01, 0.418090
3865.89, 0.417603
3868.77, 0.417360
3871.66, 0.417198
3874.55, 0.417036
3877.45, 0.416793
3880.35, 0.416469
3883.26, 0.415983
3886.17, 0.415659
3889.09, 0.415335
3892.01, 0.415173
3894.93, 0.414768
3897.86, 0.414200
3900.79, 0.413714
3903.73, 0.413228
3906.67, 0.412499
3909.62, 0.411689
3912.57, 0.410716
3915.52, 0.409987
3918.48, 0.409501
3921.45, 0.408853
3924.42, 0.408123
3927.39, 0.407475
3930.37, 0.406827
3933.35, 0.406503
3936.34, 0.405855
3939.33, 0.404396
3942.32, 0.402452
3945.32, 0.400426
3948.33, 0.398400
3951.34, 0.396294
3954.35, 0.394106
3957.37, 0.392243
3960.39, 0.390703
3963.42, 0.388921
3966.45, 0.387624
3969.49, 0.386895
3972.53, 0.386571
3975.58, 0.386652
3978.63, 0.386895
3981.68, 0.387462
3984.75, 0.388434
3987.81, 0.389974
3990.88, 0.391837
3993.95, 0.393863
3997.03, 0.396132
4000.12, 0.398563
4003.21, 0.400831
4006.3, 0.402938
4009.4, 0.404882
4012.5, 0.406584
4015.61, 0.407799
4018.72, 0.408772
4021.84, 0.409501
4024.96, 0.410392
4028.09, 0.411040
4031.22, 0.411851
4034.36, 0.412742
4037.5, 0.413390
4040.65, 0.413876
4043.8, 0.414443
4046.96, 0.414849
4050.12, 0.415254
4053.29, 0.415416
4056.46, 0.415335
4059.64, 0.415173
4062.82, 0.415173
4066.0, 0.415011
4069.19, 0.414768
4072.39, 0.414605
4075.59, 0.414281
4078.8, 0.414038
4082.01, 0.413714
4085.23, 0.413390
4088.45, 0.413147
4091.68, 0.412904
4094.91, 0.412580
4098.15, 0.412175
4101.39, 0.411932
4104.63, 0.411608
4107.89, 0.411283
4111.14, 0.410878
4114.41, 0.410473
4117.67, 0.409987
4120.95, 0.409825
4124.23, 0.409420
4127.51, 0.409015
4130.8, 0.408610
4134.09, 0.408367
4137.39, 0.407961
4140.7, 0.407718
4144.01, 0.407232
4147.32, 0.406908
4150.64, 0.406503
4153.97, 0.406179
4157.3, 0.405936
4160.64, 0.405612
4163.98, 0.405207
4167.33, 0.404964
4170.68, 0.404801
4174.04, 0.404477
4177.4, 0.403910
4180.77, 0.403748
4184.14, 0.403586
4187.52, 0.403181
4190.91, 0.402695
4194.3, 0.402209
4197.69, 0.401723
4201.1, 0.401479
4204.5, 0.400831
4207.92, 0.400183
4211.34, 0.399373
4214.76, 0.398319
4218.19, 0.397347
4221.62, 0.396699
4225.06, 0.395808
4228.51, 0.394997
4231.96, 0.394349
4235.42, 0.393944
4238.88, 0.393782
4242.35, 0.393782
4245.83, 0.394106
4249.31, 0.394673
4252.79, 0.395240
4256.28, 0.395484
4259.78, 0.394835
4263.29, 0.393782
4266.79, 0.392729
4270.31, 0.391837
4273.83, 0.391351
4277.35, 0.390865
4280.89, 0.390703
4284.42, 0.390703
4287.97, 0.390622
4291.52, 0.390784
4295.07, 0.390865
4298.63, 0.391027
4302.2, 0.391189
4305.78, 0.391432
4309.35, 0.391513
4312.94, 0.391756
4316.53, 0.391918
4320.13, 0.392080
4323.73, 0.391999
4327.34, 0.391918
4330.96, 0.391837
4334.58, 0.391756
4338.21, 0.391513
4341.84, 0.391189
4345.48, 0.390865
4349.12, 0.390541
4352.77, 0.390136
4356.43, 0.389731
4360.1, 0.389164
4363.76, 0.388434
4367.44, 0.387705
4371.12, 0.386976
4374.81, 0.386166
4378.51, 0.385355
4382.21, 0.384545
4385.92, 0.383735
4389.63, 0.382844
4393.35, 0.381952
4397.08, 0.380980
4400.81, 0.379927
4404.55, 0.378873
4408.29, 0.377901
4412.04, 0.377010
4415.8, 0.376038
4419.57, 0.374984
4423.34, 0.374012
4427.12, 0.372878
4430.9, 0.371662
4434.69, 0.370447
4438.49, 0.369312
4442.29, 0.367935
4446.1, 0.366396
4449.92, 0.365018
4453.74, 0.363560
4457.57, 0.361939
4461.41, 0.360400
4465.25, 0.358698
4469.1, 0.357321
4472.95, 0.356024
4476.82, 0.354566
4480.69, 0.353026
4484.56, 0.351568
4488.44, 0.350109
4492.33, 0.348651
4496.23, 0.347112
4500.13, 0.345815
4504.04, 0.344600
4507.96, 0.343465
4511.88, 0.342088
4515.81, 0.340630
4519.75, 0.339252
4523.69, 0.337875
4527.65, 0.336497
4531.6, 0.335282
4535.57, 0.333823
4539.54, 0.332122
4543.52, 0.329934
4547.5, 0.327504
4551.5, 0.324506
4555.5, 0.321589
4559.5, 0.318753
4563.52, 0.315755
4567.54, 0.312919
4571.56, 0.310164
4575.6, 0.307490
4579.64, 0.304735
4583.69, 0.302143
4587.75, 0.299469
4591.81, 0.296957
4595.88, 0.294445
4599.96, 0.291852
4604.04, 0.289179
4608.14, 0.286343
4612.24, 0.283507
4616.34, 0.280590
4620.46, 0.277592
4624.58, 0.274513
4628.71, 0.271353
4632.84, 0.268112
4636.99, 0.264952
4641.14, 0.261792
4645.3, 0.258713
4649.47, 0.255715
4653.64, 0.252798
4657.82, 0.249881
4662.01, 0.246884
4666.21, 0.243886
4670.41, 0.240888
4674.62, 0.237890
4678.84, 0.235135
4683.07, 0.232542
4687.3, 0.230192
4691.54, 0.227924
4695.79, 0.226303
4700.05, 0.224845
4704.31, 0.223467
4708.59, 0.222171
4712.87, 0.220874
4717.15, 0.219416
4721.45, 0.217877
4725.76, 0.216175
4730.07, 0.214392
4734.39, 0.212367
4738.72, 0.210017
4743.05, 0.207586
4747.39, 0.205075
4751.75, 0.202320
4756.1, 0.199484
4760.47, 0.196648
4764.85, 0.193974
4769.23, 0.191381
4773.62, 0.188626
4778.02, 0.185953
4782.43, 0.183441
4786.85, 0.181091
4791.27, 0.178903
4795.7, 0.177040
4800.14, 0.175824
4804.59, 0.174933
4809.05, 0.174123
4813.51, 0.173556
4817.99, 0.173070
4822.47, 0.172421
4826.96, 0.171854
4831.46, 0.171449
4835.96, 0.170882
4840.48, 0.170153
4845.0, 0.169423
4849.54, 0.168370
4854.08, 0.167155
4858.63, 0.165858
4863.18, 0.164562
4867.75, 0.163347
4872.33, 0.161969
4876.91, 0.160511
4881.5, 0.159052
4886.1, 0.157432
4890.71, 0.155730
4895.33, 0.153867
4899.96, 0.152084
4904.59, 0.150059
4909.24, 0.147871
4913.89, 0.145683
4918.55, 0.143739
4923.22, 0.141875
4927.9, 0.140092
4932.59, 0.138391
4937.29, 0.136932
4942.0, 0.135555
4946.71, 0.134016
4951.44, 0.132395
4956.17, 0.130775
4960.91, 0.129073
4965.67, 0.127696
4970.43, 0.126399
4975.2, 0.125022
4979.98, 0.123644
4984.76, 0.122591
4989.56, 0.121538
4994.37, 0.120565
4999.18, 0.119431
5004.01, 0.118216
5008.84, 0.117162
5013.69, 0.116190
5018.54, 0.115137
5023.4, 0.114245
5028.28, 0.113354
5033.16, 0.112544
5038.05, 0.111653
5042.95, 0.110761
5047.86, 0.109708
5052.78, 0.108655
5057.71, 0.107520
5062.65, 0.106710
5067.6, 0.105819
5072.56, 0.105090
5077.53, 0.104360
5082.5, 0.103550
5087.49, 0.102740
5092.49, 0.101849
5097.5, 0.100876
5102.51, 0.0999040
5107.54, 0.0990130
5112.58, 0.0979590
5117.62, 0.0971490
5122.68, 0.0965010
5127.75, 0.0960960
5132.82, 0.0960960
5137.91, 0.0963390
5143.01, 0.0969060
5148.12, 0.0975540
5153.23, 0.0984460
5158.36, 0.0993370
5163.5, 0.100147
5168.65, 0.101119
5173.81, 0.101930
5178.98, 0.102740
5184.15, 0.103469
5189.34, 0.103712
5194.54, 0.103631
5199.75, 0.103226
5204.98, 0.102659
5210.21, 0.101443
5215.45, 0.0999850
5220.7, 0.0984460
5225.96, 0.0965820
5231.23, 0.0945560
5236.52, 0.0929360
5241.81, 0.0913960
5247.12, 0.0903430
5252.44, 0.0897760
5257.76, 0.0894520
5263.1, 0.0892900
5268.45, 0.0890470
5273.81, 0.0887220
5279.18, 0.0881550
5284.56, 0.0872640
5289.95, 0.0862920
5295.36, 0.0850760
5300.77, 0.0838610
5306.2, 0.0826460
5311.63, 0.0814300
5317.08, 0.0805390
5322.54, 0.0800530
5328.01, 0.0797290
5333.49, 0.0796480
5338.98, 0.0796480
5344.49, 0.0795670
5350.0, 0.0796480
5355.53, 0.0800530
5361.07, 0.0802960
5366.62, 0.0803770
5372.18, 0.0804580
5377.75, 0.0802960
5383.34, 0.0802960
5388.93, 0.0802960
5394.54, 0.0802150
5400.16, 0.0799720
5405.79, 0.0796480
5411.44, 0.0792430
5417.09, 0.0784320
5422.76, 0.0774600
5428.43, 0.0766500
5434.12, 0.0755150
5439.83, 0.0743810
5445.54, 0.0732470
5451.26, 0.0721120
5457.0, 0.0713830
5462.75, 0.0708160
5468.52, 0.0705730
5474.29, 0.0705730
5480.08, 0.0704920
5485.88, 0.0705730
5491.69, 0.0707350
5497.51, 0.0708160
5503.35, 0.0706540
5509.2, 0.0704920
5515.06, 0.0700870
5520.93, 0.0695200
5526.82, 0.0691140
5532.71, 0.0687090
5538.63, 0.0681420
5544.55, 0.0674940
5550.49, 0.0666030
5556.44, 0.0657110
5562.4, 0.0652250
5568.37, 0.0649820
5574.36, 0.0645770
5580.36, 0.0643340
5586.37, 0.0645770
5592.4, 0.0648200
5598.44, 0.0647390
5604.49, 0.0646580
5610.56, 0.0645770
5616.63, 0.0643340
5622.73, 0.0641720
5628.83, 0.0641720
5634.95, 0.0640910
5641.08, 0.0641720
5647.23, 0.0644150
5653.39, 0.0647390
5659.56, 0.0649010
5665.74, 0.0651440
5671.94, 0.0654680
5678.15, 0.0657110
5684.38, 0.0661160
5690.62, 0.0664410
5696.87, 0.0666840
5703.14, 0.0669270
5709.42, 0.0669270
5715.72, 0.0668460
5722.03, 0.0664410
5728.35, 0.0660350
5734.69, 0.0655490
5741.03, 0.0649820
5747.4, 0.0642530
5753.78, 0.0636050
5760.17, 0.0627940
5766.58, 0.0619840
5773.0, 0.0616600
5779.44, 0.0612550
5785.88, 0.0607690
5792.35, 0.0603640
5798.83, 0.0597970
5805.32, 0.0591480
5811.83, 0.0584190
5818.35, 0.0575280
5824.89, 0.0567990
5831.45, 0.0563930
5838.01, 0.0559070
5844.59, 0.0553400
5851.19, 0.0546110
5857.8, 0.0538010
5864.43, 0.0531520
5871.07, 0.0525850
5877.73, 0.0516940
5884.4, 0.0510460
5891.09, 0.0507220
5897.79, 0.0502360
5904.5, 0.0500740
5911.23, 0.0499110
5917.98, 0.0497490
5924.75, 0.0497490
5931.53, 0.0496680
5938.32, 0.0495870
5945.13, 0.0502360
5951.96, 0.0508840
5958.8, 0.0516940
5965.65, 0.0522610
5972.53, 0.0527470
5979.42, 0.0533150
5986.32, 0.0537200
5993.24, 0.0540440
6000.18, 0.0542060
6007.13, 0.0540440
6014.1, 0.0535580
6021.08, 0.0529090
6028.09, 0.0520180
6035.1, 0.0511270
6042.14, 0.0498300
6049.19, 0.0482910
6056.25, 0.0477240
6063.34, 0.0472380
6070.44, 0.0462650
6077.55, 0.0454550
6084.69, 0.0451310
6091.84, 0.0446450
6099.0, 0.0441590
6106.19, 0.0435920
6113.39, 0.0431050
6120.61, 0.0429430
6127.84, 0.0428620
6135.09, 0.0426190
6142.36, 0.0423760
6149.65, 0.0425380
6156.95, 0.0425380
6164.27, 0.0424570
6171.61, 0.0427000
6178.97, 0.0428620
6186.34, 0.0428620
6193.73, 0.0431860
6201.14, 0.0436730
6208.57, 0.0442400
6216.01, 0.0448070
6223.47, 0.0454550
6230.95, 0.0461840
6238.45, 0.0469140
6245.97, 0.0478050
6253.5, 0.0487770
6261.06, 0.0495870
6268.63, 0.0507220
6276.21, 0.0520990
6283.82, 0.0531520
6291.45, 0.0542870
6299.1, 0.0555830
6306.76, 0.0568800
6314.44, 0.0582570
6322.14, 0.0597970
6329.86, 0.0610930
6337.6, 0.0623080
6345.35, 0.0636050
6353.13, 0.0650630
6360.92, 0.0661160
6368.74, 0.0670080
6376.57, 0.0682230
6384.43, 0.0691950
6392.3, 0.0699250
6400.19, 0.0706540
6408.1, 0.0710590
6416.03, 0.0716260
6423.98, 0.0730040
6431.95, 0.0739760
6439.94, 0.0746240
6447.95, 0.0751910
6455.98, 0.0756770
6464.03, 0.0758400
6472.1, 0.0757580
6480.19, 0.0757580
6488.31, 0.0756770
6496.44, 0.0756770
6504.59, 0.0761640
6512.76, 0.0763260
6520.95, 0.0760020
6529.16, 0.0758400
6537.4, 0.0755960
6545.65, 0.0750290
6553.92, 0.0743810
6562.22, 0.0735710
6570.54, 0.0724360
6578.88, 0.0716260
6587.23, 0.0707350
6595.61, 0.0696820
6604.02, 0.0686280
6612.44, 0.0675750
6620.89, 0.0664410
6629.35, 0.0651440
6637.84, 0.0637670
6646.35, 0.0634430
6654.88, 0.0630380
6663.44, 0.0620650
6672.01, 0.0610930
6680.61, 0.0601210
6689.23, 0.0594720
6697.88, 0.0590670
6706.54, 0.0583380
6715.23, 0.0576900
6723.94, 0.0571230
6732.67, 0.0567990
6741.42, 0.0563930
6750.2, 0.0558260
6759.0, 0.0551780
6767.82, 0.0546110
6776.67, 0.0541250
6785.54, 0.0533960
6794.44, 0.0529090
6803.35, 0.0525040
6812.29, 0.0520990
6821.26, 0.0517750
6830.24, 0.0512890
6839.25, 0.0507220
6848.29, 0.0501550
6857.35, 0.0498300
6866.43, 0.0493440
6875.54, 0.0491820
6884.67, 0.0491010
6893.82, 0.0487770
6903.0, 0.0481290
6912.2, 0.0475620
6921.43, 0.0471570
6930.69, 0.0467510
6939.96, 0.0462650
6949.27, 0.0456980
6958.59, 0.0449690
6967.95, 0.0444020
6977.33, 0.0439160
6986.73, 0.0433480
6996.16, 0.0429430
7005.61, 0.0424570
7015.09, 0.0418090
7024.6, 0.0413230
7034.13, 0.0407560
7043.69, 0.0401070
7053.27, 0.0396210
7062.88, 0.0392160
7072.52, 0.0386490
7082.18, 0.0380820
7091.87, 0.0375960
7101.58, 0.0368660
7111.32, 0.0361370
7121.09, 0.0354080
7130.88, 0.0347600
7140.71, 0.0342740
7150.56, 0.0338680
7160.43, 0.0336250
7170.33, 0.0334630
7180.27, 0.0333010
7190.23, 0.0331390
7200.21, 0.0328960
7210.23, 0.0326530
7220.27, 0.0324910
7230.34, 0.0322480
7240.44, 0.0316000
7250.56, 0.0310330
7260.72, 0.0307090
7270.9, 0.0301410
7281.12, 0.0297360
7291.36, 0.0294120
7301.63, 0.0289260
7311.93, 0.0286020
7322.25, 0.0282780
7332.61, 0.0278730
7343.0, 0.0274680
7353.41, 0.0272240
7363.86, 0.0269000
7374.33, 0.0266570
7384.83, 0.0263330
7395.37, 0.0259280
7405.93, 0.0256850
7416.53, 0.0254420
7427.15, 0.0251180
7437.81, 0.0247940
7448.5, 0.0244700
7459.22, 0.0242270
7469.96, 0.0240640
7480.74, 0.0239020
7491.55, 0.0238210
7502.39, 0.0237400
7513.27, 0.0235780
7524.17, 0.0234970
7535.11, 0.0235780
7546.08, 0.0234970
7557.08, 0.0233350
7568.11, 0.0230110
7579.17, 0.0227680
7590.27, 0.0223630
7601.4, 0.0220390
7612.56, 0.0216340
7623.76, 0.0213910
7634.98, 0.0210670
7646.24, 0.0208230
7657.54, 0.0206610
7668.87, 0.0203370
7680.23, 0.0200130
7691.62, 0.0195270
7703.05, 0.0190410
7714.51, 0.0187980
7726.01, 0.0185550
7737.54, 0.0183930
7749.11, 0.0183120
7760.71, 0.0181500
7772.35, 0.0179070
7784.02, 0.0178260
7795.72, 0.0177440
7807.46, 0.0175010
7819.23, 0.0173390
7831.04, 0.0172580
7842.89, 0.0170960
7854.77, 0.0169340
7866.69, 0.0168530
7878.65, 0.0167720
7890.64, 0.0166910
7902.67, 0.0164480
7914.74, 0.0162050
7926.84, 0.0161240
7938.98, 0.0161240
7951.16, 0.0162860
7963.37, 0.0163670
7975.62, 0.0164480
7987.91, 0.0165290
8000.24, 0.0167720
8012.6, 0.0169340
8025.01, 0.0169340
8037.45, 0.0170150
8049.93, 0.0174200
8062.45, 0.0178260
8075.01, 0.0182310
8087.61, 0.0186360
8100.24, 0.0190410
8112.91, 0.0195270
8125.63, 0.0204180
8138.39, 0.0210670
8151.18, 0.0217150
8164.02, 0.0223630
8176.9, 0.0229300
8189.81, 0.0233350
8202.77, 0.0236590
8215.77, 0.0240640
8228.82, 0.0243890
8241.9, 0.0247130
8255.02, 0.0250370
8268.19, 0.0251990
8281.39, 0.0256850
8294.65, 0.0263330
8307.94, 0.0270620
8321.28, 0.0277110
8334.66, 0.0286830
8348.08, 0.0300600
8361.54, 0.0316000
8375.05, 0.0333820
8388.6, 0.0354890
8402.2, 0.0380820
8415.84, 0.0411610
8429.52, 0.0446450
8443.25, 0.0487770
8457.02, 0.0534770
8470.84, 0.0589050
8484.7, 0.0649010
8498.61, 0.0714640
8512.57, 0.0786750
8526.57, 0.0863730
8540.62, 0.0943130
8554.71, 0.102011
8568.85, 0.109951
8583.04, 0.117324
8597.27, 0.123806
8611.55, 0.130045
8625.88, 0.135798
8640.26, 0.141551
8654.68, 0.146736
8669.16, 0.150140
8683.68, 0.152084
8698.25, 0.152975
8712.87, 0.153624
8727.53, 0.154029
8742.25, 0.154110
8757.02, 0.153867
8771.83, 0.153300
8786.7, 0.152489
8801.62, 0.151355
8816.59, 0.149815
8831.61, 0.147709
8846.68, 0.144873
8861.8, 0.141470
8876.97, 0.138391
8892.2, 0.136608
8907.48, 0.135069
8922.81, 0.133448
8938.2, 0.131585
8953.63, 0.129883
8969.13, 0.128344
8984.67, 0.126966
9000.27, 0.126156
9015.92, 0.125994
9031.63, 0.126480
9047.39, 0.127615
9063.21, 0.128992
9079.08, 0.129964
9095.01, 0.130775
9111.0, 0.131099
9127.04, 0.130612
9143.13, 0.129478
9159.28, 0.127858
9175.49, 0.126642
9191.76, 0.126480
9208.09, 0.127209
9224.47, 0.127939
9240.92, 0.128911
9257.42, 0.130207
9273.98, 0.131585
9290.6, 0.133043
9307.28, 0.134178
9324.02, 0.135069
9340.82, 0.134745
9357.68, 0.133043
9374.6, 0.130694
9391.58, 0.128344
9408.62, 0.127047
9425.73, 0.128344
9442.9, 0.131099
9460.13, 0.133124
9477.42, 0.134745
9494.78, 0.135555
9512.2, 0.135312
9529.69, 0.134583
9547.24, 0.133610
9564.86, 0.132476
9582.54, 0.132638
9600.28, 0.133853
9618.1, 0.133772
9635.97, 0.131099
9653.92, 0.126561
9671.93, 0.121781
9690.01, 0.117243
9708.16, 0.112949
9726.37, 0.109222
9744.65, 0.106386
9763.0, 0.105657
9781.43, 0.107115
9799.92, 0.110194
9818.48, 0.113192
9837.1, 0.115461
9855.8, 0.117243
9874.58, 0.119593
9893.42, 0.122429
9912.34, 0.125265
9931.33, 0.128506
9950.39, 0.131585
9969.52, 0.134502
9988.74, 0.137905
10008.0, 0.141065
10027.4, 0.143982
10046.8, 0.146655
10066.3, 0.148357
10085.9, 0.149734
10105.6, 0.150464
10125.3, 0.150059
10145.1, 0.148519
10165.0, 0.145602
10185.0, 0.142280
10205.0, 0.139120
10225.2, 0.135555
10245.4, 0.131666
10265.7, 0.128506
10286.0, 0.125427
10306.5, 0.121781
10327.0, 0.118135
10347.6, 0.114975
10368.3, 0.112949
10389.1, 0.111734
10409.9, 0.110599
10430.9, 0.109060
10451.9, 0.106710
10473.0, 0.103712
10494.2, 0.100309
10515.5, 0.0965010
10536.9, 0.0920450
10558.4, 0.0875070
10579.9, 0.0824840
10601.5, 0.0772170
10623.3, 0.0724360
10645.1, 0.0683850
10667.0, 0.0645770
10689.0, 0.0612550
10711.1, 0.0588240
10733.2, 0.0574470
10755.5, 0.0572850
10777.9, 0.0579330
10800.3, 0.0591480
10822.9, 0.0609310
10845.5, 0.0626320
10868.2, 0.0641720
10891.1, 0.0648200
10914.0, 0.0645770
10937.0, 0.0636860
10960.2, 0.0624700
10983.4, 0.0608500
11006.7, 0.0598780
11030.1, 0.0593100
11053.6, 0.0584190
11077.3, 0.0576090
11101.0, 0.0571230
11124.8, 0.0570420
11148.7, 0.0571230
11172.7, 0.0567990
11196.9, 0.0567180
11221.1, 0.0565560
11245.4, 0.0560690
11269.9, 0.0553400
11294.4, 0.0546920
11319.1, 0.0541250
11343.9, 0.0536390
11368.8, 0.0527470
11393.7, 0.0519370
11418.8, 0.0512890
11444.0, 0.0509650
11469.4, 0.0501550
11494.8, 0.0494250
11520.3, 0.0490200
11546.0, 0.0482910
11571.8, 0.0476430
11597.7, 0.0469140
11623.7, 0.0461030
11649.8, 0.0455360
11676.0, 0.0448880
11702.4, 0.0443210
11728.9, 0.0440780
11755.5, 0.0436730
11782.2, 0.0427810
11809.0, 0.0422950
11836.0, 0.0420520
11863.0, 0.0414040
11890.3, 0.0405130
11917.6, 0.0397020
11945.0, 0.0388920
11972.6, 0.0381630
12000.4, 0.0375960
12028.2, 0.0369470
12056.2, 0.0363800
12084.3, 0.0356510
12112.5, 0.0350030
12140.9, 0.0345170
12169.4, 0.0340310
12198.0, 0.0333820
12226.8, 0.0326530
12255.7, 0.0317620
12284.7, 0.0306270
12313.9, 0.0300600
12343.2, 0.0299790
12372.7, 0.0294930
12402.3, 0.0290070
12432.0, 0.0284400
12461.9, 0.0277920
12491.9, 0.0273860
12522.1, 0.0263330
12552.4, 0.0252800
12582.9, 0.0251180
12613.5, 0.0248750
12644.3, 0.0246320
12675.2, 0.0249560
12706.3, 0.0255230
12737.5, 0.0264140
12768.9, 0.0273860
12800.4, 0.0277110
12832.1, 0.0272240
12863.9, 0.0260900
12895.9, 0.0259280
12928.1, 0.0269810
12960.4, 0.0289260
12992.9, 0.0319240
13025.5, 0.0362990
13058.3, 0.0400260
13091.3, 0.0422140
13124.4, 0.0429430
13157.8, 0.0424570
13191.2, 0.0410800
13224.9, 0.0386490
13258.7, 0.0363800
13292.7, 0.0344360
13326.9, 0.0321670
13361.2, 0.0306270
13395.7, 0.0290880
13430.4, 0.0277110
13465.3, 0.0260900
13500.4, 0.0245510
13535.7, 0.0234970
13571.1, 0.0226060
13606.7, 0.0223630
13642.5, 0.0221200
13678.5, 0.0211480
13714.7, 0.0206610
13751.1, 0.0208230
13787.6, 0.0208230
13824.4, 0.0209040
13861.4, 0.0215530
13898.5, 0.0222820
13935.9, 0.0227680
13973.5, 0.0230110
14011.2, 0.0226870
14049.2, 0.0217960
14087.4, 0.0208230
14125.8, 0.0201750
14164.3, 0.0190410
14203.2, 0.0184740
14242.2, 0.0196080
14281.4, 0.0210670
14320.9, 0.0230920
14360.5, 0.0268190
14400.4, 0.0311950
14440.5, 0.0349220
14480.9, 0.0371910
14521.4, 0.0388920
14562.2, 0.0393780
14603.3, 0.0384060
14644.5, 0.0366230
14686.0, 0.0346790
14727.7, 0.0333820
14769.7, 0.0327340
14811.9, 0.0322480
14854.3, 0.0313570
14897.0, 0.0304650
14939.9, 0.0303030
14983.1, 0.0295740
15026.5, 0.0276300
15070.2, 0.0256040
15114.2, 0.0243080
15158.3, 0.0230920
15202.8, 0.0216340
15247.5, 0.0204180
15292.5, 0.0197700
15337.7, 0.0187980
15383.2, 0.0177440
15429.0, 0.0174200
15475.1, 0.0171770
15521.4, 0.0165290
15568.0, 0.0162050
15614.9, 0.0161240
15662.1, 0.0153140
15709.6, 0.0143410
15757.3, 0.0135310
15805.4, 0.0128020
15853.7, 0.0119920
15902.3, 0.0115870
15951.2, 0.0116680
16000.5, 0.0117490
16050.0, 0.0122350
16099.8, 0.0128020
16150.0, 0.0131260
16200.5, 0.0140980
16251.3, 0.0153140
16302.4, 0.0168530
16353.8, 0.0187170
16405.5, 0.0214720
16457.6, 0.0251180
16510.0, 0.0292500
16562.8, 0.0328150
16615.9, 0.0363800
16669.3, 0.0408370
16723.1, 0.0460220
16777.2, 0.0513700
16831.7, 0.0567990
16886.5, 0.0629570
16941.7, 0.0699250
16997.2, 0.0777840
17053.1, 0.0858870
17109.4, 0.0949610
17166.1, 0.104522
17223.1, 0.114326
17280.5, 0.123401
17338.3, 0.132557
17396.5, 0.142604
17455.1, 0.151841
17514.0, 0.160025
17573.4, 0.167722
17633.2, 0.173313
17693.4, 0.176149
17754.0, 0.178822
17815.0, 0.180848
17876.4, 0.180443
17938.3, 0.178903
18000.5, 0.178012
18063.3, 0.179390
18126.4, 0.184575
18190.0, 0.191867
18254.1, 0.198349
18318.6, 0.203049
18383.5, 0.204507
18449.0, 0.203373
18514.9, 0.201590
18581.2, 0.198998
18648.0, 0.194217
18715.4, 0.186601
18783.2, 0.178093
18851.5, 0.171449
18920.3, 0.167317
18989.6, 0.165210
19059.4, 0.165939
19129.7, 0.168937
19200.6, 0.168613
19272.0, 0.166183
19343.9, 0.165534
19416.3, 0.168613
19489.3, 0.172016
19562.8, 0.176311
19637.0, 0.178660
19711.6, 0.177526
19786.8, 0.175906
19862.6, 0.174852
19939.0, 0.175095
20016.0, 0.174204
20093.6, 0.172989
20171.8, 0.167236
20250.6, 0.161402
20330.0, 0.157594
20410.0, 0.153056
20490.7, 0.149491
20572.0, 0.147628
20654.0, 0.147628
20736.6, 0.145197
20819.9, 0.142928
20903.8, 0.142604
20988.5, 0.143009
21073.8, 0.143739
21159.8, 0.144630
21246.5, 0.145440
21334.0, 0.145116
21422.1, 0.145359
21511.0, 0.146574
21600.7, 0.149167
21691.0, 0.151517
21782.1, 0.153137
21874.0, 0.152570
21966.7, 0.153137
22060.2, 0.152246
22154.5, 0.149653
22249.6, 0.147304
22345.5, 0.144306
22442.2, 0.136851
22539.8, 0.131018
22638.2, 0.126075
22737.5, 0.121133
22837.7, 0.116838
22938.7, 0.112301
23040.7, 0.106710
23143.5, 0.101524
23247.3, 0.0971490
23352.1, 0.0968250
23457.7, 0.0971490
23564.4, 0.0967440
23672.0, 0.0979590
23780.5, 0.100228
23890.1, 0.0981650
24000.7, 0.0941440
24112.3, 0.0904660
24225.0, 0.0872350
24338.7, 0.0833170
24453.5, 0.0804300
24569.4, 0.0807050
24686.4, 0.0832830
24804.5, 0.0863070
24923.8, 0.0881290
25044.2, 0.0862380
25165.8, 0.0819760
25288.6, 0.0815980
25412.5, 0.0879570
25537.7, 0.0941440
25664.1, 0.0955880
25791.8, 0.0924940
25920.8, 0.0874070
26051.1, 0.0834890
26182.6, 0.0808420
26315.5, 0.0781960
26449.8, 0.0758930
26585.4, 0.0743460
26722.5, 0.0718370
26860.9, 0.0691210
27000.8, 0.0670250
27142.1, 0.0668180
27285.0, 0.0721460
27429.4, 0.0810140
27575.3, 0.0885070
27722.7, 0.0935600
27871.8, 0.0947630
28022.4, 0.0929750
28174.7, 0.0904660
28328.7, 0.0892980
28484.4, 0.0894010
28641.7, 0.0886790
28800.9, 0.0865480
28961.8, 0.0851390
29124.5, 0.0843480
29289.0, 0.0825610
29455.4, 0.0819080
29623.8, 0.0832140
29794.0, 0.0836610
29966.3, 0.0818730
30140.5, 0.0793990
30316.7, 0.0770610
30495.1, 0.0743460
30675.5, 0.0720090
30858.1, 0.0698430
31042.8, 0.0692590
31229.8, 0.0722490
31419.1, 0.0775770
31610.7, 0.0828700
31804.6, 0.0848290
32000.9, 0.0837290
32199.7, 0.0812890
32400.9, 0.0785740
32604.8, 0.0764430
32811.1, 0.0760640
33020.1, 0.0782300
33231.8, 0.0810830
33446.2, 0.0812200
33663.4, 0.0800860
33883.4, 0.0791920
34106.3, 0.0788830
34332.1, 0.0764080
34561.0, 0.0731770
34792.9, 0.0733830
35028.0, 0.0750680
35266.3, 0.0749650
35507.8, 0.0759960
35752.7, 0.0771990
36001.0, 0.0779890
36252.8, 0.0784700
36508.1, 0.0779210
36767.0, 0.0770610
37029.7, 0.0747930
37296.1, 0.0709090
37566.3, 0.0685370
37840.5, 0.0687430
38118.8, 0.0690180
38401.2, 0.0689840
38687.8, 0.0674370
38978.6, 0.0643090
39273.9, 0.0624190
39573.7, 0.0623160
39878.1, 0.0617660
40187.3, 0.0600470
40501.2, 0.0599100
40820.0, 0.0637940
41144.0, 0.0693960
41473.2, 0.0753430
41807.6, 0.0819420
42147.5, 0.0855850
42493.0, 0.0857230
42844.2, 0.0835920
43201.2, 0.0809800
43564.3, 0.0780580
43933.5, 0.0778520
44309.0, 0.0790890
44691.0, 0.0772670
45079.6, 0.0760300
45475.0, 0.0781610
45877.5, 0.0797770
46287.1, 0.0792950
46704.2, 0.0786080
47128.7, 0.0790890
47561.1, 0.0787450
48001.5, 0.0776110
48450.1, 0.0773710
48907.2, 0.0767860
49373.0, 0.0770270
49847.7, 0.0783670
50331.5, 0.0775770
50825.0, 0.0752400
51328.2, 0.0712870
51841.5, 0.0640000
52365.1, 0.0611130
52899.4, 0.0670250
53444.8, 0.0711150
54001.5, 0.0717340
54570.1, 0.0747240
55150.6, 0.0799830
55743.6, 0.0805330
56349.5, 0.0777490
56968.7, 0.0773020
57601.7, 0.0764430
58248.9, 0.0748960
58910.9, 0.0727300
59588.1, 0.0709090
60281.0, 0.0706340
60990.2, 0.0725590
61716.3, 0.0808760
62459.8, 0.0906720
63221.6, 0.0946600
64002.1, 0.0979250
64802.1, 0.0914970
65622.1, 0.0846570
66463.4, 0.0826980
67326.6, 0.0836950
68212.4, 0.0881980
69121.9, 0.0929070
70056.0, 0.0940410
71015.7, 0.0930100
72002.0, 0.0929070
73016.3, 0.0929070
74059.4, 0.0941780
75132.7, 0.0941440
76237.6, 0.0938350
77375.5, 0.0924600
78547.9, 0.0919790
79756.3, 0.0909130
81002.5, 0.0895380
82288.5, 0.0896410
83615.7, 0.0894350
84986.5, 0.0905690
86402.9, 0.0962410
87867.4, 0.0992310
89382.4, 0.0999870
90950.5, 0.104043
92574.6, 0.107686
94257.2, 0.107893
96002.7, 0.106621
97814.1, 0.105418
99695.1, 0.104834
101650.0, 0.106037
103683.0, 0.107515
105799.0, 0.103837
108003.0, 0.103493
110301.0, 0.105418
112699.0, 0.106586
115204.0, 0.109852
117822.0, 0.115008
120562.0, 0.117964
123433.0, 0.123085
126443.0, 0.125147
129604.0, 0.126350
132926.0, 0.130887
136424.0, 0.136524
140111.0, 0.139893
144003.0, 0.153813
148118.0, 0.162922
152474.0, 0.155635
157095.0, 0.153848
162004.0, 0.160516
167231.0, 0.157250
172805.0, 0.162887
178764.0, 0.164503
185148.0, 0.166737
192005.0, 0.190831
199390.0, 0.299755
207366.0, 0.299996
216006.0, 0.243248
