Database of Origin, USGS Spectral Database
Sample Description, See USGS database for additional info
Date Added,2016-08-10 02:41:54.071585

Data ID,USGS_epi02          
Sample ID, epidote_br93-33a.7501
Mineral Name, epidote
Material Class,Sorosilicate

Wavelength
1493.56, 0.450379
1493.99, 0.450448
1494.42, 0.450448
1494.85, 0.449964
1495.29, 0.449756
1495.72, 0.449479
1496.15, 0.449549
1496.58, 0.449687
1497.01, 0.449756
1497.44, 0.449618
1497.88, 0.449341
1498.31, 0.449134
1498.74, 0.449272
1499.18, 0.449203
1499.61, 0.449134
1500.04, 0.448926
1500.48, 0.448788
1500.91, 0.448649
1501.35, 0.448442
1501.78, 0.448442
1502.22, 0.448234
1502.65, 0.448096
1503.09, 0.448234
1503.53, 0.448165
1503.96, 0.447681
1504.4, 0.447612
1504.83, 0.447819
1505.27, 0.447612
1505.71, 0.447197
1506.15, 0.447266
1506.58, 0.447266
1507.02, 0.446989
1507.46, 0.446851
1507.9, 0.446920
1508.34, 0.446713
1508.78, 0.446090
1509.21, 0.445952
1509.66, 0.446228
1510.09, 0.446090
1510.53, 0.445606
1510.97, 0.445606
1511.42, 0.445744
1511.86, 0.445537
1512.3, 0.444983
1512.74, 0.444637
1513.18, 0.444637
1513.62, 0.444776
1514.06, 0.444568
1514.51, 0.443946
1514.95, 0.443738
1515.39, 0.443877
1515.83, 0.443392
1516.28, 0.443185
1516.72, 0.443531
1517.16, 0.443254
1517.61, 0.442770
1518.05, 0.442770
1518.5, 0.442424
1518.94, 0.442355
1519.39, 0.442216
1519.83, 0.442009
1520.28, 0.442078
1520.73, 0.442078
1521.17, 0.441871
1521.62, 0.441663
1522.07, 0.441732
1522.51, 0.441732
1522.96, 0.441386
1523.41, 0.441040
1523.85, 0.440625
1524.3, 0.440418
1524.75, 0.440418
1525.2, 0.440349
1525.65, 0.440349
1526.1, 0.440280
1526.55, 0.439934
1527.0, 0.439934
1527.45, 0.439934
1527.9, 0.439657
1528.35, 0.439449
1528.8, 0.439519
1529.25, 0.439380
1529.7, 0.439173
1530.15, 0.438689
1530.6, 0.438481
1531.05, 0.438550
1531.51, 0.438758
1531.96, 0.438758
1532.41, 0.438619
1532.87, 0.438689
1533.32, 0.438619
1533.77, 0.438343
1534.23, 0.438066
1534.68, 0.437928
1535.14, 0.437997
1535.59, 0.437997
1536.05, 0.437720
1536.5, 0.437374
1536.96, 0.437098
1537.41, 0.436959
1537.87, 0.436959
1538.32, 0.436544
1538.78, 0.436683
1539.24, 0.437305
1539.7, 0.437374
1540.15, 0.436890
1540.61, 0.436752
1541.07, 0.436821
1541.53, 0.436890
1541.98, 0.437098
1542.44, 0.437098
1542.9, 0.437098
1543.36, 0.437374
1543.82, 0.437789
1544.28, 0.437859
1544.74, 0.437859
1545.2, 0.438481
1545.66, 0.438896
1546.12, 0.439242
1546.59, 0.439380
1547.05, 0.439657
1547.51, 0.439865
1547.97, 0.440625
1548.43, 0.441317
1548.9, 0.441594
1549.36, 0.442078
1549.82, 0.442770
1550.29, 0.443600
1550.75, 0.444222
1551.21, 0.444499
1551.68, 0.444983
1552.14, 0.445744
1552.61, 0.446505
1553.07, 0.447266
1553.54, 0.447819
1554.0, 0.447889
1554.47, 0.448165
1554.93, 0.448857
1555.4, 0.449549
1555.87, 0.450102
1556.34, 0.450794
1556.8, 0.451624
1557.27, 0.452108
1557.74, 0.452661
1558.21, 0.453353
1558.68, 0.453837
1559.14, 0.454391
1559.61, 0.454667
1560.08, 0.454875
1560.55, 0.454875
1561.02, 0.455497
1561.49, 0.456397
1561.96, 0.456950
1562.43, 0.457158
1562.9, 0.457365
1563.38, 0.457642
1563.85, 0.458057
1564.32, 0.458264
1564.79, 0.458748
1565.26, 0.459094
1565.74, 0.459509
1566.21, 0.459786
1566.68, 0.460270
1567.16, 0.460616
1567.63, 0.460685
1568.1, 0.460824
1568.58, 0.461170
1569.05, 0.461446
1569.53, 0.462276
1570.0, 0.462760
1570.48, 0.462968
1570.96, 0.463521
1571.43, 0.464144
1571.91, 0.464282
1572.39, 0.464144
1572.86, 0.464697
1573.34, 0.465112
1573.82, 0.464974
1574.3, 0.465389
1574.77, 0.465804
1575.25, 0.466081
1575.73, 0.466427
1576.21, 0.466427
1576.69, 0.466842
1577.17, 0.467464
1577.65, 0.467810
1578.13, 0.468156
1578.61, 0.468571
1579.09, 0.469124
1579.57, 0.469263
1580.05, 0.469747
1580.54, 0.470300
1581.02, 0.470508
1581.5, 0.470646
1581.98, 0.470923
1582.47, 0.471061
1582.95, 0.471130
1583.43, 0.471822
1583.92, 0.472860
1584.4, 0.473344
1584.88, 0.473482
1585.37, 0.473482
1585.85, 0.473551
1586.34, 0.473897
1586.82, 0.474451
1587.31, 0.474796
1587.8, 0.475211
1588.28, 0.475419
1588.77, 0.476180
1589.26, 0.476733
1589.74, 0.476802
1590.23, 0.476872
1590.72, 0.477148
1591.21, 0.477494
1591.7, 0.477563
1592.19, 0.477840
1592.67, 0.478532
1593.16, 0.479016
1593.65, 0.479085
1594.14, 0.479569
1594.63, 0.479846
1595.12, 0.479984
1595.61, 0.480192
1596.11, 0.480538
1596.6, 0.480953
1597.09, 0.481299
1597.58, 0.481575
1598.08, 0.481644
1598.57, 0.482198
1599.06, 0.483028
1599.55, 0.483512
1600.05, 0.483443
1600.54, 0.483581
1601.04, 0.484135
1601.53, 0.484826
1602.03, 0.484895
1602.52, 0.484965
1603.02, 0.485034
1603.51, 0.485311
1604.01, 0.485587
1604.5, 0.486210
1605.0, 0.486763
1605.5, 0.486694
1606.0, 0.487040
1606.49, 0.487732
1606.99, 0.488008
1607.49, 0.488147
1607.99, 0.488492
1608.49, 0.488907
1608.99, 0.488769
1609.49, 0.488907
1609.99, 0.489184
1610.49, 0.489392
1610.99, 0.490153
1611.49, 0.490775
1611.99, 0.490775
1612.49, 0.490844
1612.99, 0.491259
1613.49, 0.491674
1614.0, 0.491951
1614.5, 0.492159
1615.0, 0.492366
1615.51, 0.492574
1616.01, 0.492850
1616.51, 0.493127
1617.02, 0.493334
1617.52, 0.493473
1618.03, 0.493957
1618.53, 0.494510
1619.04, 0.494372
1619.54, 0.494234
1620.05, 0.494234
1620.55, 0.494787
1621.06, 0.495755
1621.57, 0.495963
1622.08, 0.495825
1622.58, 0.496032
1623.09, 0.496101
1623.6, 0.496378
1624.11, 0.496724
1624.62, 0.497070
1625.13, 0.497416
1625.64, 0.497277
1626.15, 0.497485
1626.66, 0.498107
1627.17, 0.498522
1627.68, 0.498799
1628.19, 0.499145
1628.7, 0.499076
1629.21, 0.498868
1629.72, 0.499352
1630.24, 0.499768
1630.75, 0.500044
1631.26, 0.500183
1631.78, 0.500459
1632.29, 0.500736
1632.8, 0.501151
1633.32, 0.501358
1633.83, 0.501358
1634.35, 0.501635
1634.86, 0.502189
1635.38, 0.502327
1635.9, 0.502396
1636.41, 0.502534
1636.93, 0.502742
1637.45, 0.503226
1637.96, 0.503295
1638.48, 0.503434
1639.0, 0.503918
1639.52, 0.504540
1640.04, 0.504955
1640.56, 0.504817
1641.08, 0.504886
1641.59, 0.505163
1642.11, 0.505370
1642.63, 0.505924
1643.16, 0.506270
1643.68, 0.506408
1644.2, 0.506339
1644.72, 0.506477
1645.24, 0.506685
1645.76, 0.506823
1646.29, 0.506823
1646.81, 0.507100
1647.33, 0.507515
1647.86, 0.507861
1648.38, 0.507999
1648.9, 0.508276
1649.43, 0.508414
1649.95, 0.508829
1650.48, 0.509175
1651.0, 0.509313
1651.53, 0.509106
1652.06, 0.509175
1652.58, 0.509728
1653.11, 0.509867
1653.64, 0.510143
1654.17, 0.510282
1654.69, 0.510697
1655.22, 0.510697
1655.75, 0.510766
1656.28, 0.511112
1656.81, 0.511596
1657.34, 0.511803
1657.87, 0.511734
1658.4, 0.512080
1658.93, 0.512633
1659.46, 0.512772
1659.99, 0.512772
1660.52, 0.512910
1661.05, 0.512979
1661.59, 0.513048
1662.12, 0.513325
1662.65, 0.513809
1663.19, 0.514017
1663.72, 0.514224
1664.26, 0.514501
1664.79, 0.514916
1665.32, 0.515262
1665.86, 0.515331
1666.39, 0.515608
1666.93, 0.515815
1667.47, 0.515815
1668.0, 0.515954
1668.54, 0.516092
1669.08, 0.516438
1669.61, 0.516715
1670.15, 0.517060
1670.69, 0.517406
1671.23, 0.517614
1671.77, 0.517891
1672.31, 0.518029
1672.85, 0.518098
1673.39, 0.518306
1673.93, 0.518721
1674.47, 0.518859
1675.01, 0.519066
1675.55, 0.519412
1676.09, 0.519551
1676.64, 0.519551
1677.18, 0.519758
1677.72, 0.520242
1678.26, 0.520450
1678.81, 0.520312
1679.35, 0.520381
1679.89, 0.520727
1680.44, 0.521142
1680.98, 0.521280
1681.53, 0.521349
1682.07, 0.521487
1682.62, 0.521972
1683.17, 0.522525
1683.71, 0.522940
1684.26, 0.523078
1684.81, 0.523009
1685.36, 0.523078
1685.9, 0.523563
1686.45, 0.524185
1687.0, 0.524531
1687.55, 0.524739
1688.1, 0.524808
1688.65, 0.525154
1689.2, 0.525569
1689.75, 0.525776
1690.3, 0.526122
1690.85, 0.526329
1691.41, 0.526883
1691.96, 0.527229
1692.51, 0.527298
1693.06, 0.527782
1693.61, 0.528197
1694.17, 0.528266
1694.72, 0.528474
1695.28, 0.528751
1695.83, 0.528958
1696.39, 0.529235
1696.94, 0.529650
1697.5, 0.529857
1698.05, 0.530065
1698.61, 0.530134
1699.17, 0.530480
1699.72, 0.530895
1700.28, 0.530895
1700.84, 0.531172
1701.4, 0.531448
1701.95, 0.531725
1702.51, 0.531863
1703.07, 0.532278
1703.63, 0.532555
1704.19, 0.532832
1704.75, 0.533108
1705.31, 0.533108
1705.88, 0.533177
1706.44, 0.533247
1707.0, 0.533731
1707.56, 0.534146
1708.12, 0.534423
1708.69, 0.534630
1709.25, 0.534838
1709.81, 0.534699
1710.38, 0.535183
1710.94, 0.535529
1711.51, 0.535391
1712.07, 0.535668
1712.64, 0.535944
1713.2, 0.536152
1713.77, 0.536359
1714.34, 0.536429
1714.9, 0.536913
1715.47, 0.536982
1716.04, 0.536982
1716.61, 0.537120
1717.18, 0.537259
1717.74, 0.537674
1718.31, 0.537950
1718.88, 0.538089
1719.45, 0.538158
1720.02, 0.538504
1720.59, 0.538850
1721.17, 0.538919
1721.74, 0.539057
1722.31, 0.539334
1722.88, 0.539403
1723.45, 0.539472
1724.03, 0.539680
1724.6, 0.540026
1725.18, 0.540648
1725.75, 0.540717
1726.33, 0.540371
1726.9, 0.540510
1727.48, 0.541132
1728.05, 0.541340
1728.63, 0.541547
1729.2, 0.541893
1729.78, 0.542032
1730.36, 0.542308
1730.94, 0.542447
1731.51, 0.542447
1732.09, 0.542723
1732.67, 0.543138
1733.25, 0.543415
1733.83, 0.543346
1734.41, 0.543622
1734.99, 0.544107
1735.57, 0.544383
1736.15, 0.544522
1736.73, 0.545006
1737.32, 0.545213
1737.9, 0.545144
1738.48, 0.545283
1739.07, 0.545421
1739.65, 0.545767
1740.23, 0.546044
1740.82, 0.546389
1741.4, 0.546597
1741.99, 0.546666
1742.57, 0.546874
1743.16, 0.547081
1743.74, 0.547427
1744.33, 0.547911
1744.92, 0.548188
1745.51, 0.548326
1746.09, 0.548603
1746.68, 0.548741
1747.27, 0.549018
1747.86, 0.549364
1748.45, 0.549571
1749.04, 0.549710
1749.63, 0.549917
1750.22, 0.550194
1750.81, 0.550678
1751.4, 0.550816
1751.99, 0.551093
1752.59, 0.551301
1753.18, 0.551370
1753.77, 0.551508
1754.37, 0.551785
1754.96, 0.551854
1755.56, 0.552061
1756.15, 0.552476
1756.74, 0.552615
1757.34, 0.553030
1757.94, 0.553445
1758.53, 0.553376
1759.13, 0.553514
1759.73, 0.553791
1760.32, 0.553998
1760.92, 0.554137
1761.52, 0.554413
1762.12, 0.554898
1762.72, 0.555105
1763.32, 0.555105
1763.92, 0.555520
1764.52, 0.555797
1765.12, 0.555935
1765.72, 0.556212
1766.32, 0.556419
1766.92, 0.556696
1767.53, 0.556696
1768.13, 0.556973
1768.73, 0.557664
1769.34, 0.557941
1769.94, 0.558079
1770.55, 0.558287
1771.15, 0.558564
1771.76, 0.558771
1772.36, 0.558771
1772.97, 0.558910
1773.57, 0.559117
1774.18, 0.559463
1774.79, 0.559740
1775.4, 0.559670
1776.0, 0.559947
1776.61, 0.560155
1777.22, 0.560293
1777.83, 0.560500
1778.44, 0.560846
1779.05, 0.560915
1779.66, 0.561192
1780.27, 0.561538
1780.88, 0.561746
1781.5, 0.561953
1782.11, 0.562091
1782.72, 0.562160
1783.33, 0.562160
1783.95, 0.562160
1784.56, 0.562230
1785.18, 0.562506
1785.79, 0.562921
1786.41, 0.562991
1787.02, 0.563198
1787.64, 0.563406
1788.26, 0.563475
1788.87, 0.563544
1789.49, 0.563821
1790.11, 0.564028
1790.73, 0.563890
1791.35, 0.563890
1791.96, 0.564097
1792.58, 0.564443
1793.21, 0.564443
1793.83, 0.564374
1794.45, 0.564720
1795.07, 0.564997
1795.69, 0.564927
1796.31, 0.564997
1796.93, 0.565273
1797.56, 0.565273
1798.18, 0.565204
1798.8, 0.565204
1799.43, 0.565343
1800.05, 0.565619
1800.68, 0.565619
1801.3, 0.565688
1801.93, 0.565758
1802.56, 0.565827
1803.18, 0.565965
1803.81, 0.566173
1804.44, 0.565965
1805.07, 0.565896
1805.7, 0.566034
1806.33, 0.566034
1806.95, 0.566242
1807.58, 0.566311
1808.22, 0.566103
1808.85, 0.565827
1809.48, 0.566034
1810.11, 0.566173
1810.74, 0.566242
1811.38, 0.566173
1812.01, 0.566034
1812.64, 0.565896
1813.28, 0.565688
1813.91, 0.565481
1814.55, 0.565412
1815.18, 0.565135
1815.82, 0.564927
1816.45, 0.564651
1817.09, 0.564236
1817.73, 0.563890
1818.36, 0.563336
1819.0, 0.562783
1819.64, 0.561884
1820.28, 0.561123
1820.92, 0.560500
1821.56, 0.560016
1822.2, 0.559670
1822.84, 0.559117
1823.48, 0.558425
1824.12, 0.557803
1824.76, 0.557457
1825.41, 0.556558
1826.05, 0.555728
1826.69, 0.555589
1827.34, 0.555313
1827.98, 0.554898
1828.63, 0.554759
1829.27, 0.554552
1829.92, 0.554206
1830.56, 0.553722
1831.21, 0.553929
1831.86, 0.554413
1832.5, 0.554759
1833.15, 0.555382
1833.8, 0.556143
1834.45, 0.556627
1835.1, 0.556904
1835.75, 0.557457
1836.4, 0.558287
1837.05, 0.558910
1837.7, 0.559532
1838.35, 0.560224
1839.01, 0.560708
1839.66, 0.560915
1840.31, 0.561607
1840.96, 0.562299
1841.62, 0.562714
1842.27, 0.563198
1842.93, 0.564374
1843.58, 0.565066
1844.24, 0.565619
1844.9, 0.566933
1845.55, 0.567833
1846.21, 0.568179
1846.87, 0.568870
1847.53, 0.569631
1848.18, 0.570254
1848.84, 0.571084
1849.5, 0.571983
1850.16, 0.572605
1850.82, 0.573228
1851.48, 0.573989
1852.14, 0.574404
1852.81, 0.574335
1853.47, 0.574612
1854.13, 0.575027
1854.8, 0.575718
1855.46, 0.575787
1856.12, 0.575787
1856.79, 0.576133
1857.45, 0.576894
1858.12, 0.577171
1858.79, 0.577033
1859.45, 0.576756
1860.12, 0.577102
1860.79, 0.577586
1861.46, 0.578070
1862.12, 0.578139
1862.79, 0.578485
1863.46, 0.578693
1864.13, 0.578693
1864.8, 0.578762
1865.48, 0.578831
1866.15, 0.578900
1866.82, 0.578900
1867.49, 0.578693
1868.16, 0.578900
1868.84, 0.579177
1869.51, 0.579108
1870.19, 0.578624
1870.86, 0.578278
1871.54, 0.578485
1872.21, 0.578278
1872.89, 0.577863
1873.56, 0.577932
1874.24, 0.577932
1874.92, 0.577794
1875.6, 0.577655
1876.28, 0.577240
1876.96, 0.576894
1877.64, 0.576825
1878.32, 0.576756
1879.0, 0.576963
1879.68, 0.577102
1880.36, 0.576756
1881.04, 0.576618
1881.73, 0.576894
1882.41, 0.577448
1883.09, 0.577517
1883.78, 0.577378
1884.46, 0.577863
1885.15, 0.578347
1885.83, 0.578693
1886.52, 0.578969
1887.21, 0.579661
1887.89, 0.580215
1888.58, 0.580699
1889.27, 0.580906
1889.96, 0.581114
1890.65, 0.581667
1891.34, 0.582082
1892.03, 0.582359
1892.72, 0.582981
1893.41, 0.583396
1894.1, 0.583673
1894.79, 0.584088
1895.49, 0.584434
1896.18, 0.584780
1896.87, 0.584711
1897.57, 0.585057
1898.26, 0.585402
1898.96, 0.585057
1899.65, 0.585333
1900.35, 0.585956
1901.05, 0.586440
1901.74, 0.586786
1902.44, 0.586717
1903.14, 0.586924
1903.84, 0.587685
1904.54, 0.587685
1905.24, 0.587270
1905.94, 0.587339
1906.64, 0.587754
1907.34, 0.588238
1908.04, 0.588584
1908.75, 0.588723
1909.45, 0.588930
1910.15, 0.589068
1910.86, 0.589138
1911.56, 0.589068
1912.27, 0.589068
1912.97, 0.588999
1913.68, 0.589276
1914.39, 0.589622
1915.09, 0.589760
1915.8, 0.589553
1916.51, 0.589829
1917.22, 0.589968
1917.93, 0.590175
1918.64, 0.590383
1919.35, 0.590175
1920.06, 0.589968
1920.77, 0.590037
1921.48, 0.590798
1922.19, 0.591282
1922.91, 0.591074
1923.62, 0.591074
1924.33, 0.591213
1925.05, 0.591213
1925.76, 0.591213
1926.48, 0.591144
1927.19, 0.591005
1927.91, 0.590936
1928.63, 0.591005
1929.35, 0.591074
1930.07, 0.591074
1930.78, 0.591074
1931.5, 0.590867
1932.22, 0.590521
1932.94, 0.590383
1933.66, 0.590244
1934.39, 0.590175
1935.11, 0.590106
1935.83, 0.589899
1936.55, 0.589414
1937.28, 0.589276
1938.0, 0.588792
1938.73, 0.588031
1939.45, 0.587478
1940.18, 0.586855
1940.9, 0.586163
1941.63, 0.585472
1942.36, 0.584987
1943.09, 0.584088
1943.81, 0.583258
1944.54, 0.582705
1945.27, 0.581875
1946.0, 0.580906
1946.73, 0.580560
1947.47, 0.580353
1948.2, 0.579938
1948.93, 0.579523
1949.66, 0.579592
1950.4, 0.580007
1951.13, 0.580353
1951.86, 0.580768
1952.6, 0.581321
1953.34, 0.582082
1954.07, 0.583120
1954.81, 0.583811
1955.55, 0.584503
1956.29, 0.585333
1957.02, 0.586302
1957.76, 0.587270
1958.5, 0.588031
1959.24, 0.588653
1959.98, 0.589345
1960.72, 0.589968
1961.47, 0.590590
1962.21, 0.591074
1962.95, 0.591420
1963.7, 0.592043
1964.44, 0.592804
1965.18, 0.593288
1965.93, 0.593911
1966.67, 0.594602
1967.42, 0.595017
1968.17, 0.595363
1968.92, 0.595640
1969.66, 0.595986
1970.41, 0.596470
1971.16, 0.596954
1971.91, 0.597300
1972.66, 0.597369
1973.41, 0.597853
1974.16, 0.598545
1974.92, 0.599029
1975.67, 0.598960
1976.42, 0.599237
1977.18, 0.599513
1977.93, 0.599583
1978.69, 0.599652
1979.44, 0.599652
1980.2, 0.599928
1980.95, 0.600067
1981.71, 0.600136
1982.47, 0.600343
1983.23, 0.600551
1983.99, 0.600551
1984.74, 0.600413
1985.51, 0.600620
1986.27, 0.600758
1987.03, 0.600758
1987.79, 0.600413
1988.55, 0.599998
1989.32, 0.599928
1990.08, 0.600067
1990.84, 0.600274
1991.61, 0.600136
1992.37, 0.600067
1993.14, 0.600205
1993.9, 0.600205
1994.67, 0.600205
1995.44, 0.600482
1996.21, 0.600828
1996.98, 0.601035
1997.75, 0.600758
1998.52, 0.600551
1999.29, 0.600897
2000.06, 0.601104
2000.83, 0.601035
2001.6, 0.601035
2002.38, 0.601104
2003.15, 0.601519
2003.93, 0.601865
2004.7, 0.601865
2005.48, 0.601934
2006.25, 0.602211
2007.03, 0.601934
2007.81, 0.601727
2008.58, 0.602073
2009.36, 0.602349
2010.14, 0.602211
2010.92, 0.602142
2011.7, 0.602211
2012.48, 0.602349
2013.26, 0.602557
2014.05, 0.602626
2014.83, 0.602834
2015.61, 0.602903
2016.4, 0.602903
2017.18, 0.602972
2017.97, 0.602903
2018.75, 0.602695
2019.54, 0.602834
2020.32, 0.602834
2021.11, 0.602834
2021.9, 0.603110
2022.69, 0.603110
2023.48, 0.602903
2024.27, 0.602972
2025.06, 0.603180
2025.85, 0.603318
2026.64, 0.603525
2027.44, 0.603664
2028.23, 0.603940
2029.02, 0.604356
2029.82, 0.604356
2030.61, 0.604356
2031.41, 0.604840
2032.2, 0.604978
2033.0, 0.605116
2033.8, 0.605739
2034.6, 0.605946
2035.4, 0.606016
2036.2, 0.606016
2037.0, 0.606361
2037.8, 0.606500
2038.6, 0.606638
2039.4, 0.606776
2040.2, 0.606984
2041.01, 0.607122
2041.81, 0.607192
2042.61, 0.606984
2043.42, 0.606984
2044.22, 0.607330
2045.03, 0.607537
2045.84, 0.607607
2046.65, 0.607607
2047.46, 0.607814
2048.26, 0.607814
2049.07, 0.607745
2049.88, 0.607676
2050.69, 0.607537
2051.51, 0.607745
2052.32, 0.607952
2053.13, 0.607814
2053.94, 0.607745
2054.76, 0.607676
2055.57, 0.607814
2056.39, 0.607814
2057.2, 0.607537
2058.02, 0.607537
2058.84, 0.607537
2059.66, 0.607607
2060.48, 0.607607
2061.29, 0.607745
2062.11, 0.607814
2062.94, 0.607814
2063.76, 0.607814
2064.58, 0.607607
2065.4, 0.607745
2066.22, 0.608022
2067.05, 0.607952
2067.87, 0.607745
2068.7, 0.607537
2069.52, 0.607468
2070.35, 0.607607
2071.18, 0.607745
2072.0, 0.607814
2072.83, 0.607468
2073.66, 0.607330
2074.49, 0.607537
2075.32, 0.607468
2076.15, 0.607330
2076.98, 0.607399
2077.82, 0.607468
2078.65, 0.607399
2079.48, 0.607261
2080.32, 0.607053
2081.15, 0.607122
2081.99, 0.607192
2082.83, 0.606915
2083.66, 0.606638
2084.5, 0.606776
2085.34, 0.606776
2086.18, 0.606846
2087.02, 0.606915
2087.86, 0.606707
2088.7, 0.606569
2089.54, 0.606569
2090.39, 0.606638
2091.23, 0.606707
2092.07, 0.606431
2092.92, 0.606500
2093.76, 0.606569
2094.61, 0.606292
2095.45, 0.606085
2096.3, 0.606154
2097.15, 0.605946
2098.0, 0.605808
2098.85, 0.605808
2099.7, 0.605601
2100.55, 0.605462
2101.4, 0.605601
2102.25, 0.605393
2103.1, 0.605255
2103.96, 0.605255
2104.81, 0.605255
2105.67, 0.605186
2106.52, 0.605047
2107.38, 0.604909
2108.24, 0.604909
2109.09, 0.604978
2109.95, 0.604978
2110.81, 0.605047
2111.67, 0.604978
2112.53, 0.604771
2113.39, 0.604494
2114.25, 0.604632
2115.12, 0.604632
2115.98, 0.604563
2116.84, 0.604494
2117.71, 0.604494
2118.58, 0.604701
2119.44, 0.604632
2120.31, 0.604217
2121.18, 0.604356
2122.04, 0.604494
2122.91, 0.604563
2123.78, 0.604632
2124.65, 0.604494
2125.52, 0.604563
2126.4, 0.604494
2127.27, 0.604494
2128.14, 0.604356
2129.02, 0.604286
2129.89, 0.604356
2130.77, 0.604494
2131.64, 0.604771
2132.52, 0.604701
2133.4, 0.604632
2134.27, 0.604425
2135.15, 0.604425
2136.03, 0.604771
2136.91, 0.604632
2137.79, 0.604494
2138.68, 0.604632
2139.56, 0.604632
2140.44, 0.604563
2141.33, 0.604632
2142.21, 0.604632
2143.1, 0.604563
2143.99, 0.604494
2144.87, 0.604632
2145.76, 0.604632
2146.65, 0.604425
2147.54, 0.604217
2148.43, 0.603940
2149.32, 0.603871
2150.21, 0.603871
2151.1, 0.603940
2151.99, 0.603664
2152.89, 0.603318
2153.78, 0.603110
2154.68, 0.603041
2155.57, 0.602765
2156.47, 0.602626
2157.37, 0.602349
2158.27, 0.602142
2159.16, 0.601865
2160.06, 0.601658
2160.96, 0.601312
2161.86, 0.601035
2162.77, 0.601035
2163.67, 0.600689
2164.57, 0.600136
2165.48, 0.599583
2166.38, 0.599306
2167.29, 0.598960
2168.2, 0.598407
2169.1, 0.597923
2170.01, 0.597369
2170.92, 0.596885
2171.83, 0.596539
2172.74, 0.596124
2173.65, 0.595363
2174.56, 0.594671
2175.47, 0.594187
2176.39, 0.593565
2177.3, 0.593357
2178.22, 0.592873
2179.13, 0.592181
2180.05, 0.591559
2180.96, 0.591074
2181.88, 0.590659
2182.8, 0.590244
2183.72, 0.589760
2184.64, 0.589345
2185.56, 0.588861
2186.48, 0.588377
2187.41, 0.587823
2188.33, 0.587270
2189.25, 0.586509
2190.18, 0.585748
2191.1, 0.585057
2192.03, 0.584641
2192.96, 0.584157
2193.89, 0.583604
2194.82, 0.582981
2195.74, 0.582290
2196.68, 0.581598
2197.61, 0.580975
2198.54, 0.580076
2199.47, 0.579246
2200.4, 0.578416
2201.34, 0.577586
2202.28, 0.576825
2203.21, 0.575926
2204.15, 0.575372
2205.08, 0.574542
2206.02, 0.573920
2206.96, 0.573436
2207.9, 0.573021
2208.84, 0.572605
2209.78, 0.572260
2210.73, 0.571845
2211.67, 0.570945
2212.61, 0.570115
2213.56, 0.569631
2214.5, 0.568939
2215.45, 0.568179
2216.4, 0.567418
2217.35, 0.566449
2218.3, 0.565481
2219.24, 0.564374
2220.2, 0.563129
2221.15, 0.561746
2222.1, 0.560362
2223.05, 0.558564
2224.0, 0.556765
2224.96, 0.555174
2225.91, 0.553376
2226.87, 0.551093
2227.83, 0.548672
2228.79, 0.546044
2229.74, 0.542931
2230.7, 0.539887
2231.66, 0.536636
2232.63, 0.532970
2233.59, 0.528820
2234.55, 0.524185
2235.51, 0.519274
2236.48, 0.513602
2237.44, 0.507446
2238.41, 0.500805
2239.38, 0.493957
2240.34, 0.486763
2241.31, 0.479362
2242.28, 0.472375
2243.25, 0.465458
2244.22, 0.458333
2245.19, 0.450794
2246.17, 0.443185
2247.14, 0.435368
2248.12, 0.427344
2249.09, 0.419874
2250.07, 0.413718
2251.04, 0.409152
2252.02, 0.406731
2253.0, 0.406593
2253.98, 0.407976
2254.96, 0.410743
2255.94, 0.414893
2256.92, 0.419735
2257.91, 0.424508
2258.89, 0.429005
2259.88, 0.433501
2260.86, 0.437789
2261.85, 0.441525
2262.83, 0.445191
2263.82, 0.448788
2264.81, 0.452108
2265.8, 0.455221
2266.79, 0.457988
2267.78, 0.460478
2268.78, 0.462760
2269.77, 0.464559
2270.76, 0.466357
2271.76, 0.467672
2272.75, 0.468502
2273.75, 0.468848
2274.75, 0.469124
2275.75, 0.468986
2276.75, 0.468642
2277.75, 0.467680
2278.75, 0.465892
2279.75, 0.463486
2280.75, 0.460599
2281.76, 0.458124
2282.76, 0.455443
2283.77, 0.451662
2284.77, 0.448156
2285.78, 0.444787
2286.79, 0.441487
2287.8, 0.438188
2288.81, 0.434682
2289.82, 0.431726
2290.83, 0.428769
2291.84, 0.425470
2292.86, 0.422376
2293.87, 0.419214
2294.89, 0.416120
2295.91, 0.413027
2296.92, 0.408627
2297.94, 0.404158
2298.96, 0.399965
2299.98, 0.394603
2301.0, 0.388690
2302.02, 0.382710
2303.04, 0.376179
2304.07, 0.369716
2305.09, 0.362979
2306.12, 0.355349
2307.15, 0.348130
2308.17, 0.341874
2309.2, 0.335137
2310.23, 0.327369
2311.26, 0.320219
2312.29, 0.313895
2313.32, 0.308326
2314.35, 0.302483
2315.39, 0.296571
2316.42, 0.291346
2317.46, 0.286327
2318.5, 0.281103
2319.53, 0.276016
2320.57, 0.271066
2321.61, 0.265910
2322.65, 0.260341
2323.69, 0.255254
2324.73, 0.250305
2325.78, 0.244874
2326.82, 0.239168
2327.86, 0.233805
2328.91, 0.228581
2329.96, 0.223700
2331.01, 0.219575
2332.05, 0.215725
2333.1, 0.212838
2334.15, 0.210432
2335.21, 0.208713
2336.26, 0.206995
2337.31, 0.205620
2338.36, 0.205207
2339.42, 0.205688
2340.48, 0.207269
2341.53, 0.208919
2342.59, 0.211257
2343.65, 0.214900
2344.71, 0.219506
2345.77, 0.224662
2346.83, 0.230918
2347.9, 0.237655
2348.96, 0.244942
2350.02, 0.252642
2351.09, 0.261235
2352.16, 0.270997
2353.23, 0.281309
2354.29, 0.291346
2355.36, 0.301658
2356.43, 0.312795
2357.51, 0.324069
2358.58, 0.335206
2359.65, 0.346412
2360.73, 0.357342
2361.8, 0.367792
2362.88, 0.377966
2363.96, 0.387522
2365.03, 0.396940
2366.11, 0.406014
2367.19, 0.414745
2368.27, 0.422239
2369.36, 0.429388
2370.44, 0.436194
2371.53, 0.442381
2372.61, 0.448362
2373.7, 0.453930
2374.78, 0.459086
2375.87, 0.464105
2376.96, 0.468780
2378.05, 0.473317
2379.14, 0.477510
2380.24, 0.481635
2381.33, 0.485554
2382.42, 0.489335
2383.52, 0.493528
2384.61, 0.497859
2385.71, 0.501297
2386.81, 0.504115
2387.91, 0.506521
2389.01, 0.509477
2390.11, 0.512296
2391.22, 0.514565
2392.32, 0.517246
2393.42, 0.519445
2394.53, 0.521233
2395.64, 0.523020
2396.74, 0.525083
2397.85, 0.526664
2398.96, 0.528176
2400.07, 0.529482
2401.18, 0.530720
2402.3, 0.532164
2403.41, 0.533470
2404.52, 0.535188
2405.64, 0.536838
2406.76, 0.537457
2407.88, 0.537938
2408.99, 0.538763
2410.11, 0.539657
2411.23, 0.540344
2412.36, 0.541376
2413.48, 0.541925
2414.6, 0.541994
2415.73, 0.542269
2416.85, 0.542819
2417.98, 0.543300
2419.11, 0.543575
2420.24, 0.543988
2421.37, 0.543919
2422.5, 0.544332
2423.64, 0.545019
2424.77, 0.544882
2425.9, 0.544950
2427.04, 0.545019
2428.18, 0.544744
2429.31, 0.544607
2430.45, 0.544400
2431.59, 0.543988
2432.73, 0.543850
2433.88, 0.543644
2435.02, 0.543025
2436.16, 0.542338
2437.31, 0.541925
2438.45, 0.541582
2439.6, 0.541032
2440.75, 0.540138
2441.9, 0.539519
2443.05, 0.539176
2444.2, 0.538488
2445.35, 0.537732
2446.51, 0.536976
2447.67, 0.536494
2448.82, 0.535876
2449.98, 0.534776
2451.14, 0.533745
2452.3, 0.532851
2453.46, 0.532232
2454.62, 0.532026
2455.78, 0.531132
2456.94, 0.530239
2458.11, 0.529482
2459.28, 0.528657
2460.44, 0.527901
2461.61, 0.527008
2462.78, 0.525770
2463.95, 0.524876
2465.12, 0.524189
2466.3, 0.523433
2467.47, 0.522539
2468.65, 0.522058
2469.82, 0.521233
2471.0, 0.520339
2472.18, 0.519308
2473.36, 0.518414
2474.54, 0.517521
2475.72, 0.516421
2476.9, 0.515458
2478.08, 0.514358
2479.27, 0.512708
2480.46, 0.511402
2481.64, 0.510165
2482.83, 0.508102
2484.02, 0.506727
2485.21, 0.505971
2486.4, 0.504665
2487.6, 0.503290
2488.79, 0.502259
2489.99, 0.501159
2491.18, 0.500059
2492.38, 0.498822
2493.58, 0.497516
2494.78, 0.496278
2495.98, 0.494972
2497.18, 0.493185
2498.39, 0.491397
2499.59, 0.490160
2500.8, 0.488785
2502.01, 0.486997
2503.21, 0.485072
2504.42, 0.483629
2505.63, 0.482666
2506.84, 0.481498
2508.06, 0.480260
2509.27, 0.478954
2510.49, 0.477923
2511.7, 0.477442
2512.92, 0.476892
2514.14, 0.476410
2515.36, 0.476204
2516.58, 0.475585
2517.8, 0.474692
2519.03, 0.474211
2520.25, 0.474073
2521.48, 0.473798
2522.7, 0.473179
2523.93, 0.472561
2525.16, 0.472217
2526.39, 0.471736
2527.62, 0.471117
2528.86, 0.470498
2530.09, 0.470017
2531.33, 0.469192
2532.56, 0.468642
2533.8, 0.468780
2535.04, 0.468780
2536.28, 0.468161
2537.52, 0.467611
2538.76, 0.467336
2540.01, 0.466924
2541.25, 0.466924
2542.5, 0.466511
2543.75, 0.465686
2544.99, 0.464999
2546.24, 0.464655
2547.49, 0.464517
2548.75, 0.464586
2550.0, 0.464586
2551.26, 0.464655
2552.51, 0.464380
2553.77, 0.464174
2555.03, 0.464449
2556.29, 0.464517
2557.55, 0.464517
2558.81, 0.464724
2560.08, 0.464724
2561.34, 0.464586
2562.61, 0.464311
2563.88, 0.464105
2565.14, 0.463761
2566.41, 0.463761
2567.68, 0.463899
2568.96, 0.463761
2570.23, 0.463280
2571.51, 0.463211
2572.78, 0.463280
2574.06, 0.462799
2575.34, 0.463142
2576.62, 0.463761
2577.9, 0.463555
2579.18, 0.463211
2580.47, 0.462867
2581.75, 0.462249
2583.04, 0.461974
2584.32, 0.461011
2585.61, 0.459911
2586.9, 0.459361
2588.2, 0.458674
2589.49, 0.458055
2590.78, 0.457162
2592.08, 0.456337
2593.37, 0.455374
2594.67, 0.453243
2595.97, 0.451043
2597.27, 0.450287
2598.57, 0.449737
2599.88, 0.448912
2601.18, 0.447881
2602.49, 0.446437
2603.79, 0.444719
2605.1, 0.443000
2606.41, 0.441694
2607.72, 0.440731
2609.03, 0.439838
2610.35, 0.439081
2611.66, 0.438188
2612.98, 0.437088
2614.3, 0.436331
2615.62, 0.436194
2616.94, 0.435300
2618.26, 0.434200
2619.58, 0.433650
2620.91, 0.432825
2622.23, 0.432138
2623.56, 0.431726
2624.89, 0.430969
2626.22, 0.430351
2627.55, 0.429182
2628.88, 0.428563
2630.21, 0.427669
2631.55, 0.426226
2632.89, 0.425882
2634.22, 0.425126
2635.56, 0.423888
2636.9, 0.423270
2638.25, 0.422651
2639.59, 0.422032
2640.93, 0.421345
2642.28, 0.420314
2643.63, 0.419214
2644.98, 0.418457
2646.33, 0.417426
2647.68, 0.416808
2649.03, 0.416189
2650.39, 0.415433
2651.74, 0.414470
2653.1, 0.413302
2654.46, 0.412270
2655.82, 0.411033
2657.18, 0.409108
2658.54, 0.407664
2659.9, 0.405533
2661.27, 0.402852
2662.64, 0.400240
2664.01, 0.398040
2665.38, 0.394671
2666.74, 0.391509
2668.12, 0.388347
2669.49, 0.386147
2670.87, 0.382710
2672.24, 0.379547
2673.62, 0.377347
2675.0, 0.374941
2676.38, 0.372466
2677.76, 0.369923
2679.15, 0.367654
2680.54, 0.365798
2681.92, 0.364561
2683.31, 0.362842
2684.7, 0.361329
2686.09, 0.360092
2687.48, 0.358373
2688.88, 0.356380
2690.27, 0.354524
2691.67, 0.352942
2693.07, 0.351155
2694.47, 0.348818
2695.87, 0.346137
2697.27, 0.343387
2698.67, 0.340568
2700.08, 0.337750
2701.49, 0.334793
2702.9, 0.331494
2704.31, 0.328125
2705.72, 0.324825
2707.13, 0.321869
2708.54, 0.318707
2709.96, 0.315338
2711.38, 0.311832
2712.8, 0.308120
2714.22, 0.304889
2715.64, 0.301864
2717.06, 0.299183
2718.49, 0.296296
2719.91, 0.293271
2721.34, 0.289627
2722.77, 0.286946
2724.2, 0.284815
2725.63, 0.282203
2727.07, 0.280072
2728.5, 0.278765
2729.94, 0.277322
2731.38, 0.275328
2732.82, 0.273472
2734.26, 0.271478
2735.7, 0.269141
2737.15, 0.266941
2738.59, 0.264741
2740.04, 0.262060
2741.49, 0.259242
2742.94, 0.256698
2744.39, 0.254292
2745.84, 0.251817
2747.3, 0.248998
2748.76, 0.246042
2750.21, 0.243705
2751.67, 0.241161
2753.14, 0.238068
2754.6, 0.235387
2756.06, 0.232156
2757.53, 0.228787
2759.0, 0.225831
2760.46, 0.222737
2761.94, 0.219575
2763.41, 0.216275
2764.88, 0.212907
2766.36, 0.209538
2767.83, 0.205826
2769.31, 0.202457
2770.79, 0.199226
2772.27, 0.195995
2773.76, 0.193039
2775.24, 0.190358
2776.73, 0.187883
2778.22, 0.185546
2779.71, 0.183483
2781.2, 0.181902
2782.69, 0.180665
2784.18, 0.179221
2785.68, 0.177915
2787.18, 0.176540
2788.68, 0.174753
2790.18, 0.173515
2791.68, 0.172415
2793.19, 0.171040
2794.69, 0.169803
2796.2, 0.168290
2797.71, 0.165609
2799.22, 0.162103
2800.73, 0.159010
2802.24, 0.157429
2803.76, 0.157154
2805.28, 0.156672
2806.8, 0.155572
2808.32, 0.154197
2809.84, 0.152616
2811.36, 0.150554
2812.89, 0.148010
2814.42, 0.144986
2815.94, 0.141548
2817.48, 0.138730
2819.01, 0.137011
2820.54, 0.135705
2822.08, 0.134261
2823.61, 0.132817
2825.15, 0.131030
2826.69, 0.128761
2828.23, 0.126562
2829.78, 0.124224
2831.32, 0.122093
2832.87, 0.119756
2834.42, 0.117556
2835.97, 0.115837
2837.52, 0.114119
2839.08, 0.112194
2840.63, 0.110475
2842.19, 0.109031
2843.75, 0.107588
2845.31, 0.106419
2846.87, 0.105525
2848.44, 0.104494
2850.0, 0.103188
2851.57, 0.101950
2853.14, 0.101263
2854.71, 0.100301
2856.28, 0.0993380
2857.86, 0.0985130
2859.43, 0.0976880
2861.01, 0.0970010
2862.59, 0.0964510
2864.17, 0.0956950
2865.76, 0.0949380
2867.34, 0.0944570
2868.93, 0.0941130
2870.52, 0.0935630
2872.11, 0.0930820
2873.7, 0.0925320
2875.29, 0.0919820
2876.89, 0.0916390
2878.49, 0.0912950
2880.08, 0.0910200
2881.69, 0.0908820
2883.29, 0.0908140
2884.89, 0.0906070
2886.5, 0.0904700
2888.11, 0.0901950
2889.72, 0.0899200
2891.33, 0.0897820
2892.94, 0.0895760
2894.56, 0.0895070
2896.17, 0.0892320
2897.79, 0.0889570
2899.42, 0.0888200
2901.04, 0.0886820
2902.66, 0.0884760
2904.29, 0.0882700
2905.92, 0.0880640
2907.55, 0.0878580
2909.18, 0.0876510
2910.81, 0.0874450
2912.45, 0.0869640
2914.08, 0.0860700
2915.72, 0.0854510
2917.36, 0.0850390
2919.01, 0.0844200
2920.65, 0.0838700
2922.3, 0.0833200
2923.94, 0.0826330
2925.59, 0.0819450
2927.25, 0.0812580
2928.9, 0.0806390
2930.56, 0.0798140
2932.21, 0.0792640
2933.87, 0.0785080
2935.53, 0.0775460
2937.2, 0.0769960
2938.86, 0.0765140
2940.53, 0.0759640
2942.2, 0.0754830
2943.87, 0.0753460
2945.54, 0.0753460
2947.22, 0.0756890
2948.89, 0.0761710
2950.57, 0.0767890
2952.25, 0.0776140
2953.93, 0.0786460
2955.62, 0.0796770
2957.3, 0.0809140
2958.99, 0.0821520
2960.68, 0.0835270
2962.37, 0.0846950
2964.07, 0.0856580
2965.76, 0.0862760
2967.46, 0.0868260
2969.16, 0.0873760
2970.86, 0.0877200
2972.56, 0.0877890
2974.27, 0.0878580
2975.98, 0.0876510
2977.69, 0.0875830
2979.4, 0.0875140
2981.11, 0.0873760
2982.83, 0.0872390
2984.54, 0.0872390
2986.26, 0.0875140
2987.98, 0.0877200
2989.71, 0.0877890
2991.43, 0.0879950
2993.16, 0.0881320
2994.89, 0.0884070
2996.62, 0.0887510
2998.35, 0.0890950
3000.09, 0.0893010
3001.83, 0.0896450
3003.57, 0.0898510
3005.31, 0.0900570
3007.05, 0.0901950
3008.79, 0.0902640
3010.54, 0.0904010
3012.29, 0.0905390
3014.04, 0.0904700
3015.8, 0.0904010
3017.55, 0.0904010
3019.31, 0.0904700
3021.07, 0.0904700
3022.83, 0.0904700
3024.59, 0.0904010
3026.36, 0.0902640
3028.13, 0.0902640
3029.9, 0.0904700
3031.67, 0.0905390
3033.44, 0.0904700
3035.22, 0.0906760
3037.0, 0.0907450
3038.78, 0.0908820
3040.56, 0.0910200
3042.34, 0.0908820
3044.13, 0.0909510
3045.92, 0.0911570
3047.71, 0.0910890
3049.5, 0.0910890
3051.3, 0.0912260
3053.09, 0.0912950
3054.89, 0.0913640
3056.69, 0.0915010
3058.5, 0.0914320
3060.3, 0.0914320
3062.11, 0.0917760
3063.92, 0.0917760
3065.73, 0.0917070
3067.55, 0.0918450
3069.36, 0.0921200
3071.18, 0.0921890
3073.0, 0.0923260
3074.82, 0.0924640
3076.65, 0.0927380
3078.48, 0.0928760
3080.31, 0.0931510
3082.14, 0.0934260
3083.97, 0.0936320
3085.8, 0.0941130
3087.64, 0.0944570
3089.48, 0.0948010
3091.33, 0.0954200
3093.17, 0.0957630
3095.02, 0.0961070
3096.87, 0.0968630
3098.72, 0.0974820
3100.57, 0.0981010
3102.43, 0.0988570
3104.28, 0.0995440
3106.14, 0.100232
3108.01, 0.100988
3109.87, 0.101950
3111.74, 0.102982
3113.61, 0.103944
3115.48, 0.105044
3117.35, 0.106144
3119.23, 0.107038
3121.1, 0.108000
3122.98, 0.109031
3124.87, 0.109994
3126.75, 0.111025
3128.64, 0.112125
3130.53, 0.113225
3132.42, 0.114187
3134.31, 0.115012
3136.21, 0.115631
3138.11, 0.116318
3140.01, 0.116937
3141.91, 0.117556
3143.82, 0.118243
3145.73, 0.118862
3147.64, 0.119274
3149.55, 0.119618
3151.46, 0.120168
3153.38, 0.120512
3155.3, 0.120856
3157.22, 0.121337
3159.14, 0.121887
3161.07, 0.122437
3163.0, 0.122918
3164.93, 0.123262
3166.86, 0.123743
3168.8, 0.124293
3170.74, 0.124705
3172.68, 0.125393
3174.62, 0.126287
3176.56, 0.127387
3178.51, 0.128555
3180.46, 0.129724
3182.42, 0.130824
3184.37, 0.131993
3186.33, 0.133230
3188.29, 0.134467
3190.25, 0.135774
3192.21, 0.137148
3194.18, 0.138661
3196.15, 0.140036
3198.12, 0.141342
3200.09, 0.142786
3202.07, 0.144092
3204.05, 0.145260
3206.03, 0.146360
3208.02, 0.147598
3210.0, 0.148767
3211.99, 0.149935
3213.98, 0.151448
3215.98, 0.152754
3217.97, 0.153648
3219.97, 0.154747
3221.97, 0.155779
3223.98, 0.156810
3225.98, 0.157841
3227.99, 0.158735
3230.0, 0.159422
3232.02, 0.159972
3234.03, 0.160660
3236.05, 0.161278
3238.07, 0.161760
3240.1, 0.162241
3242.12, 0.162791
3244.15, 0.163341
3246.18, 0.163891
3248.22, 0.164166
3250.25, 0.164578
3252.29, 0.165128
3254.33, 0.165678
3256.38, 0.166228
3258.43, 0.166916
3260.47, 0.167809
3262.53, 0.168909
3264.58, 0.170009
3266.64, 0.171315
3268.7, 0.172621
3270.76, 0.174203
3272.82, 0.175921
3274.89, 0.177571
3276.96, 0.179496
3279.04, 0.181352
3281.11, 0.183277
3283.19, 0.185339
3285.27, 0.187402
3287.35, 0.189396
3289.44, 0.191183
3291.53, 0.192833
3293.62, 0.194414
3295.71, 0.195995
3297.81, 0.197439
3299.91, 0.198676
3302.01, 0.199845
3304.11, 0.200807
3306.22, 0.201701
3308.33, 0.202801
3310.44, 0.203901
3312.56, 0.204795
3314.68, 0.205826
3316.8, 0.206720
3318.92, 0.207613
3321.05, 0.208576
3323.18, 0.209538
3325.31, 0.210432
3327.44, 0.211532
3329.58, 0.212632
3331.72, 0.213732
3333.86, 0.214763
3336.01, 0.215863
3338.16, 0.217169
3340.31, 0.218269
3342.46, 0.219231
3344.61, 0.220469
3346.77, 0.221500
3348.94, 0.222394
3351.1, 0.223494
3353.27, 0.224731
3355.44, 0.225968
3357.61, 0.226931
3359.79, 0.227893
3361.97, 0.228993
3364.15, 0.230024
3366.33, 0.231056
3368.52, 0.231881
3370.71, 0.232568
3372.9, 0.233324
3375.1, 0.233943
3377.3, 0.234424
3379.5, 0.234699
3381.71, 0.234837
3383.91, 0.234837
3386.12, 0.234562
3388.34, 0.234355
3390.55, 0.234149
3392.77, 0.233668
3394.99, 0.233256
3397.22, 0.232843
3399.45, 0.232431
3401.68, 0.232087
3403.91, 0.231812
3406.15, 0.231606
3408.39, 0.231606
3410.63, 0.231606
3412.87, 0.231881
3415.12, 0.232293
3417.37, 0.232843
3419.63, 0.233737
3421.88, 0.234630
3424.14, 0.235593
3426.41, 0.236968
3428.67, 0.238549
3430.94, 0.240199
3433.21, 0.241643
3435.49, 0.243017
3437.77, 0.244324
3440.05, 0.245699
3442.33, 0.247005
3444.62, 0.248380
3446.91, 0.249617
3449.2, 0.250855
3451.5, 0.251954
3453.8, 0.252917
3456.1, 0.253948
3458.41, 0.254911
3460.72, 0.255598
3463.03, 0.256492
3465.34, 0.257454
3467.66, 0.258417
3469.98, 0.259242
3472.31, 0.260204
3474.63, 0.261373
3476.96, 0.262610
3479.3, 0.263848
3481.64, 0.265222
3483.97, 0.266460
3486.32, 0.267697
3488.66, 0.269141
3491.01, 0.270585
3493.36, 0.271960
3495.72, 0.273197
3498.08, 0.274434
3500.44, 0.275741
3502.81, 0.277047
3505.18, 0.278353
3507.55, 0.279728
3509.92, 0.281240
3512.3, 0.282821
3514.68, 0.284334
3517.06, 0.285778
3519.45, 0.286946
3521.84, 0.287771
3524.24, 0.288734
3526.64, 0.289902
3529.04, 0.290796
3531.44, 0.291552
3533.85, 0.292308
3536.26, 0.292927
3538.67, 0.293615
3541.09, 0.294371
3543.51, 0.295127
3545.93, 0.295814
3548.36, 0.296433
3550.79, 0.297052
3553.22, 0.297671
3555.66, 0.298358
3558.1, 0.299046
3560.54, 0.299527
3562.99, 0.300008
3565.44, 0.300489
3567.9, 0.301177
3570.35, 0.301795
3572.81, 0.302208
3575.28, 0.302758
3577.75, 0.303308
3580.22, 0.303789
3582.69, 0.304339
3585.17, 0.305026
3587.65, 0.305645
3590.14, 0.306264
3592.62, 0.306883
3595.11, 0.307364
3597.61, 0.307914
3600.11, 0.308670
3602.61, 0.309426
3605.11, 0.310045
3607.62, 0.310595
3610.14, 0.311145
3612.65, 0.311901
3615.17, 0.312451
3617.69, 0.312795
3620.22, 0.313070
3622.75, 0.313551
3625.28, 0.314032
3627.82, 0.314376
3630.36, 0.314513
3632.9, 0.314720
3635.45, 0.314995
3638.0, 0.315132
3640.56, 0.315132
3643.12, 0.315132
3645.68, 0.314926
3648.24, 0.314720
3650.81, 0.314376
3653.39, 0.314032
3655.96, 0.313620
3658.54, 0.313138
3661.13, 0.312726
3663.71, 0.312382
3666.3, 0.312176
3668.9, 0.312039
3671.5, 0.311901
3674.1, 0.311970
3676.7, 0.312313
3679.31, 0.312589
3681.93, 0.312795
3684.54, 0.313070
3687.17, 0.313551
3689.79, 0.313963
3692.42, 0.314376
3695.05, 0.314788
3697.69, 0.315201
3700.32, 0.315682
3702.97, 0.316232
3705.61, 0.316713
3708.27, 0.317194
3710.92, 0.317813
3713.58, 0.318501
3716.24, 0.319188
3718.91, 0.319944
3721.58, 0.320701
3724.25, 0.321526
3726.93, 0.322419
3729.61, 0.323175
3732.29, 0.324138
3734.98, 0.325169
3737.67, 0.325994
3740.37, 0.326750
3743.07, 0.327506
3745.78, 0.328263
3748.49, 0.328881
3751.2, 0.329363
3753.91, 0.329913
3756.63, 0.330531
3759.36, 0.330944
3762.09, 0.331287
3764.82, 0.331631
3767.55, 0.331769
3770.29, 0.331975
3773.04, 0.332112
3775.78, 0.332319
3778.54, 0.332456
3781.29, 0.332594
3784.05, 0.332525
3786.82, 0.332456
3789.59, 0.332525
3792.36, 0.332525
3795.13, 0.332456
3797.92, 0.332387
3800.7, 0.332387
3803.49, 0.332250
3806.28, 0.332181
3809.08, 0.331975
3811.88, 0.331769
3814.68, 0.331562
3817.49, 0.331356
3820.31, 0.331219
3823.12, 0.331081
3825.94, 0.331081
3828.77, 0.330944
3831.6, 0.330806
3834.43, 0.330737
3837.27, 0.330531
3840.11, 0.330187
3842.96, 0.329981
3845.81, 0.329913
3848.67, 0.329775
3851.53, 0.329500
3854.39, 0.329225
3857.26, 0.329088
3860.13, 0.328950
3863.01, 0.328813
3865.89, 0.328606
3868.77, 0.328469
3871.66, 0.328400
3874.55, 0.328056
3877.45, 0.327781
3880.35, 0.327575
3883.26, 0.327300
3886.17, 0.326956
3889.09, 0.326681
3892.01, 0.326406
3894.93, 0.326200
3897.86, 0.325856
3900.79, 0.325307
3903.73, 0.324688
3906.67, 0.324069
3909.62, 0.323313
3912.57, 0.322625
3915.52, 0.321732
3918.48, 0.320769
3921.45, 0.319944
3924.42, 0.318982
3927.39, 0.317882
3930.37, 0.316851
3933.35, 0.315682
3936.34, 0.314376
3939.33, 0.313276
3942.32, 0.312107
3945.32, 0.310801
3948.33, 0.309289
3951.34, 0.307845
3954.35, 0.306539
3957.37, 0.305095
3960.39, 0.303514
3963.42, 0.302208
3966.45, 0.300833
3969.49, 0.299320
3972.53, 0.297671
3975.58, 0.296227
3978.63, 0.294715
3981.68, 0.293683
3984.75, 0.293683
3987.81, 0.294577
3990.88, 0.296296
3993.95, 0.298633
3997.03, 0.301177
4000.12, 0.303720
4003.21, 0.305851
4006.3, 0.307776
4009.4, 0.309495
4012.5, 0.311007
4015.61, 0.312451
4018.72, 0.313757
4021.84, 0.314857
4024.96, 0.315888
4028.09, 0.316851
4031.22, 0.317538
4034.36, 0.318157
4037.5, 0.318844
4040.65, 0.319188
4043.8, 0.319669
4046.96, 0.320219
4050.12, 0.320632
4053.29, 0.320907
4056.46, 0.321250
4059.64, 0.321526
4062.82, 0.321800
4066.0, 0.322144
4069.19, 0.322350
4072.39, 0.322557
4075.59, 0.322763
4078.8, 0.322969
4082.01, 0.323244
4085.23, 0.323450
4088.45, 0.323519
4091.68, 0.323588
4094.91, 0.323725
4098.15, 0.323863
4101.39, 0.324000
4104.63, 0.323863
4107.89, 0.323794
4111.14, 0.323794
4114.41, 0.323932
4117.67, 0.324000
4120.95, 0.324069
4124.23, 0.324000
4127.51, 0.323794
4130.8, 0.323657
4134.09, 0.323382
4137.39, 0.323175
4140.7, 0.322969
4144.01, 0.322832
4147.32, 0.322694
4150.64, 0.322282
4153.97, 0.322007
4157.3, 0.321869
4160.64, 0.321526
4163.98, 0.321044
4167.33, 0.320563
4170.68, 0.320219
4174.04, 0.319876
4177.4, 0.319463
4180.77, 0.318982
4184.14, 0.318432
4187.52, 0.317882
4190.91, 0.317469
4194.3, 0.317263
4197.69, 0.317194
4201.1, 0.317469
4204.5, 0.318019
4207.92, 0.318982
4211.34, 0.320426
4214.76, 0.321869
4218.19, 0.323038
4221.62, 0.324069
4225.06, 0.324894
4228.51, 0.325375
4231.96, 0.325307
4235.42, 0.324688
4238.88, 0.323725
4242.35, 0.322350
4245.83, 0.320219
4249.31, 0.317538
4252.79, 0.314170
4256.28, 0.311901
4259.78, 0.313001
4263.29, 0.315270
4266.79, 0.316438
4270.31, 0.316851
4273.83, 0.316988
4277.35, 0.316782
4280.89, 0.316438
4284.42, 0.316026
4287.97, 0.315613
4291.52, 0.315063
4295.07, 0.314170
4298.63, 0.313276
4302.2, 0.312451
4305.78, 0.311626
4309.35, 0.310664
4312.94, 0.309701
4316.53, 0.308807
4320.13, 0.307983
4323.73, 0.307020
4327.34, 0.306195
4330.96, 0.305370
4334.58, 0.304614
4338.21, 0.303858
4341.84, 0.303102
4345.48, 0.302414
4349.12, 0.301727
4352.77, 0.300902
4356.43, 0.300214
4360.1, 0.299596
4363.76, 0.298977
4367.44, 0.298083
4371.12, 0.297327
4374.81, 0.296571
4378.51, 0.295746
4382.21, 0.294783
4385.92, 0.294027
4389.63, 0.293340
4393.35, 0.292446
4397.08, 0.291621
4400.81, 0.290727
4404.55, 0.289765
4408.29, 0.288734
4412.04, 0.287702
4415.8, 0.286809
4419.57, 0.285915
4423.34, 0.285021
4427.12, 0.284059
4430.9, 0.283028
4434.69, 0.281928
4438.49, 0.280759
4442.29, 0.279453
4446.1, 0.278284
4449.92, 0.277116
4453.74, 0.275741
4457.57, 0.274366
4461.41, 0.272853
4465.25, 0.271272
4469.1, 0.269553
4472.95, 0.267766
4476.82, 0.265635
4480.69, 0.263298
4484.56, 0.260823
4488.44, 0.258279
4492.33, 0.255598
4496.23, 0.252642
4500.13, 0.249548
4504.04, 0.246317
4507.96, 0.243224
4511.88, 0.240130
4515.81, 0.236968
4519.75, 0.233805
4523.69, 0.230643
4527.65, 0.227481
4531.6, 0.224319
4535.57, 0.221156
4539.54, 0.217856
4543.52, 0.214557
4547.5, 0.211119
4551.5, 0.207613
4555.5, 0.204038
4559.5, 0.200326
4563.52, 0.196614
4567.54, 0.192970
4571.56, 0.188983
4575.6, 0.185133
4579.64, 0.181283
4583.69, 0.177296
4587.75, 0.173515
4591.81, 0.169940
4595.88, 0.166572
4599.96, 0.163616
4604.04, 0.161141
4608.14, 0.159285
4612.24, 0.158047
4616.34, 0.157497
4620.46, 0.157635
4624.58, 0.158185
4628.71, 0.159010
4632.84, 0.159903
4636.99, 0.160866
4641.14, 0.161760
4645.3, 0.162516
4649.47, 0.163066
4653.64, 0.163409
4657.82, 0.163547
4662.01, 0.163409
4666.21, 0.163066
4670.41, 0.162722
4674.62, 0.162035
4678.84, 0.161278
4683.07, 0.160385
4687.3, 0.159491
4691.54, 0.158529
4695.79, 0.157704
4700.05, 0.157154
4704.31, 0.156879
4708.59, 0.156672
4712.87, 0.156397
4717.15, 0.156329
4721.45, 0.156397
4725.76, 0.156466
4730.07, 0.156260
4734.39, 0.155641
4738.72, 0.154541
4743.05, 0.153166
4747.39, 0.151310
4751.75, 0.149179
4756.1, 0.146567
4760.47, 0.143679
4764.85, 0.140586
4769.23, 0.137423
4773.62, 0.134124
4778.02, 0.130893
4782.43, 0.127593
4786.85, 0.124568
4791.27, 0.121749
4795.7, 0.119206
4800.14, 0.117143
4804.59, 0.115287
4809.05, 0.113706
4813.51, 0.112537
4817.99, 0.111575
4822.47, 0.110750
4826.96, 0.110063
4831.46, 0.109444
4835.96, 0.108894
4840.48, 0.108275
4845.0, 0.107588
4849.54, 0.106900
4854.08, 0.105938
4858.63, 0.104563
4863.18, 0.102775
4867.75, 0.100713
4872.33, 0.0985820
4876.91, 0.0963820
4881.5, 0.0942510
4886.1, 0.0923950
4890.71, 0.0909510
4895.33, 0.0901260
4899.96, 0.0895760
4904.59, 0.0893010
4909.24, 0.0891640
4913.89, 0.0889570
4918.55, 0.0886140
4923.22, 0.0881320
4927.9, 0.0875140
4932.59, 0.0869640
4937.29, 0.0864830
4942.0, 0.0860700
4946.71, 0.0857950
4951.44, 0.0855200
4956.17, 0.0853830
4960.91, 0.0853830
4965.67, 0.0856580
4970.43, 0.0861390
4975.2, 0.0868950
4979.98, 0.0878580
4984.76, 0.0889570
4989.56, 0.0904700
4994.37, 0.0919140
4999.18, 0.0933570
5004.01, 0.0947320
5008.84, 0.0958320
5013.69, 0.0965200
5018.54, 0.0971380
5023.4, 0.0974130
5028.28, 0.0974820
5033.16, 0.0974130
5038.05, 0.0973440
5042.95, 0.0972760
5047.86, 0.0973440
5052.78, 0.0974820
5057.71, 0.0976190
5062.65, 0.0979630
5067.6, 0.0983760
5072.56, 0.0985130
5077.53, 0.0984440
5082.5, 0.0983760
5087.49, 0.0983070
5092.49, 0.0983070
5097.5, 0.0983760
5102.51, 0.0985130
5107.54, 0.0985820
5112.58, 0.0987190
5117.62, 0.0989260
5122.68, 0.0990630
5127.75, 0.0992010
5132.82, 0.0991320
5137.91, 0.0988570
5143.01, 0.0984440
5148.12, 0.0978260
5153.23, 0.0967950
5158.36, 0.0957630
5163.5, 0.0945260
5168.65, 0.0930130
5173.81, 0.0913640
5178.98, 0.0895760
5184.15, 0.0877890
5189.34, 0.0862760
5194.54, 0.0849010
5199.75, 0.0837330
5204.98, 0.0829770
5210.21, 0.0824270
5215.45, 0.0819450
5220.7, 0.0816700
5225.96, 0.0818080
5231.23, 0.0820140
5236.52, 0.0822890
5241.81, 0.0827700
5247.12, 0.0833200
5252.44, 0.0840080
5257.76, 0.0846950
5263.1, 0.0854510
5268.45, 0.0864830
5273.81, 0.0875830
5279.18, 0.0884760
5284.56, 0.0893010
5289.95, 0.0900570
5295.36, 0.0905390
5300.77, 0.0910200
5306.2, 0.0913640
5311.63, 0.0915700
5317.08, 0.0917760
5322.54, 0.0919140
5328.01, 0.0919820
5333.49, 0.0919140
5338.98, 0.0919820
5344.49, 0.0921890
5350.0, 0.0923950
5355.53, 0.0924640
5361.07, 0.0926010
5366.62, 0.0928760
5372.18, 0.0932880
5377.75, 0.0936320
5383.34, 0.0937700
5388.93, 0.0936320
5394.54, 0.0934950
5400.16, 0.0934260
5405.79, 0.0932200
5411.44, 0.0929450
5417.09, 0.0928070
5422.76, 0.0926700
5428.43, 0.0922570
5434.12, 0.0918450
5439.83, 0.0914320
5445.54, 0.0910200
5451.26, 0.0904700
5457.0, 0.0899200
5462.75, 0.0894390
5468.52, 0.0886140
5474.29, 0.0876510
5480.08, 0.0865510
5485.88, 0.0853140
5491.69, 0.0840760
5497.51, 0.0830450
5503.35, 0.0818770
5509.2, 0.0805700
5515.06, 0.0793330
5520.93, 0.0781640
5526.82, 0.0769270
5532.71, 0.0756890
5538.63, 0.0743150
5544.55, 0.0728020
5550.49, 0.0713580
5556.44, 0.0697770
5562.4, 0.0681270
5568.37, 0.0667520
5574.36, 0.0655150
5580.36, 0.0642090
5586.37, 0.0629710
5592.4, 0.0619400
5598.44, 0.0611840
5604.49, 0.0604280
5610.56, 0.0596720
5616.63, 0.0591220
5622.73, 0.0586400
5628.83, 0.0582280
5634.95, 0.0579530
5641.08, 0.0577470
5647.23, 0.0573340
5653.39, 0.0571280
5659.56, 0.0569910
5665.74, 0.0568530
5671.94, 0.0569220
5678.15, 0.0569220
5684.38, 0.0568530
5690.62, 0.0568530
5696.87, 0.0569220
5703.14, 0.0571280
5709.42, 0.0572650
5715.72, 0.0572650
5722.03, 0.0573340
5728.35, 0.0572650
5734.69, 0.0572650
5741.03, 0.0573340
5747.4, 0.0574030
5753.78, 0.0574720
5760.17, 0.0578840
5766.58, 0.0582970
5773.0, 0.0584340
5779.44, 0.0587780
5785.88, 0.0590530
5792.35, 0.0593280
5798.83, 0.0595340
5805.32, 0.0598780
5811.83, 0.0601530
5818.35, 0.0603590
5824.89, 0.0603590
5831.45, 0.0602900
5838.01, 0.0600840
5844.59, 0.0599470
5851.19, 0.0597400
5857.8, 0.0595340
5864.43, 0.0591220
5871.07, 0.0587090
5877.73, 0.0585030
5884.4, 0.0579530
5891.09, 0.0574030
5897.79, 0.0568530
5904.5, 0.0562340
5911.23, 0.0558910
5917.98, 0.0556160
5924.75, 0.0553410
5931.53, 0.0554090
5938.32, 0.0556160
5945.13, 0.0557530
5951.96, 0.0561660
5958.8, 0.0568530
5965.65, 0.0579530
5972.53, 0.0590530
5979.42, 0.0603590
5986.32, 0.0618710
5993.24, 0.0634530
6000.18, 0.0650340
6007.13, 0.0668210
6014.1, 0.0686090
6021.08, 0.0703270
6028.09, 0.0719770
6035.1, 0.0735580
6042.14, 0.0752770
6049.19, 0.0767890
6056.25, 0.0776140
6063.34, 0.0787140
6070.44, 0.0799520
6077.55, 0.0808450
6084.69, 0.0816020
6091.84, 0.0824270
6099.0, 0.0831140
6106.19, 0.0840760
6113.39, 0.0848330
6120.61, 0.0853140
6127.84, 0.0862080
6135.09, 0.0871700
6142.36, 0.0879950
6149.65, 0.0886820
6156.95, 0.0893700
6164.27, 0.0899200
6171.61, 0.0902640
6178.97, 0.0906760
6186.34, 0.0908140
6193.73, 0.0906760
6201.14, 0.0906070
6208.57, 0.0906070
6216.01, 0.0904010
6223.47, 0.0899890
6230.95, 0.0895070
6238.45, 0.0893010
6245.97, 0.0890260
6253.5, 0.0888890
6261.06, 0.0888890
6268.63, 0.0888200
6276.21, 0.0888200
6283.82, 0.0889570
6291.45, 0.0888890
6299.1, 0.0889570
6306.76, 0.0892320
6314.44, 0.0894390
6322.14, 0.0895070
6329.86, 0.0895760
6337.6, 0.0896450
6345.35, 0.0896450
6353.13, 0.0894390
6360.92, 0.0894390
6368.74, 0.0895070
6376.57, 0.0892320
6384.43, 0.0888890
6392.3, 0.0884760
6400.19, 0.0880640
6408.1, 0.0876510
6416.03, 0.0869640
6423.98, 0.0862080
6431.95, 0.0853140
6439.94, 0.0842830
6447.95, 0.0833890
6455.98, 0.0824950
6464.03, 0.0818080
6472.1, 0.0811890
6480.19, 0.0805700
6488.31, 0.0802270
6496.44, 0.0797450
6504.59, 0.0792640
6512.76, 0.0789890
6520.95, 0.0787140
6529.16, 0.0783020
6537.4, 0.0778890
6545.65, 0.0774770
6553.92, 0.0771330
6562.22, 0.0769270
6570.54, 0.0766520
6578.88, 0.0764460
6587.23, 0.0763770
6595.61, 0.0760330
6604.02, 0.0757580
6612.44, 0.0756210
6620.89, 0.0756210
6629.35, 0.0755520
6637.84, 0.0754140
6646.35, 0.0753460
6654.88, 0.0752770
6663.44, 0.0752770
6672.01, 0.0752770
6680.61, 0.0751390
6689.23, 0.0751390
6697.88, 0.0751390
6706.54, 0.0752080
6715.23, 0.0752080
6723.94, 0.0750710
6732.67, 0.0749330
6741.42, 0.0747270
6750.2, 0.0743830
6759.0, 0.0741770
6767.82, 0.0739710
6776.67, 0.0735580
6785.54, 0.0730770
6794.44, 0.0728020
6803.35, 0.0725960
6812.29, 0.0723210
6821.26, 0.0719080
6830.24, 0.0715650
6839.25, 0.0713580
6848.29, 0.0711520
6857.35, 0.0709460
6866.43, 0.0704650
6875.54, 0.0699840
6884.67, 0.0697090
6893.82, 0.0692960
6903.0, 0.0688840
6912.2, 0.0685400
6921.43, 0.0683340
6930.69, 0.0680590
6939.96, 0.0678520
6949.27, 0.0676460
6958.59, 0.0674400
6967.95, 0.0672340
6977.33, 0.0670960
6986.73, 0.0669590
6996.16, 0.0665460
7005.61, 0.0660650
7015.09, 0.0657210
7024.6, 0.0653090
7034.13, 0.0647590
7043.69, 0.0640710
7053.27, 0.0633150
7062.88, 0.0624900
7072.52, 0.0617340
7082.18, 0.0611150
7091.87, 0.0604970
7101.58, 0.0598780
7111.32, 0.0593280
7121.09, 0.0587090
7130.88, 0.0582280
7140.71, 0.0577470
7150.56, 0.0574030
7160.43, 0.0570590
7170.33, 0.0568530
7180.27, 0.0567840
7190.23, 0.0566470
7200.21, 0.0566470
7210.23, 0.0564410
7220.27, 0.0561660
7230.34, 0.0560280
7240.44, 0.0559590
7250.56, 0.0557530
7260.72, 0.0553410
7270.9, 0.0547910
7281.12, 0.0543090
7291.36, 0.0538280
7301.63, 0.0532090
7311.93, 0.0525910
7322.25, 0.0520410
7332.61, 0.0515600
7343.0, 0.0510100
7353.41, 0.0504600
7363.86, 0.0499100
7374.33, 0.0493600
7384.83, 0.0488100
7395.37, 0.0481910
7405.93, 0.0475040
7416.53, 0.0468160
7427.15, 0.0462660
7437.81, 0.0456470
7448.5, 0.0450290
7459.22, 0.0444100
7469.96, 0.0437910
7480.74, 0.0431730
7491.55, 0.0426230
7502.39, 0.0420040
7513.27, 0.0413850
7524.17, 0.0408350
7535.11, 0.0402160
7546.08, 0.0397350
7557.08, 0.0391170
7568.11, 0.0382920
7579.17, 0.0377420
7590.27, 0.0373290
7601.4, 0.0367100
7612.56, 0.0360230
7623.76, 0.0353350
7634.98, 0.0346480
7646.24, 0.0340290
7657.54, 0.0334110
7668.87, 0.0327230
7680.23, 0.0319670
7691.62, 0.0312110
7703.05, 0.0305230
7714.51, 0.0299050
7726.01, 0.0291480
7737.54, 0.0283920
7749.11, 0.0277730
7760.71, 0.0271550
7772.35, 0.0266050
7784.02, 0.0261240
7795.72, 0.0255740
7807.46, 0.0250240
7819.23, 0.0245420
7831.04, 0.0241990
7842.89, 0.0237860
7854.77, 0.0232360
7866.69, 0.0226860
7878.65, 0.0222740
7890.64, 0.0219300
7902.67, 0.0214490
7914.74, 0.0209680
7926.84, 0.0207610
7938.98, 0.0204180
7951.16, 0.0200050
7963.37, 0.0195930
7975.62, 0.0191800
7987.91, 0.0188360
8000.24, 0.0186300
8012.6, 0.0182180
8025.01, 0.0178050
8037.45, 0.0175990
8049.93, 0.0172550
8062.45, 0.0168430
8075.01, 0.0164990
8087.61, 0.0160180
8100.24, 0.0155370
8112.91, 0.0151930
8125.63, 0.0149870
8138.39, 0.0146430
8151.18, 0.0142300
8164.02, 0.0138180
8176.9, 0.0134050
8189.81, 0.0129930
8202.77, 0.0125810
8215.77, 0.0121680
8228.82, 0.0117560
8241.9, 0.0114810
8255.02, 0.0111370
8268.19, 0.0106560
8281.39, 0.0101740
8294.65, 0.00976200
8307.94, 0.00934900
8321.28, 0.00907400
8334.66, 0.00873100
8348.08, 0.00831800
8361.54, 0.00811200
8375.05, 0.00770000
8388.6, 0.00728700
8402.2, 0.00687500
8415.84, 0.00673700
8429.52, 0.00639300
8443.25, 0.00605000
8457.02, 0.00570600
8470.84, 0.00550000
8484.7, 0.00543100
8498.61, 0.00550000
8512.57, 0.00543100
8526.57, 0.00550000
8540.62, 0.00577500
8554.71, 0.00625600
8568.85, 0.00694300
8583.04, 0.00797500
8597.27, 0.00934900
8611.55, 0.0115490
8625.88, 0.0142300
8640.26, 0.0171180
8654.68, 0.0207610
8669.16, 0.0252300
8683.68, 0.0303170
8698.25, 0.0360230
8712.87, 0.0419350
8727.53, 0.0480540
8742.25, 0.0539660
8757.02, 0.0591220
8771.83, 0.0632460
8786.7, 0.0672340
8801.62, 0.0710830
8816.59, 0.0748640
8831.61, 0.0786460
8846.68, 0.0829080
8861.8, 0.0879950
8876.97, 0.0939070
8892.2, 0.100232
8907.48, 0.106625
8922.81, 0.113019
8938.2, 0.119137
8953.63, 0.124774
8969.13, 0.129861
8984.67, 0.134536
9000.27, 0.138180
9015.92, 0.141273
9031.63, 0.143542
9047.39, 0.145192
9063.21, 0.146704
9079.08, 0.148010
9095.01, 0.149317
9111.0, 0.151654
9127.04, 0.155366
9143.13, 0.160041
9159.28, 0.165541
9175.49, 0.171109
9191.76, 0.175990
9208.09, 0.179359
9224.47, 0.180802
9240.92, 0.181146
9257.42, 0.181558
9273.98, 0.182177
9290.6, 0.183483
9307.28, 0.185614
9324.02, 0.188846
9340.82, 0.193039
9357.68, 0.198401
9374.6, 0.204932
9391.58, 0.212013
9408.62, 0.218681
9425.73, 0.223906
9442.9, 0.227618
9460.13, 0.229474
9477.42, 0.229681
9494.78, 0.228306
9512.2, 0.225693
9529.69, 0.221912
9547.24, 0.216756
9564.86, 0.210638
9582.54, 0.204107
9600.28, 0.197233
9618.1, 0.189464
9635.97, 0.180115
9653.92, 0.167465
9671.93, 0.150554
9690.01, 0.129724
9708.16, 0.107450
9726.37, 0.0867580
9744.65, 0.0695020
9763.0, 0.0560280
9781.43, 0.0456470
9799.92, 0.0376730
9818.48, 0.0320360
9837.1, 0.0278420
9855.8, 0.0255740
9874.58, 0.0261240
9893.42, 0.0297670
9912.34, 0.0371920
9931.33, 0.0489470
9950.39, 0.0656530
9969.52, 0.0871700
9988.74, 0.112606
10008.0, 0.140448
10027.4, 0.168428
10046.8, 0.194345
10066.3, 0.216550
10085.9, 0.234562
10105.6, 0.248930
10125.3, 0.259860
10145.1, 0.268866
10165.0, 0.277322
10185.0, 0.286052
10205.0, 0.296502
10225.2, 0.309976
10245.4, 0.326819
10265.7, 0.346343
10286.0, 0.366692
10306.5, 0.385391
10327.0, 0.400515
10347.6, 0.411652
10368.3, 0.418939
10389.1, 0.422926
10409.9, 0.423957
10430.9, 0.422582
10451.9, 0.418595
10473.0, 0.410552
10494.2, 0.397559
10515.5, 0.378860
10536.9, 0.354936
10558.4, 0.328194
10579.9, 0.301314
10601.5, 0.276153
10623.3, 0.254086
10645.1, 0.234493
10667.0, 0.216550
10689.0, 0.200532
10711.1, 0.185889
10733.2, 0.171865
10755.5, 0.158322
10777.9, 0.146498
10800.3, 0.138042
10822.9, 0.135292
10845.5, 0.139005
10868.2, 0.147392
10891.1, 0.158047
10914.0, 0.169665
10937.0, 0.180252
10960.2, 0.189189
10983.4, 0.197233
11006.7, 0.205688
11030.1, 0.214900
11053.6, 0.224044
11077.3, 0.231262
11101.0, 0.236487
11124.8, 0.240611
11148.7, 0.245836
11172.7, 0.254223
11196.9, 0.264810
11221.1, 0.275191
11245.4, 0.283921
11269.9, 0.289627
11294.4, 0.291208
11319.1, 0.288734
11343.9, 0.282409
11368.8, 0.272097
11393.7, 0.258348
11418.8, 0.241643
11444.0, 0.223287
11469.4, 0.205551
11494.8, 0.189327
11520.3, 0.177159
11546.0, 0.171247
11571.8, 0.171453
11597.7, 0.175371
11623.7, 0.178809
11649.8, 0.178877
11676.0, 0.175303
11702.4, 0.169253
11728.9, 0.162241
11755.5, 0.155366
11782.2, 0.148835
11809.0, 0.143542
11836.0, 0.139486
11863.0, 0.136598
11890.3, 0.135086
11917.6, 0.134674
11945.0, 0.134536
11972.6, 0.133642
12000.4, 0.132130
12028.2, 0.129724
12056.2, 0.126699
12084.3, 0.123674
12112.5, 0.120512
12140.9, 0.117418
12169.4, 0.114256
12198.0, 0.110956
12226.8, 0.108069
12255.7, 0.105319
12284.7, 0.102157
12313.9, 0.0990630
12343.2, 0.0967950
12372.7, 0.0947320
12402.3, 0.0926010
12432.0, 0.0904010
12461.9, 0.0882700
12491.9, 0.0860010
12522.1, 0.0837330
12552.4, 0.0816700
12582.9, 0.0798140
12613.5, 0.0779580
12644.3, 0.0759640
12675.2, 0.0744520
12706.3, 0.0730770
12737.5, 0.0712900
12768.9, 0.0695710
12800.4, 0.0677150
12832.1, 0.0662020
12863.9, 0.0645530
12895.9, 0.0633840
12928.1, 0.0622150
12960.4, 0.0611150
12992.9, 0.0596030
13025.5, 0.0577470
13058.3, 0.0561660
13091.3, 0.0546530
13124.4, 0.0527280
13157.8, 0.0511470
13191.2, 0.0503220
13224.9, 0.0492910
13258.7, 0.0475040
13292.7, 0.0459910
13326.9, 0.0442040
13361.2, 0.0424850
13395.7, 0.0408350
13430.4, 0.0398040
13465.3, 0.0388420
13500.4, 0.0375350
13535.7, 0.0360920
13571.1, 0.0342360
13606.7, 0.0325860
13642.5, 0.0320360
13678.5, 0.0311420
13714.7, 0.0298360
13751.1, 0.0290800
13787.6, 0.0298360
13824.4, 0.0316920
13861.4, 0.0343730
13898.5, 0.0370540
13935.9, 0.0400790
13973.5, 0.0431040
14011.2, 0.0461970
14049.2, 0.0499780
14087.4, 0.0550660
14125.8, 0.0611840
14164.3, 0.0682650
14203.2, 0.0758960
14242.2, 0.0842140
14281.4, 0.0925320
14320.9, 0.101607
14360.5, 0.111437
14400.4, 0.120237
14440.5, 0.126080
14480.9, 0.129036
14521.4, 0.129655
14562.2, 0.128349
14603.3, 0.125599
14644.5, 0.123468
14686.0, 0.123124
14727.7, 0.124430
14769.7, 0.126630
14811.9, 0.129861
14854.3, 0.134880
14897.0, 0.142304
14939.9, 0.152410
14983.1, 0.165334
15026.5, 0.178465
15070.2, 0.190014
15114.2, 0.199776
15158.3, 0.208507
15202.8, 0.216000
15247.5, 0.221912
15292.5, 0.224868
15337.7, 0.224112
15383.2, 0.219987
15429.0, 0.212769
15475.1, 0.203351
15521.4, 0.192283
15568.0, 0.178946
15614.9, 0.163891
15662.1, 0.149042
15709.6, 0.135911
15757.3, 0.124705
15805.4, 0.115562
15853.7, 0.107794
15902.3, 0.101607
15951.2, 0.0956260
16000.5, 0.0884070
16050.0, 0.0805700
16099.8, 0.0726650
16150.0, 0.0653090
16200.5, 0.0598090
16251.3, 0.0555470
16302.4, 0.0541720
16353.8, 0.0565780
16405.5, 0.0615970
16457.6, 0.0692960
16510.0, 0.0772020
16562.8, 0.0824270
16615.9, 0.0846950
16669.3, 0.0851080
16723.1, 0.0853830
16777.2, 0.0864830
16831.7, 0.0914320
16886.5, 0.100438
16941.7, 0.111850
16997.2, 0.124774
17053.1, 0.140105
17109.4, 0.158047
17166.1, 0.178121
17223.1, 0.198470
17280.5, 0.219025
17338.3, 0.239993
17396.5, 0.260135
17455.1, 0.278009
17514.0, 0.294302
17573.4, 0.309289
17633.2, 0.321663
17693.4, 0.329913
17754.0, 0.335206
17815.0, 0.337200
17876.4, 0.335687
17938.3, 0.330944
18000.5, 0.324619
18063.3, 0.317401
18126.4, 0.309357
18190.0, 0.300214
18254.1, 0.292583
18318.6, 0.287221
18383.5, 0.282615
18449.0, 0.274366
18514.9, 0.264397
18581.2, 0.256973
18648.0, 0.254567
18715.4, 0.257729
18783.2, 0.266322
18851.5, 0.277528
18920.3, 0.287840
18989.6, 0.297396
19059.4, 0.304958
19129.7, 0.308464
19200.6, 0.308051
19272.0, 0.304133
19343.9, 0.297808
19416.3, 0.288665
19489.3, 0.278559
19562.8, 0.266666
19637.0, 0.251886
19711.6, 0.237861
19786.8, 0.223356
19862.6, 0.206788
19939.0, 0.191252
20016.0, 0.179320
20093.6, 0.162793
20171.8, 0.152294
20250.6, 0.143499
20330.0, 0.133568
20410.0, 0.126404
20490.7, 0.121225
20572.0, 0.115693
20654.0, 0.109805
20736.6, 0.102854
20819.9, 0.103350
20903.8, 0.110302
20988.5, 0.110302
21073.8, 0.109592
21159.8, 0.113281
21246.5, 0.119027
21334.0, 0.124488
21422.1, 0.126404
21511.0, 0.125198
21600.7, 0.124347
21691.0, 0.126049
21782.1, 0.131795
21874.0, 0.138959
21966.7, 0.144917
22060.2, 0.146194
22154.5, 0.144704
22249.6, 0.139597
22345.5, 0.135696
22442.2, 0.135341
22539.8, 0.142222
22638.2, 0.156267
22737.5, 0.170099
22837.7, 0.181448
22938.7, 0.190740
23040.7, 0.198330
23143.5, 0.201948
23247.3, 0.202019
23352.1, 0.202161
23457.7, 0.201168
23564.4, 0.197408
23672.0, 0.192017
23780.5, 0.188258
23890.1, 0.188754
24000.7, 0.194429
24112.3, 0.204360
24225.0, 0.222589
24338.7, 0.248480
24453.5, 0.276570
24569.4, 0.301397
24686.4, 0.320407
24804.5, 0.334523
24923.8, 0.344099
25044.2, 0.348284
25165.8, 0.348426
25288.6, 0.344382
25412.5, 0.334594
25537.7, 0.317640
25664.1, 0.297992
25791.8, 0.283309
25920.8, 0.279407
26051.1, 0.286359
26182.6, 0.290189
26315.5, 0.285153
26449.8, 0.275151
26585.4, 0.261319
26722.5, 0.243302
26860.9, 0.225214
27000.8, 0.207693
27142.1, 0.194925
27285.0, 0.185917
27429.4, 0.182938
27575.3, 0.188470
27722.7, 0.199891
27871.8, 0.210673
28022.4, 0.217199
28174.7, 0.224647
28328.7, 0.234577
28484.4, 0.241245
28641.7, 0.240394
28800.9, 0.234719
28961.8, 0.224930
29124.5, 0.215709
29289.0, 0.205849
29455.4, 0.195067
29623.8, 0.185278
29794.0, 0.176412
29966.3, 0.170453
30140.5, 0.167190
30316.7, 0.160806
30495.1, 0.153429
30675.5, 0.148180
30858.1, 0.142931
31042.8, 0.137611
31229.8, 0.134277
31419.1, 0.133213
31610.7, 0.132859
31804.6, 0.129667
32000.9, 0.129950
32199.7, 0.132149
32400.9, 0.138108
32604.8, 0.147684
32811.1, 0.152365
33020.1, 0.154068
33231.8, 0.158820
33446.2, 0.162367
33663.4, 0.165346
33883.4, 0.171163
34106.3, 0.184782
34332.1, 0.203437
34561.0, 0.219823
34792.9, 0.229612
35028.0, 0.232378
35266.3, 0.226846
35507.8, 0.216560
35752.7, 0.205778
36001.0, 0.196415
36252.8, 0.188470
36508.1, 0.178682
36767.0, 0.171943
37029.7, 0.167261
37296.1, 0.166552
37566.3, 0.167829
37840.5, 0.172439
38118.8, 0.181590
38401.2, 0.193436
38687.8, 0.207835
38978.6, 0.217766
39273.9, 0.218404
39573.7, 0.216418
39878.1, 0.213013
40187.3, 0.202373
40501.2, 0.190386
40820.0, 0.181590
41144.0, 0.173858
41473.2, 0.167119
41807.6, 0.161090
42147.5, 0.154635
42493.0, 0.153713
42844.2, 0.161729
43201.2, 0.175986
43564.3, 0.191450
43933.5, 0.203296
44309.0, 0.211098
44691.0, 0.212233
45079.6, 0.207693
45475.0, 0.201238
45877.5, 0.192585
46287.1, 0.180171
46704.2, 0.172369
47128.7, 0.170879
47561.1, 0.176057
48001.5, 0.183292
48450.1, 0.189393
48907.2, 0.187761
49373.0, 0.178965
49847.7, 0.174071
50331.5, 0.169035
50825.0, 0.161658
51328.2, 0.153926
51841.5, 0.146265
52365.1, 0.141867
52899.4, 0.140519
53444.8, 0.143144
54001.5, 0.150379
54570.1, 0.149741
55150.6, 0.148322
55743.6, 0.146691
56349.5, 0.142931
56968.7, 0.124276
57601.7, 0.116757
58248.9, 0.121155
58910.9, 0.120161
59588.1, 0.120800
60281.0, 0.117324
60990.2, 0.112359
61716.3, 0.105833
62459.8, 0.100513
63221.6, 0.0965410
64002.1, 0.103563
64802.1, 0.124417
65622.1, 0.151088
66463.4, 0.175135
67326.6, 0.197550
68212.4, 0.217979
69121.9, 0.230534
70056.0, 0.243515
71015.7, 0.262029
72002.0, 0.273591
73016.3, 0.280329
74059.4, 0.277492
75132.7, 0.282812
76237.6, 0.308987
77375.5, 0.340907
78547.9, 0.361123
79756.3, 0.377650
81002.5, 0.383892
82288.5, 0.379495
83615.7, 0.377367
84986.5, 0.378643
86402.9, 0.378927
87867.4, 0.373181
89382.4, 0.368571
90950.5, 0.365804
92574.6, 0.367932
94257.2, 0.367010
96002.7, 0.358356
97814.1, 0.348284
99695.1, 0.327287
101650.0, 0.307071
103683.0, 0.296502
105799.0, 0.294020
108003.0, 0.287068
110301.0, 0.278840
112699.0, 0.268342
115204.0, 0.260326
117822.0, 0.236492
120562.0, 0.235783
123433.0, 0.256921
126443.0, 0.275080
129604.0, 0.286004
132926.0, 0.285224
136424.0, 0.275009
140111.0, 0.266426
144003.0, 0.276428
148118.0, 0.282812
152474.0, 0.275506
157095.0, 0.278485
162004.0, 0.269122
167231.0, 0.255857
172805.0, 0.264724
178764.0, 0.285295
185148.0, 0.342183
192005.0, 0.490151
199390.0, 0.521007
207366.0, 0.243870
216006.0, 0.211098
