Database of Origin, USGS Spectral Database
Sample Description, See USGS database for additional info
Date Added,2016-08-10 05:30:05.862136

Data ID,USGS_pyr13          
Sample ID, pyrophyllite_pys1a.18841
Mineral Name, pyrophyllite
Material Class,Phyllosilicate

Wavelength
1325.19, 0.676079
1325.53, 0.676671
1325.87, 0.677591
1326.21, 0.677986
1326.55, 0.678117
1326.89, 0.679366
1327.23, 0.680352
1327.57, 0.679958
1327.91, 0.679564
1328.25, 0.680878
1328.59, 0.681602
1328.93, 0.681404
1329.27, 0.681799
1329.61, 0.682588
1329.95, 0.683311
1330.29, 0.684560
1330.64, 0.684889
1330.98, 0.685283
1331.32, 0.685546
1331.66, 0.685940
1332.0, 0.686598
1332.34, 0.686992
1332.69, 0.687584
1333.03, 0.687387
1333.37, 0.687452
1333.72, 0.687847
1334.06, 0.687847
1334.4, 0.687715
1334.75, 0.687255
1335.09, 0.687189
1335.43, 0.687584
1335.78, 0.687978
1336.12, 0.688702
1336.47, 0.690345
1336.81, 0.690739
1337.16, 0.691068
1337.5, 0.691857
1337.85, 0.693040
1338.19, 0.694421
1338.54, 0.695276
1338.88, 0.695473
1339.23, 0.696262
1339.58, 0.697905
1339.92, 0.698891
1340.27, 0.698891
1340.61, 0.699615
1340.96, 0.701127
1341.31, 0.701455
1341.66, 0.701127
1342.0, 0.701915
1342.35, 0.702573
1342.7, 0.702704
1343.05, 0.702376
1343.39, 0.702639
1343.74, 0.702967
1344.09, 0.703362
1344.44, 0.703690
1344.79, 0.703690
1345.14, 0.703625
1345.48, 0.703230
1345.83, 0.703165
1346.18, 0.702376
1346.53, 0.701521
1346.88, 0.701784
1347.23, 0.701718
1347.58, 0.702047
1347.93, 0.702376
1348.28, 0.702441
1348.64, 0.702902
1348.99, 0.702770
1349.34, 0.702902
1349.69, 0.703690
1350.04, 0.704085
1350.39, 0.704151
1350.74, 0.703888
1351.1, 0.703625
1351.45, 0.703756
1351.8, 0.703559
1352.15, 0.703033
1352.51, 0.703625
1352.86, 0.703033
1353.21, 0.702573
1353.56, 0.702573
1353.92, 0.702704
1354.27, 0.702441
1354.63, 0.701850
1354.98, 0.701850
1355.33, 0.701127
1355.69, 0.700469
1356.04, 0.701521
1356.4, 0.700732
1356.75, 0.699089
1357.11, 0.699220
1357.46, 0.699089
1357.82, 0.697774
1358.18, 0.697379
1358.53, 0.696919
1358.89, 0.694815
1359.24, 0.692054
1359.6, 0.690608
1359.96, 0.689162
1360.31, 0.686335
1360.67, 0.683376
1361.03, 0.681865
1361.39, 0.681470
1361.74, 0.681996
1362.1, 0.681799
1362.46, 0.683179
1362.82, 0.686203
1363.18, 0.686664
1363.53, 0.684954
1363.89, 0.683903
1364.25, 0.682851
1364.61, 0.683376
1364.97, 0.684363
1365.33, 0.684626
1365.69, 0.685677
1366.05, 0.686006
1366.41, 0.686466
1366.77, 0.686401
1367.13, 0.686269
1367.49, 0.686072
1367.85, 0.686401
1368.21, 0.685875
1368.57, 0.685875
1368.93, 0.686466
1369.3, 0.686598
1369.66, 0.686138
1370.02, 0.686138
1370.38, 0.685612
1370.74, 0.683837
1371.11, 0.683771
1371.47, 0.684034
1371.83, 0.683376
1372.19, 0.682588
1372.56, 0.682653
1372.92, 0.682588
1373.29, 0.682456
1373.65, 0.681536
1374.01, 0.680418
1374.38, 0.679629
1374.74, 0.679038
1375.11, 0.678906
1375.47, 0.678840
1375.84, 0.678117
1376.2, 0.677526
1376.57, 0.675882
1376.93, 0.674764
1377.3, 0.674501
1377.67, 0.673910
1378.03, 0.672727
1378.4, 0.671083
1378.76, 0.670163
1379.13, 0.669702
1379.5, 0.669637
1379.87, 0.668585
1380.23, 0.665363
1380.6, 0.663326
1380.97, 0.663523
1381.34, 0.663326
1381.7, 0.662405
1382.07, 0.659644
1382.44, 0.656226
1382.81, 0.655502
1383.18, 0.655502
1383.55, 0.653990
1383.92, 0.651295
1384.29, 0.648600
1384.66, 0.645313
1385.03, 0.642486
1385.4, 0.639987
1385.77, 0.635977
1386.14, 0.631047
1386.51, 0.625985
1386.88, 0.621054
1387.25, 0.614809
1387.62, 0.606525
1387.99, 0.597979
1388.36, 0.589433
1388.74, 0.578520
1389.11, 0.565306
1389.48, 0.549791
1389.85, 0.532304
1390.23, 0.512187
1390.6, 0.487929
1390.97, 0.460449
1391.35, 0.429091
1391.72, 0.394380
1392.09, 0.358748
1392.47, 0.325680
1392.84, 0.298990
1393.21, 0.280977
1393.59, 0.274337
1393.96, 0.280253
1394.34, 0.296886
1394.71, 0.321078
1395.09, 0.349741
1395.46, 0.379654
1395.84, 0.408317
1396.22, 0.434810
1396.59, 0.459529
1396.97, 0.481684
1397.35, 0.500683
1397.72, 0.516789
1398.1, 0.530529
1398.48, 0.543217
1398.85, 0.554393
1399.23, 0.563860
1399.61, 0.572669
1399.99, 0.580361
1400.37, 0.586212
1400.74, 0.592391
1401.12, 0.598571
1401.5, 0.603436
1401.88, 0.607314
1402.26, 0.609747
1402.64, 0.611259
1403.02, 0.612442
1403.4, 0.612902
1403.78, 0.612771
1404.16, 0.612574
1404.54, 0.610996
1404.92, 0.610207
1405.3, 0.611456
1405.68, 0.612376
1406.06, 0.613494
1406.44, 0.615072
1406.83, 0.616387
1407.21, 0.618030
1407.59, 0.620462
1407.97, 0.622040
1408.35, 0.623289
1408.74, 0.623618
1409.12, 0.623618
1409.5, 0.624801
1409.89, 0.626182
1410.27, 0.626511
1410.65, 0.627365
1411.04, 0.628220
1411.42, 0.629272
1411.81, 0.630389
1412.19, 0.631310
1412.58, 0.632230
1412.96, 0.632690
1413.35, 0.632690
1413.73, 0.632888
1414.12, 0.633150
1414.5, 0.633742
1414.89, 0.634268
1415.28, 0.635057
1415.66, 0.635583
1416.05, 0.636240
1416.44, 0.635977
1416.82, 0.635780
1417.21, 0.636174
1417.6, 0.636372
1417.98, 0.636503
1418.37, 0.636503
1418.76, 0.635517
1419.15, 0.635254
1419.54, 0.635714
1419.93, 0.635451
1420.32, 0.635254
1420.71, 0.635123
1421.09, 0.634925
1421.48, 0.634531
1421.88, 0.634202
1422.27, 0.633545
1422.66, 0.632099
1423.05, 0.631113
1423.44, 0.630718
1423.83, 0.630587
1424.22, 0.630455
1424.61, 0.630126
1425.0, 0.629140
1425.39, 0.628746
1425.78, 0.628351
1426.18, 0.627891
1426.57, 0.627234
1426.96, 0.627037
1427.36, 0.626511
1427.75, 0.626050
1428.14, 0.625656
1428.54, 0.624999
1428.93, 0.624801
1429.32, 0.624867
1429.72, 0.624867
1430.11, 0.624604
1430.51, 0.624078
1430.9, 0.623487
1431.3, 0.623749
1431.69, 0.623815
1432.09, 0.624144
1432.48, 0.624473
1432.88, 0.625130
1433.28, 0.624933
1433.67, 0.624670
1434.07, 0.624933
1434.46, 0.624670
1434.86, 0.624604
1435.26, 0.624736
1435.66, 0.625130
1436.05, 0.625196
1436.45, 0.624867
1436.85, 0.624801
1437.25, 0.624341
1437.65, 0.623881
1438.05, 0.624341
1438.44, 0.624801
1438.84, 0.624670
1439.24, 0.624670
1439.64, 0.624604
1440.04, 0.624341
1440.44, 0.624473
1440.84, 0.624604
1441.24, 0.624473
1441.65, 0.624144
1442.05, 0.624210
1442.45, 0.624012
1442.85, 0.623749
1443.25, 0.623421
1443.65, 0.622961
1444.05, 0.622961
1444.46, 0.623158
1444.86, 0.622698
1445.26, 0.622303
1445.67, 0.622698
1446.07, 0.623026
1446.47, 0.622763
1446.88, 0.622895
1447.28, 0.623092
1447.68, 0.623289
1448.09, 0.623092
1448.49, 0.622763
1448.9, 0.622435
1449.3, 0.622435
1449.71, 0.622369
1450.11, 0.622172
1450.52, 0.621777
1450.93, 0.621186
1451.33, 0.620988
1451.74, 0.620528
1452.14, 0.620134
1452.55, 0.619674
1452.96, 0.619476
1453.36, 0.619411
1453.77, 0.618950
1454.18, 0.618622
1454.59, 0.618293
1455.0, 0.618227
1455.41, 0.617241
1455.81, 0.616584
1456.22, 0.616452
1456.63, 0.617110
1457.04, 0.616978
1457.45, 0.616650
1457.86, 0.616321
1458.27, 0.616321
1458.68, 0.616058
1459.09, 0.615926
1459.5, 0.615992
1459.91, 0.615861
1460.32, 0.615926
1460.74, 0.615926
1461.15, 0.615861
1461.56, 0.615598
1461.97, 0.615729
1462.39, 0.615532
1462.8, 0.615466
1463.21, 0.615400
1463.62, 0.615137
1464.04, 0.615072
1464.45, 0.614875
1464.86, 0.615072
1465.28, 0.614940
1465.69, 0.615006
1466.11, 0.615006
1466.52, 0.615137
1466.94, 0.615137
1467.35, 0.615400
1467.77, 0.615466
1468.18, 0.615532
1468.6, 0.615072
1469.02, 0.615006
1469.43, 0.615006
1469.85, 0.615335
1470.27, 0.615072
1470.68, 0.614940
1471.1, 0.614940
1471.52, 0.615072
1471.94, 0.615269
1472.35, 0.615335
1472.77, 0.615006
1473.19, 0.614875
1473.61, 0.614677
1474.03, 0.614809
1474.45, 0.615269
1474.87, 0.615663
1475.29, 0.615203
1475.71, 0.614743
1476.13, 0.614743
1476.55, 0.615006
1476.97, 0.615137
1477.39, 0.615203
1477.81, 0.615203
1478.23, 0.615072
1478.65, 0.614809
1479.07, 0.614743
1479.5, 0.614875
1479.92, 0.615072
1480.34, 0.615400
1480.76, 0.615729
1481.19, 0.615400
1481.61, 0.615137
1482.03, 0.615400
1482.46, 0.615663
1482.88, 0.615861
1483.31, 0.615598
1483.73, 0.615400
1484.16, 0.615532
1484.58, 0.615598
1485.01, 0.615532
1485.43, 0.615663
1485.86, 0.616387
1486.28, 0.616124
1486.71, 0.615663
1487.14, 0.615663
1487.56, 0.615861
1487.99, 0.616124
1488.42, 0.616387
1488.84, 0.616584
1489.27, 0.616584
1489.7, 0.616255
1490.13, 0.616452
1490.56, 0.616518
1490.98, 0.616255
1491.41, 0.616321
1491.84, 0.616189
1492.27, 0.616189
1492.7, 0.616781
1493.13, 0.616912
1493.56, 0.616781
1493.99, 0.616781
1494.42, 0.616978
1494.85, 0.617307
1495.29, 0.617307
1495.72, 0.617438
1496.15, 0.617438
1496.58, 0.617175
1497.01, 0.617373
1497.44, 0.617438
1497.88, 0.617636
1498.31, 0.617570
1498.74, 0.617373
1499.18, 0.617438
1499.61, 0.617438
1500.04, 0.617438
1500.48, 0.617636
1500.91, 0.617570
1501.35, 0.617373
1501.78, 0.617504
1502.22, 0.617636
1502.65, 0.617570
1503.09, 0.617767
1503.53, 0.617899
1503.96, 0.618030
1504.4, 0.618293
1504.83, 0.618425
1505.27, 0.618359
1505.71, 0.618359
1506.15, 0.618359
1506.58, 0.618490
1507.02, 0.618227
1507.46, 0.618030
1507.9, 0.618162
1508.34, 0.618490
1508.78, 0.618556
1509.21, 0.618425
1509.66, 0.618622
1510.09, 0.618753
1510.53, 0.618556
1510.97, 0.618425
1511.42, 0.618227
1511.86, 0.618490
1512.3, 0.618688
1512.74, 0.618688
1513.18, 0.618753
1513.62, 0.618950
1514.06, 0.619082
1514.51, 0.618753
1514.95, 0.618688
1515.39, 0.619148
1515.83, 0.619279
1516.28, 0.619082
1516.72, 0.619082
1517.16, 0.619411
1517.61, 0.619476
1518.05, 0.619411
1518.5, 0.619411
1518.94, 0.619476
1519.39, 0.619542
1519.83, 0.619871
1520.28, 0.619937
1520.73, 0.619739
1521.17, 0.619739
1521.62, 0.620068
1522.07, 0.619937
1522.51, 0.619937
1522.96, 0.619608
1523.41, 0.619674
1523.85, 0.619674
1524.3, 0.619871
1524.75, 0.620134
1525.2, 0.620265
1525.65, 0.620265
1526.1, 0.620462
1526.55, 0.620725
1527.0, 0.620923
1527.45, 0.621120
1527.9, 0.621317
1528.35, 0.621120
1528.8, 0.620988
1529.25, 0.620988
1529.7, 0.621054
1530.15, 0.621251
1530.6, 0.621580
1531.05, 0.621712
1531.51, 0.621843
1531.96, 0.621777
1532.41, 0.622172
1532.87, 0.622303
1533.32, 0.622500
1533.77, 0.622566
1534.23, 0.622566
1534.68, 0.622566
1535.14, 0.622895
1535.59, 0.623092
1536.05, 0.623092
1536.5, 0.623355
1536.96, 0.623487
1537.41, 0.623487
1537.87, 0.623881
1538.32, 0.624407
1538.78, 0.624538
1539.24, 0.624670
1539.7, 0.624999
1540.15, 0.625130
1540.61, 0.625590
1541.07, 0.625524
1541.53, 0.625327
1541.98, 0.625459
1542.44, 0.625722
1542.9, 0.625853
1543.36, 0.625985
1543.82, 0.625787
1544.28, 0.625919
1544.74, 0.625919
1545.2, 0.626050
1545.66, 0.626445
1546.12, 0.626511
1546.59, 0.626774
1547.05, 0.627102
1547.51, 0.626839
1547.97, 0.627168
1548.43, 0.627299
1548.9, 0.627431
1549.36, 0.627234
1549.82, 0.627234
1550.29, 0.627628
1550.75, 0.628023
1551.21, 0.628220
1551.68, 0.628220
1552.14, 0.628220
1552.61, 0.628614
1553.07, 0.628812
1553.54, 0.628746
1554.0, 0.628746
1554.47, 0.629272
1554.93, 0.629535
1555.4, 0.630126
1555.87, 0.630258
1556.34, 0.630258
1556.8, 0.630324
1557.27, 0.630784
1557.74, 0.631047
1558.21, 0.631047
1558.68, 0.631375
1559.14, 0.631573
1559.61, 0.631638
1560.08, 0.631704
1560.55, 0.631836
1561.02, 0.632033
1561.49, 0.632362
1561.96, 0.632296
1562.43, 0.632230
1562.9, 0.632493
1563.38, 0.632625
1563.85, 0.632625
1564.32, 0.632953
1564.79, 0.633216
1565.26, 0.633479
1565.74, 0.633413
1566.21, 0.633611
1566.68, 0.633676
1567.16, 0.633874
1567.63, 0.634005
1568.1, 0.634137
1568.58, 0.634465
1569.05, 0.634465
1569.53, 0.634728
1570.0, 0.635057
1570.48, 0.635123
1570.96, 0.635254
1571.43, 0.635320
1571.91, 0.635057
1572.39, 0.635254
1572.86, 0.635583
1573.34, 0.635386
1573.82, 0.635123
1574.3, 0.635517
1574.77, 0.635649
1575.25, 0.635780
1575.73, 0.636174
1576.21, 0.636306
1576.69, 0.636372
1577.17, 0.636898
1577.65, 0.636832
1578.13, 0.637029
1578.61, 0.637029
1579.09, 0.637226
1579.57, 0.637424
1580.05, 0.637555
1580.54, 0.637752
1581.02, 0.637950
1581.5, 0.637818
1581.98, 0.637687
1582.47, 0.637950
1582.95, 0.638475
1583.43, 0.638410
1583.92, 0.638475
1584.4, 0.638410
1584.88, 0.638541
1585.37, 0.638475
1585.85, 0.638804
1586.34, 0.638870
1586.82, 0.638804
1587.31, 0.639199
1587.8, 0.639264
1588.28, 0.639199
1588.77, 0.639527
1589.26, 0.639659
1589.74, 0.639462
1590.23, 0.639725
1590.72, 0.640316
1591.21, 0.640579
1591.7, 0.640711
1592.19, 0.640645
1592.67, 0.640645
1593.16, 0.640908
1593.65, 0.640908
1594.14, 0.641105
1594.63, 0.641302
1595.12, 0.641237
1595.61, 0.641894
1596.11, 0.641960
1596.6, 0.641565
1597.09, 0.641697
1597.58, 0.642091
1598.08, 0.642617
1598.57, 0.642814
1599.06, 0.642551
1599.55, 0.642551
1600.05, 0.642814
1600.54, 0.643143
1601.04, 0.643209
1601.53, 0.643340
1602.03, 0.643538
1602.52, 0.643866
1603.02, 0.643866
1603.51, 0.643932
1604.01, 0.644129
1604.5, 0.644261
1605.0, 0.644787
1605.5, 0.644787
1606.0, 0.644589
1606.49, 0.644589
1606.99, 0.645050
1607.49, 0.645773
1607.99, 0.646101
1608.49, 0.646364
1608.99, 0.646430
1609.49, 0.646233
1609.99, 0.646233
1610.49, 0.646496
1610.99, 0.646956
1611.49, 0.647219
1611.99, 0.647350
1612.49, 0.647745
1612.99, 0.648008
1613.49, 0.647876
1614.0, 0.647876
1614.5, 0.648271
1615.0, 0.648534
1615.51, 0.648863
1616.01, 0.648863
1616.51, 0.649060
1617.02, 0.649323
1617.52, 0.649388
1618.03, 0.649323
1618.53, 0.649651
1619.04, 0.650112
1619.54, 0.650375
1620.05, 0.650243
1620.55, 0.650309
1621.06, 0.650375
1621.57, 0.650835
1622.08, 0.651426
1622.58, 0.651295
1623.09, 0.651163
1623.6, 0.651426
1624.11, 0.651755
1624.62, 0.651689
1625.13, 0.651887
1625.64, 0.652281
1626.15, 0.652478
1626.66, 0.652478
1627.17, 0.652478
1627.68, 0.652610
1628.19, 0.652807
1628.7, 0.653070
1629.21, 0.653201
1629.72, 0.653399
1630.24, 0.653267
1630.75, 0.653333
1631.26, 0.653662
1631.78, 0.653925
1632.29, 0.653925
1632.8, 0.654122
1633.32, 0.653990
1633.83, 0.654056
1634.35, 0.654516
1634.86, 0.654911
1635.38, 0.654845
1635.9, 0.654648
1636.41, 0.654779
1636.93, 0.655108
1637.45, 0.655108
1637.96, 0.654845
1638.48, 0.655042
1639.0, 0.655502
1639.52, 0.655700
1640.04, 0.655831
1640.56, 0.656028
1641.08, 0.655963
1641.59, 0.655897
1642.11, 0.655963
1642.63, 0.656160
1643.16, 0.656357
1643.68, 0.656554
1644.2, 0.656620
1644.72, 0.656620
1645.24, 0.656949
1645.76, 0.657146
1646.29, 0.657146
1646.81, 0.657475
1647.33, 0.657672
1647.86, 0.657475
1648.38, 0.657343
1648.9, 0.657277
1649.43, 0.657343
1649.95, 0.657343
1650.48, 0.657409
1651.0, 0.657738
1651.53, 0.658001
1652.06, 0.657803
1652.58, 0.657803
1653.11, 0.657803
1653.64, 0.657803
1654.17, 0.658066
1654.69, 0.658066
1655.22, 0.658592
1655.75, 0.658789
1656.28, 0.658789
1656.81, 0.658789
1657.34, 0.658658
1657.87, 0.658855
1658.4, 0.659250
1658.93, 0.659578
1659.46, 0.659513
1659.99, 0.659578
1660.52, 0.659710
1661.05, 0.660039
1661.59, 0.660039
1662.12, 0.660104
1662.65, 0.660433
1663.19, 0.660630
1663.72, 0.660696
1664.26, 0.660696
1664.79, 0.660696
1665.32, 0.660827
1665.86, 0.661156
1666.39, 0.661485
1666.93, 0.661682
1667.47, 0.661813
1668.0, 0.661748
1668.54, 0.661813
1669.08, 0.662274
1669.61, 0.662405
1670.15, 0.662208
1670.69, 0.662274
1671.23, 0.662405
1671.77, 0.662471
1672.31, 0.662800
1672.85, 0.663260
1673.39, 0.663391
1673.93, 0.663457
1674.47, 0.663588
1675.01, 0.663720
1675.55, 0.663917
1676.09, 0.663851
1676.64, 0.664049
1677.18, 0.664049
1677.72, 0.664180
1678.26, 0.664443
1678.81, 0.664640
1679.35, 0.664838
1679.89, 0.664706
1680.44, 0.664838
1680.98, 0.664706
1681.53, 0.664903
1682.07, 0.665035
1682.62, 0.665166
1683.17, 0.665166
1683.71, 0.665101
1684.26, 0.665298
1684.81, 0.665495
1685.36, 0.665298
1685.9, 0.665166
1686.45, 0.665298
1687.0, 0.665627
1687.55, 0.665824
1688.1, 0.666284
1688.65, 0.666415
1689.2, 0.666613
1689.75, 0.666678
1690.3, 0.666941
1690.85, 0.667073
1691.41, 0.667270
1691.96, 0.667599
1692.51, 0.667730
1693.06, 0.667993
1693.61, 0.668322
1694.17, 0.668388
1694.72, 0.668388
1695.28, 0.668519
1695.83, 0.668913
1696.39, 0.669176
1696.94, 0.669176
1697.5, 0.669242
1698.05, 0.669505
1698.61, 0.669308
1699.17, 0.669374
1699.72, 0.669505
1700.28, 0.669571
1700.84, 0.669834
1701.4, 0.669834
1701.95, 0.669637
1702.51, 0.669571
1703.07, 0.669834
1703.63, 0.670097
1704.19, 0.669900
1704.75, 0.669900
1705.31, 0.670097
1705.88, 0.670097
1706.44, 0.670163
1707.0, 0.670294
1707.56, 0.670623
1708.12, 0.670754
1708.69, 0.670689
1709.25, 0.670689
1709.81, 0.670754
1710.38, 0.670886
1710.94, 0.671214
1711.51, 0.671543
1712.07, 0.671543
1712.64, 0.671280
1713.2, 0.671280
1713.77, 0.671412
1714.34, 0.671412
1714.9, 0.671346
1715.47, 0.671346
1716.04, 0.671346
1716.61, 0.671280
1717.18, 0.671609
1717.74, 0.671675
1718.31, 0.671675
1718.88, 0.671806
1719.45, 0.671609
1720.02, 0.671412
1720.59, 0.671806
1721.17, 0.671872
1721.74, 0.671609
1722.31, 0.671477
1722.88, 0.671543
1723.45, 0.671675
1724.03, 0.671346
1724.6, 0.671280
1725.18, 0.671412
1725.75, 0.671740
1726.33, 0.671938
1726.9, 0.671740
1727.48, 0.672003
1728.05, 0.672003
1728.63, 0.671675
1729.2, 0.671806
1729.78, 0.672266
1730.36, 0.672529
1730.94, 0.672595
1731.51, 0.672661
1732.09, 0.672529
1732.67, 0.672661
1733.25, 0.672727
1733.83, 0.672792
1734.41, 0.672989
1734.99, 0.673055
1735.57, 0.673450
1736.15, 0.673778
1736.73, 0.673713
1737.32, 0.673778
1737.9, 0.673844
1738.48, 0.673844
1739.07, 0.673844
1739.65, 0.673976
1740.23, 0.674370
1740.82, 0.674633
1741.4, 0.674764
1741.99, 0.674633
1742.57, 0.674764
1743.16, 0.674764
1743.74, 0.675027
1744.33, 0.674962
1744.92, 0.674962
1745.51, 0.675290
1746.09, 0.675685
1746.68, 0.675685
1747.27, 0.675751
1747.86, 0.675882
1748.45, 0.675948
1749.04, 0.675948
1749.63, 0.676408
1750.22, 0.676277
1750.81, 0.676342
1751.4, 0.676474
1751.99, 0.676671
1752.59, 0.676802
1753.18, 0.677000
1753.77, 0.677197
1754.37, 0.677460
1754.96, 0.677657
1755.56, 0.677723
1756.15, 0.677591
1756.74, 0.677920
1757.34, 0.678183
1757.94, 0.678249
1758.53, 0.678446
1759.13, 0.678512
1759.73, 0.678577
1760.32, 0.678972
1760.92, 0.679169
1761.52, 0.679169
1762.12, 0.679103
1762.72, 0.679169
1763.32, 0.679432
1763.92, 0.679498
1764.52, 0.679432
1765.12, 0.679761
1765.72, 0.680024
1766.32, 0.680352
1766.92, 0.680418
1767.53, 0.680747
1768.13, 0.680615
1768.73, 0.680681
1769.34, 0.680615
1769.94, 0.680813
1770.55, 0.681010
1771.15, 0.681207
1771.76, 0.681273
1772.36, 0.681207
1772.97, 0.681404
1773.57, 0.681733
1774.18, 0.681602
1774.79, 0.681667
1775.4, 0.681733
1776.0, 0.681930
1776.61, 0.681865
1777.22, 0.681996
1777.83, 0.681733
1778.44, 0.681667
1779.05, 0.682062
1779.66, 0.682390
1780.27, 0.682390
1780.88, 0.682127
1781.5, 0.681996
1782.11, 0.682325
1782.72, 0.682456
1783.33, 0.682653
1783.95, 0.682522
1784.56, 0.682325
1785.18, 0.682325
1785.79, 0.682456
1786.41, 0.682522
1787.02, 0.682522
1787.64, 0.682456
1788.26, 0.682390
1788.87, 0.682193
1789.49, 0.682127
1790.11, 0.682325
1790.73, 0.682193
1791.35, 0.681996
1791.96, 0.682062
1792.58, 0.682062
1793.21, 0.682193
1793.83, 0.682456
1794.45, 0.682522
1795.07, 0.682193
1795.69, 0.682062
1796.31, 0.681930
1796.93, 0.681799
1797.56, 0.681865
1798.18, 0.681930
1798.8, 0.681799
1799.43, 0.681470
1800.05, 0.681273
1800.68, 0.681273
1801.3, 0.681339
1801.93, 0.681470
1802.56, 0.681404
1803.18, 0.681404
1803.81, 0.681141
1804.44, 0.680944
1805.07, 0.681141
1805.7, 0.681010
1806.33, 0.681010
1806.95, 0.681207
1807.58, 0.681339
1808.22, 0.681404
1808.85, 0.681667
1809.48, 0.681733
1810.11, 0.681536
1810.74, 0.681602
1811.38, 0.681930
1812.01, 0.682193
1812.64, 0.682193
1813.28, 0.682390
1813.91, 0.682719
1814.55, 0.682785
1815.18, 0.682390
1815.82, 0.682259
1816.45, 0.682456
1817.09, 0.682785
1817.73, 0.683114
1818.36, 0.682982
1819.0, 0.683048
1819.64, 0.682522
1820.28, 0.681799
1820.92, 0.682325
1821.56, 0.682522
1822.2, 0.683048
1822.84, 0.683639
1823.48, 0.683968
1824.12, 0.684034
1824.76, 0.684100
1825.41, 0.683179
1826.05, 0.681733
1826.69, 0.682982
1827.34, 0.684100
1827.98, 0.683639
1828.63, 0.683771
1829.27, 0.684165
1829.92, 0.683771
1830.56, 0.682785
1831.21, 0.682916
1831.86, 0.683574
1832.5, 0.683837
1833.15, 0.684363
1833.8, 0.684494
1834.45, 0.683639
1835.1, 0.682982
1835.75, 0.682325
1836.4, 0.682588
1837.05, 0.682916
1837.7, 0.682851
1838.35, 0.684428
1839.01, 0.684165
1839.66, 0.683114
1840.31, 0.684100
1840.96, 0.684034
1841.62, 0.682390
1842.27, 0.683574
1842.93, 0.685349
1843.58, 0.685677
1844.24, 0.685546
1844.9, 0.685809
1845.55, 0.685809
1846.21, 0.684034
1846.87, 0.682259
1847.53, 0.682785
1848.18, 0.683442
1848.84, 0.684889
1849.5, 0.685875
1850.16, 0.685940
1850.82, 0.686138
1851.48, 0.686598
1852.14, 0.686138
1852.81, 0.685020
1853.47, 0.683574
1854.13, 0.684297
1854.8, 0.686269
1855.46, 0.686532
1856.12, 0.685283
1856.79, 0.684889
1857.45, 0.686072
1858.12, 0.686664
1858.79, 0.685875
1859.45, 0.683771
1860.12, 0.684165
1860.79, 0.685349
1861.46, 0.686203
1862.12, 0.686466
1862.79, 0.686401
1863.46, 0.685677
1864.13, 0.685349
1864.8, 0.686072
1865.48, 0.686598
1866.15, 0.686401
1866.82, 0.685283
1867.49, 0.683508
1868.16, 0.684100
1868.84, 0.685349
1869.51, 0.685152
1870.19, 0.683376
1870.86, 0.681865
1871.54, 0.683903
1872.21, 0.683837
1872.89, 0.681733
1873.56, 0.682982
1874.24, 0.684691
1874.92, 0.684428
1875.6, 0.684560
1876.28, 0.683903
1876.96, 0.683179
1877.64, 0.684297
1878.32, 0.684954
1879.0, 0.684889
1879.68, 0.684823
1880.36, 0.684954
1881.04, 0.684691
1881.73, 0.684889
1882.41, 0.684757
1883.09, 0.684165
1883.78, 0.683179
1884.46, 0.683574
1885.15, 0.684100
1885.83, 0.684034
1886.52, 0.683574
1887.21, 0.683771
1887.89, 0.684165
1888.58, 0.683968
1889.27, 0.682982
1889.96, 0.681930
1890.65, 0.682325
1891.34, 0.682522
1892.03, 0.682325
1892.72, 0.682719
1893.41, 0.682522
1894.1, 0.682653
1894.79, 0.682916
1895.49, 0.682653
1896.18, 0.682325
1896.87, 0.681733
1897.57, 0.681339
1898.26, 0.681273
1898.96, 0.679761
1899.65, 0.678709
1900.35, 0.679958
1901.05, 0.681339
1901.74, 0.681273
1902.44, 0.679629
1903.14, 0.679761
1903.84, 0.680944
1904.54, 0.679629
1905.24, 0.678380
1905.94, 0.679103
1906.64, 0.679629
1907.34, 0.680550
1908.04, 0.681076
1908.75, 0.681141
1909.45, 0.681404
1910.15, 0.681404
1910.86, 0.681207
1911.56, 0.681076
1912.27, 0.681470
1912.97, 0.680287
1913.68, 0.679826
1914.39, 0.680944
1915.09, 0.681470
1915.8, 0.681273
1916.51, 0.681536
1917.22, 0.681930
1917.93, 0.681930
1918.64, 0.681470
1919.35, 0.680352
1920.06, 0.679235
1920.77, 0.679629
1921.48, 0.681667
1922.19, 0.682127
1922.91, 0.681799
1923.62, 0.681339
1924.33, 0.681404
1925.05, 0.681930
1925.76, 0.681865
1926.48, 0.681602
1927.19, 0.681470
1927.91, 0.681404
1928.63, 0.681404
1929.35, 0.682062
1930.07, 0.682259
1930.78, 0.682127
1931.5, 0.681996
1932.22, 0.682127
1932.94, 0.682193
1933.66, 0.682325
1934.39, 0.682390
1935.11, 0.682193
1935.83, 0.681930
1936.55, 0.681799
1937.28, 0.681799
1938.0, 0.681733
1938.73, 0.681602
1939.45, 0.681667
1940.18, 0.681667
1940.9, 0.681799
1941.63, 0.682062
1942.36, 0.681799
1943.09, 0.681470
1943.81, 0.681273
1944.54, 0.681470
1945.27, 0.681404
1946.0, 0.681273
1946.73, 0.681207
1947.47, 0.680878
1948.2, 0.680550
1948.93, 0.680550
1949.66, 0.680681
1950.4, 0.680615
1951.13, 0.680681
1951.86, 0.680615
1952.6, 0.680287
1953.34, 0.680287
1954.07, 0.680418
1954.81, 0.680352
1955.55, 0.680221
1956.29, 0.680221
1957.02, 0.680484
1957.76, 0.680681
1958.5, 0.680550
1959.24, 0.680615
1959.98, 0.680615
1960.72, 0.680550
1961.47, 0.680550
1962.21, 0.680550
1962.95, 0.680484
1963.7, 0.680550
1964.44, 0.680681
1965.18, 0.680813
1965.93, 0.681010
1966.67, 0.680681
1967.42, 0.680681
1968.17, 0.680681
1968.92, 0.680747
1969.66, 0.680813
1970.41, 0.680747
1971.16, 0.680550
1971.91, 0.680352
1972.66, 0.680287
1973.41, 0.680221
1974.16, 0.680090
1974.92, 0.679958
1975.67, 0.680024
1976.42, 0.680024
1977.18, 0.679958
1977.93, 0.679958
1978.69, 0.680024
1979.44, 0.679695
1980.2, 0.679629
1980.95, 0.679629
1981.71, 0.679498
1982.47, 0.679432
1983.23, 0.679235
1983.99, 0.679235
1984.74, 0.679038
1985.51, 0.679103
1986.27, 0.678972
1987.03, 0.678906
1987.79, 0.678643
1988.55, 0.678512
1989.32, 0.678446
1990.08, 0.678314
1990.84, 0.677986
1991.61, 0.678183
1992.37, 0.678249
1993.14, 0.678052
1993.9, 0.677789
1994.67, 0.677723
1995.44, 0.677854
1996.21, 0.677723
1996.98, 0.677723
1997.75, 0.677789
1998.52, 0.677657
1999.29, 0.677657
2000.06, 0.677723
2000.83, 0.677591
2001.6, 0.677460
2002.38, 0.677394
2003.15, 0.677460
2003.93, 0.677526
2004.7, 0.677263
2005.48, 0.677131
2006.25, 0.677197
2007.03, 0.677197
2007.81, 0.677131
2008.58, 0.677065
2009.36, 0.676802
2010.14, 0.676605
2010.92, 0.676539
2011.7, 0.676605
2012.48, 0.676671
2013.26, 0.676539
2014.05, 0.676408
2014.83, 0.676277
2015.61, 0.676211
2016.4, 0.676277
2017.18, 0.676408
2017.97, 0.676474
2018.75, 0.676539
2019.54, 0.676737
2020.32, 0.676539
2021.11, 0.676539
2021.9, 0.676868
2022.69, 0.677000
2023.48, 0.677000
2024.27, 0.676934
2025.06, 0.676671
2025.85, 0.676737
2026.64, 0.677000
2027.44, 0.677197
2028.23, 0.677263
2029.02, 0.677197
2029.82, 0.677460
2030.61, 0.677526
2031.41, 0.677591
2032.2, 0.677723
2033.0, 0.677723
2033.8, 0.677854
2034.6, 0.678117
2035.4, 0.678446
2036.2, 0.678709
2037.0, 0.678840
2037.8, 0.678840
2038.6, 0.679038
2039.4, 0.678972
2040.2, 0.678906
2041.01, 0.678972
2041.81, 0.679038
2042.61, 0.679038
2043.42, 0.678709
2044.22, 0.678380
2045.03, 0.678052
2045.84, 0.677920
2046.65, 0.677591
2047.46, 0.677065
2048.26, 0.676605
2049.07, 0.675751
2049.88, 0.674764
2050.69, 0.673581
2051.51, 0.672332
2052.32, 0.670886
2053.13, 0.669374
2053.94, 0.667467
2054.76, 0.665561
2055.57, 0.663110
2056.39, 0.661389
2057.2, 0.659468
2058.02, 0.657018
2058.84, 0.654170
2059.66, 0.651918
2060.48, 0.649865
2061.29, 0.647812
2062.11, 0.646223
2062.94, 0.645031
2063.76, 0.644236
2064.58, 0.642647
2065.4, 0.641455
2066.22, 0.640925
2067.05, 0.640462
2067.87, 0.640064
2068.7, 0.640528
2069.52, 0.640197
2070.35, 0.638806
2071.18, 0.637548
2072.0, 0.635958
2072.83, 0.633839
2073.66, 0.631322
2074.49, 0.628607
2075.32, 0.625958
2076.15, 0.621786
2076.98, 0.617746
2077.82, 0.612912
2078.65, 0.607945
2079.48, 0.602713
2080.32, 0.596687
2081.15, 0.591389
2081.99, 0.586952
2082.83, 0.583309
2083.66, 0.580793
2084.5, 0.579468
2085.34, 0.579667
2086.18, 0.579799
2087.02, 0.580925
2087.86, 0.583707
2088.7, 0.587217
2089.54, 0.591985
2090.39, 0.597150
2091.23, 0.602117
2092.07, 0.606621
2092.92, 0.611852
2093.76, 0.617879
2094.61, 0.623309
2095.45, 0.628409
2096.3, 0.632978
2097.15, 0.637084
2098.0, 0.640329
2098.85, 0.643574
2099.7, 0.646554
2100.55, 0.648938
2101.4, 0.650263
2102.25, 0.651653
2103.1, 0.653243
2103.96, 0.653905
2104.81, 0.653574
2105.67, 0.653773
2106.52, 0.654634
2107.38, 0.655230
2108.24, 0.654700
2109.09, 0.654038
2109.95, 0.653773
2110.81, 0.652846
2111.67, 0.651786
2112.53, 0.651190
2113.39, 0.650329
2114.25, 0.648938
2115.12, 0.647812
2115.98, 0.646289
2116.84, 0.644766
2117.71, 0.643110
2118.58, 0.641256
2119.44, 0.640329
2120.31, 0.639667
2121.18, 0.638475
2122.04, 0.636687
2122.91, 0.633839
2123.78, 0.630660
2124.65, 0.628276
2125.52, 0.625362
2126.4, 0.622581
2127.27, 0.620594
2128.14, 0.619071
2129.02, 0.617481
2129.89, 0.615230
2130.77, 0.613309
2131.64, 0.611720
2132.52, 0.610130
2133.4, 0.608607
2134.27, 0.606554
2135.15, 0.604369
2136.03, 0.602250
2136.91, 0.600660
2137.79, 0.599402
2138.68, 0.598475
2139.56, 0.597150
2140.44, 0.596554
2141.33, 0.595892
2142.21, 0.594038
2143.1, 0.590528
2143.99, 0.586753
2144.87, 0.582250
2145.76, 0.576886
2146.65, 0.571786
2147.54, 0.566422
2148.43, 0.560396
2149.32, 0.553707
2150.21, 0.546290
2151.1, 0.537945
2151.99, 0.527945
2152.89, 0.517283
2153.78, 0.506753
2154.68, 0.495892
2155.57, 0.485230
2156.47, 0.475561
2157.37, 0.465628
2158.27, 0.453707
2159.16, 0.438475
2160.06, 0.419601
2160.96, 0.397681
2161.86, 0.374568
2162.77, 0.353641
2163.67, 0.337217
2164.57, 0.324966
2165.48, 0.315959
2166.38, 0.310264
2167.29, 0.307814
2168.2, 0.309602
2169.1, 0.316423
2170.01, 0.327880
2170.92, 0.344237
2171.83, 0.362582
2172.74, 0.381721
2173.65, 0.400396
2174.56, 0.418277
2175.47, 0.435628
2176.39, 0.451720
2177.3, 0.466356
2178.22, 0.480992
2179.13, 0.495230
2180.05, 0.507548
2180.96, 0.518740
2181.88, 0.529005
2182.8, 0.537945
2183.72, 0.545892
2184.64, 0.552780
2185.56, 0.559270
2186.48, 0.564369
2187.41, 0.569468
2188.33, 0.574170
2189.25, 0.578144
2190.18, 0.581455
2191.1, 0.584038
2192.03, 0.585958
2192.96, 0.588078
2193.89, 0.589336
2194.82, 0.590329
2195.74, 0.591058
2196.68, 0.591323
2197.61, 0.591124
2198.54, 0.590528
2199.47, 0.590462
2200.4, 0.590528
2201.34, 0.590131
2202.28, 0.590528
2203.21, 0.592250
2204.15, 0.593972
2205.08, 0.594700
2206.02, 0.595097
2206.96, 0.595693
2207.9, 0.595362
2208.84, 0.594833
2209.78, 0.593905
2210.73, 0.592117
2211.67, 0.590329
2212.61, 0.588674
2213.56, 0.586819
2214.5, 0.585429
2215.45, 0.583707
2216.4, 0.581190
2217.35, 0.579203
2218.3, 0.577084
2219.24, 0.575495
2220.2, 0.574634
2221.15, 0.574965
2222.1, 0.576025
2223.05, 0.578938
2224.0, 0.583044
2224.96, 0.587150
2225.91, 0.591190
2226.87, 0.594236
2227.83, 0.596356
2228.79, 0.597746
2229.74, 0.598938
2230.7, 0.599468
2231.66, 0.600130
2232.63, 0.601058
2233.59, 0.600793
2234.55, 0.599998
2235.51, 0.599468
2236.48, 0.599071
2237.44, 0.598806
2238.41, 0.598342
2239.38, 0.597548
2240.34, 0.596554
2241.31, 0.596091
2242.28, 0.595693
2243.25, 0.594766
2244.22, 0.593508
2245.19, 0.592382
2246.17, 0.591190
2247.14, 0.590131
2248.12, 0.589005
2249.09, 0.587813
2250.07, 0.586157
2251.04, 0.584568
2252.02, 0.583442
2253.0, 0.582051
2253.98, 0.580859
2254.96, 0.579601
2255.94, 0.578342
2256.92, 0.577283
2257.91, 0.575429
2258.89, 0.573773
2259.88, 0.572912
2260.86, 0.571786
2261.85, 0.570462
2262.83, 0.568939
2263.82, 0.567482
2264.81, 0.565958
2265.8, 0.564634
2266.79, 0.562780
2267.78, 0.560992
2268.78, 0.559601
2269.77, 0.558210
2270.76, 0.556025
2271.76, 0.553574
2272.75, 0.551521
2273.75, 0.549733
2274.75, 0.547482
2275.75, 0.544170
2276.75, 0.540992
2277.75, 0.538144
2278.75, 0.535429
2279.75, 0.532184
2280.75, 0.528740
2281.76, 0.525230
2282.76, 0.521654
2283.77, 0.517945
2284.77, 0.514369
2285.78, 0.511323
2286.79, 0.509270
2287.8, 0.507482
2288.81, 0.505694
2289.82, 0.504171
2290.83, 0.503045
2291.84, 0.502051
2292.86, 0.500594
2293.87, 0.498806
2294.89, 0.497548
2295.91, 0.496422
2296.92, 0.495164
2297.94, 0.493310
2298.96, 0.491257
2299.98, 0.488608
2301.0, 0.486091
2302.02, 0.483773
2303.04, 0.481323
2304.07, 0.478740
2305.09, 0.476290
2306.12, 0.474171
2307.15, 0.471257
2308.17, 0.468806
2309.2, 0.466356
2310.23, 0.462714
2311.26, 0.458475
2312.29, 0.454104
2313.32, 0.449535
2314.35, 0.444634
2315.39, 0.439601
2316.42, 0.434833
2317.46, 0.430528
2318.5, 0.427614
2319.53, 0.426091
2320.57, 0.425760
2321.61, 0.426952
2322.65, 0.429535
2323.69, 0.433575
2324.73, 0.438144
2325.78, 0.443575
2326.82, 0.449667
2327.86, 0.456224
2328.91, 0.462846
2329.96, 0.469071
2331.01, 0.474038
2332.05, 0.478873
2333.1, 0.482846
2334.15, 0.485892
2335.21, 0.488409
2336.26, 0.490131
2337.31, 0.490859
2338.36, 0.491323
2339.42, 0.490793
2340.48, 0.488873
2341.53, 0.486290
2342.59, 0.482846
2343.65, 0.478674
2344.71, 0.474700
2345.77, 0.471389
2346.83, 0.469204
2347.9, 0.468144
2348.96, 0.468277
2350.02, 0.469866
2351.09, 0.471058
2352.16, 0.472118
2353.23, 0.473244
2354.29, 0.474568
2355.36, 0.475694
2356.43, 0.476488
2357.51, 0.477548
2358.58, 0.478210
2359.65, 0.478343
2360.73, 0.479005
2361.8, 0.480065
2362.88, 0.480528
2363.96, 0.481786
2365.03, 0.483177
2366.11, 0.484502
2367.19, 0.486488
2368.27, 0.488608
2369.36, 0.490727
2370.44, 0.492780
2371.53, 0.494634
2372.61, 0.495363
2373.7, 0.495296
2374.78, 0.494104
2375.87, 0.492051
2376.96, 0.488873
2378.05, 0.484104
2379.14, 0.478939
2380.24, 0.474038
2381.33, 0.469402
2382.42, 0.464634
2383.52, 0.460595
2384.61, 0.457813
2385.71, 0.454833
2386.81, 0.451389
2387.91, 0.448542
2389.01, 0.445760
2390.11, 0.443244
2391.22, 0.441720
2392.32, 0.441853
2393.42, 0.442979
2394.53, 0.444369
2395.64, 0.445429
2396.74, 0.446886
2397.85, 0.448144
2398.96, 0.448542
2400.07, 0.448409
2401.18, 0.447813
2402.3, 0.447217
2403.41, 0.447018
2404.52, 0.446754
2405.64, 0.446555
2406.76, 0.446754
2407.88, 0.446952
2408.99, 0.447813
2410.11, 0.448740
2411.23, 0.449138
2412.36, 0.449336
2413.48, 0.449667
2414.6, 0.449403
2415.73, 0.449204
2416.85, 0.448873
2417.98, 0.447879
2419.11, 0.446157
2420.24, 0.443906
2421.37, 0.440793
2422.5, 0.437813
2423.64, 0.435562
2424.77, 0.434038
2425.9, 0.432449
2427.04, 0.430926
2428.18, 0.429800
2429.31, 0.429204
2430.45, 0.428475
2431.59, 0.427879
2432.73, 0.428409
2433.88, 0.429469
2435.02, 0.430793
2436.16, 0.432714
2437.31, 0.435230
2438.45, 0.437416
2439.6, 0.439403
2440.75, 0.441124
2441.9, 0.441787
2443.05, 0.442052
2444.2, 0.441323
2445.35, 0.440330
2446.51, 0.439866
2447.67, 0.439800
2448.82, 0.439667
2449.98, 0.439270
2451.14, 0.438740
2452.3, 0.437085
2453.46, 0.434436
2454.62, 0.431654
2455.78, 0.429403
2456.94, 0.428542
2458.11, 0.429469
2459.28, 0.431787
2460.44, 0.433840
2461.61, 0.434965
2462.78, 0.434965
2463.95, 0.434171
2465.12, 0.432648
2466.3, 0.430860
2467.47, 0.429734
2468.65, 0.429204
2469.82, 0.428674
2471.0, 0.428343
2472.18, 0.427614
2473.36, 0.426754
2474.54, 0.425164
2475.72, 0.422250
2476.9, 0.418277
2478.08, 0.413376
2479.27, 0.407813
2480.46, 0.402118
2481.64, 0.397946
2482.83, 0.395694
2484.02, 0.394370
2485.21, 0.393509
2486.4, 0.391985
2487.6, 0.390462
2488.79, 0.388740
2489.99, 0.386290
2491.18, 0.383509
2492.38, 0.381125
2493.58, 0.379601
2494.78, 0.379337
2495.98, 0.379403
2497.18, 0.379072
2498.39, 0.377482
2499.59, 0.375363
2500.8, 0.372846
2502.01, 0.370595
2503.21, 0.368807
2504.42, 0.367284
2505.63, 0.365959
2506.84, 0.364767
2508.06, 0.363310
2509.27, 0.362515
2510.49, 0.362913
2511.7, 0.363906
2512.92, 0.365562
2514.14, 0.367681
2515.36, 0.370264
2516.58, 0.373111
2517.8, 0.375760
2519.03, 0.379005
2520.25, 0.382913
2521.48, 0.387151
2522.7, 0.391654
2523.93, 0.396423
2525.16, 0.400396
2526.39, 0.403376
2527.62, 0.406091
2528.86, 0.408476
2530.09, 0.410131
2531.33, 0.411522
2532.56, 0.413310
2533.8, 0.414767
2535.04, 0.414701
2536.28, 0.413641
2537.52, 0.413244
2538.76, 0.412581
2540.01, 0.411058
2541.25, 0.408542
2542.5, 0.404370
2543.75, 0.399932
2544.99, 0.394303
2546.24, 0.386952
2547.49, 0.380727
2548.75, 0.377880
2550.0, 0.377019
2551.26, 0.379138
2552.51, 0.384568
2553.77, 0.392913
2555.03, 0.399601
2556.29, 0.401985
2557.55, 0.401456
2558.81, 0.400065
2560.08, 0.397217
2561.34, 0.395297
2562.61, 0.396025
2563.88, 0.396224
2565.14, 0.396754
2566.41, 0.396290
2567.68, 0.392118
2568.96, 0.384701
2570.23, 0.380264
2571.51, 0.379668
2572.78, 0.378807
2574.06, 0.384767
2575.34, 0.391721
2576.62, 0.394767
2577.9, 0.398475
2579.18, 0.399336
2580.47, 0.394966
2581.75, 0.390065
2583.04, 0.381456
2584.32, 0.374039
2585.61, 0.369005
2586.9, 0.359999
2588.2, 0.353310
2589.49, 0.349072
2590.78, 0.345628
2592.08, 0.339337
2593.37, 0.326357
2594.67, 0.311986
2595.97, 0.309602
2597.27, 0.309535
2598.57, 0.308012
2599.88, 0.307482
2601.18, 0.308542
2602.49, 0.309403
2603.79, 0.307482
2605.1, 0.302847
2606.41, 0.301787
2607.72, 0.302449
2609.03, 0.302913
2610.35, 0.305761
2611.66, 0.311191
2612.98, 0.318476
2614.3, 0.327681
2615.62, 0.332847
2616.94, 0.338741
2618.26, 0.348343
2619.58, 0.352052
2620.91, 0.357813
2622.23, 0.366423
2623.56, 0.370727
2624.89, 0.371323
2626.22, 0.369601
2627.55, 0.372913
2628.88, 0.373310
2630.21, 0.370462
2631.55, 0.374370
2632.89, 0.376356
2634.22, 0.376687
2635.56, 0.378542
2636.9, 0.378740
2638.25, 0.378277
2639.59, 0.377813
2640.93, 0.377615
2642.28, 0.377813
2643.63, 0.378476
2644.98, 0.378277
2646.33, 0.379734
2647.68, 0.382118
2649.03, 0.382780
2650.39, 0.381323
2651.74, 0.377681
2653.1, 0.375628
2654.46, 0.373840
2655.82, 0.371058
2657.18, 0.369403
2658.54, 0.364833
2659.9, 0.360529
2661.27, 0.357681
2662.64, 0.354436
2664.01, 0.346158
2665.38, 0.337946
2666.74, 0.334039
2668.12, 0.332780
2669.49, 0.324370
2670.87, 0.318741
2672.24, 0.320926
2673.62, 0.318012
2675.0, 0.311522
2676.38, 0.304304
2677.76, 0.300595
2679.15, 0.296622
2680.54, 0.294105
2681.92, 0.288939
2683.31, 0.281588
2684.7, 0.274569
2686.09, 0.266953
2687.48, 0.258940
2688.88, 0.250661
2690.27, 0.241059
2691.67, 0.229403
2693.07, 0.215364
2694.47, 0.203774
2695.87, 0.194701
2697.27, 0.185893
2698.67, 0.176622
2700.08, 0.165496
2701.49, 0.153907
2702.9, 0.143576
2704.31, 0.133046
2705.72, 0.122450
2707.13, 0.111059
2708.54, 0.0989400
2709.96, 0.0871520
2711.38, 0.0762910
2712.8, 0.0668210
2714.22, 0.0578810
2715.64, 0.0521850
2717.06, 0.0539730
2718.49, 0.0620530
2719.91, 0.0662250
2721.34, 0.0635760
2722.77, 0.0605300
2724.2, 0.0601320
2725.63, 0.0639070
2727.07, 0.0703310
2728.5, 0.0778810
2729.94, 0.0852320
2731.38, 0.0912580
2732.82, 0.0968210
2734.26, 0.103112
2735.7, 0.110993
2737.15, 0.117019
2738.59, 0.118741
2740.04, 0.116821
2741.49, 0.111655
2742.94, 0.106622
2744.39, 0.110265
2745.84, 0.123112
2747.3, 0.137351
2748.76, 0.147682
2750.21, 0.153311
2751.67, 0.157880
2753.14, 0.164503
2754.6, 0.172251
2756.06, 0.183973
2757.53, 0.197417
2759.0, 0.208013
2760.46, 0.216026
2761.94, 0.223509
2763.41, 0.233642
2764.88, 0.243244
2766.36, 0.248741
2767.83, 0.254105
2769.31, 0.261059
2770.79, 0.267747
2772.27, 0.276092
2773.76, 0.284039
2775.24, 0.287350
2776.73, 0.283906
2778.22, 0.278145
2779.71, 0.276092
2781.2, 0.278608
2782.69, 0.281257
2784.18, 0.283575
2785.68, 0.285363
2787.18, 0.288012
2788.68, 0.295694
2790.18, 0.302847
2791.68, 0.307814
2793.19, 0.311390
2794.69, 0.314966
2796.2, 0.318476
2797.71, 0.320727
2799.22, 0.320661
2800.73, 0.318608
2802.24, 0.315429
2803.76, 0.315032
2805.28, 0.316489
2806.8, 0.317151
2808.32, 0.317217
2809.84, 0.318078
2811.36, 0.321191
2812.89, 0.324966
2814.42, 0.327151
2815.94, 0.329337
2817.48, 0.332515
2819.01, 0.334966
2820.54, 0.336555
2822.08, 0.337880
2823.61, 0.338145
2825.15, 0.337880
2826.69, 0.337350
2828.23, 0.336886
2829.78, 0.335959
2831.32, 0.333906
2832.87, 0.330529
2834.42, 0.326423
2835.97, 0.322383
2837.52, 0.319006
2839.08, 0.316357
2840.63, 0.313244
2842.19, 0.309469
2843.75, 0.305893
2845.31, 0.303178
2846.87, 0.301390
2848.44, 0.300463
2850.0, 0.300131
2851.57, 0.299800
2853.14, 0.298608
2854.71, 0.296754
2856.28, 0.294833
2857.86, 0.293774
2859.43, 0.293840
2861.01, 0.293973
2862.59, 0.293244
2864.17, 0.291655
2865.76, 0.289403
2867.34, 0.286754
2868.93, 0.284900
2870.52, 0.284569
2872.11, 0.286489
2873.7, 0.290529
2875.29, 0.295959
2876.89, 0.302251
2878.49, 0.308674
2880.08, 0.314237
2881.69, 0.318277
2883.29, 0.320065
2884.89, 0.319469
2886.5, 0.316688
2888.11, 0.313708
2889.72, 0.312648
2891.33, 0.313641
2892.94, 0.316820
2894.56, 0.320463
2896.17, 0.322913
2897.79, 0.325164
2899.42, 0.328211
2901.04, 0.329866
2902.66, 0.330198
2904.29, 0.331257
2905.92, 0.333376
2907.55, 0.335827
2909.18, 0.337880
2910.81, 0.338542
2912.45, 0.336820
2914.08, 0.332979
2915.72, 0.328145
2917.36, 0.323244
2919.01, 0.318939
2920.65, 0.316754
2922.3, 0.317284
2923.94, 0.320595
2925.59, 0.325297
2927.25, 0.330595
2928.9, 0.335893
2930.56, 0.340330
2932.21, 0.344039
2933.87, 0.346754
2935.53, 0.349005
2937.2, 0.350727
2938.86, 0.352251
2940.53, 0.353575
2942.2, 0.354237
2943.87, 0.354568
2945.54, 0.354237
2947.22, 0.353376
2948.89, 0.351986
2950.57, 0.349933
2952.25, 0.347416
2953.93, 0.344833
2955.62, 0.342317
2957.3, 0.339602
2958.99, 0.336886
2960.68, 0.334436
2962.37, 0.331986
2964.07, 0.329866
2965.76, 0.328078
2967.46, 0.325827
2969.16, 0.323112
2970.86, 0.320661
2972.56, 0.318807
2974.27, 0.317416
2975.98, 0.317284
2977.69, 0.318211
2979.4, 0.320065
2981.11, 0.322317
2982.83, 0.324502
2984.54, 0.326489
2986.26, 0.328078
2987.98, 0.329668
2989.71, 0.331655
2991.43, 0.333575
2993.16, 0.335297
2994.89, 0.336820
2996.62, 0.338145
2998.35, 0.338807
3000.09, 0.339337
3001.83, 0.339668
3003.57, 0.339933
3005.31, 0.340661
3007.05, 0.342118
3008.79, 0.343906
3010.54, 0.346025
3012.29, 0.348608
3014.04, 0.351853
3015.8, 0.355032
3017.55, 0.358145
3019.31, 0.361191
3021.07, 0.363575
3022.83, 0.365164
3024.59, 0.366688
3026.36, 0.367482
3028.13, 0.367681
3029.9, 0.367747
3031.67, 0.368343
3033.44, 0.369469
3035.22, 0.370860
3037.0, 0.372449
3038.78, 0.373707
3040.56, 0.374833
3042.34, 0.376025
3044.13, 0.377019
3045.92, 0.377548
3047.71, 0.378144
3049.5, 0.378740
3051.3, 0.379204
3053.09, 0.379601
3054.89, 0.380264
3056.69, 0.380860
3058.5, 0.380926
3060.3, 0.380860
3062.11, 0.381058
3063.92, 0.381522
3065.73, 0.382383
3067.55, 0.383244
3069.36, 0.384105
3071.18, 0.385032
3073.0, 0.386091
3074.82, 0.387217
3076.65, 0.388343
3078.48, 0.389270
3080.31, 0.390396
3082.14, 0.391588
3083.97, 0.392581
3085.8, 0.393442
3087.64, 0.394370
3089.48, 0.394966
3091.33, 0.395694
3093.17, 0.396224
3095.02, 0.396621
3096.87, 0.397019
3098.72, 0.397482
3100.57, 0.397946
3102.43, 0.398542
3104.28, 0.399270
3106.14, 0.400462
3108.01, 0.401787
3109.87, 0.403310
3111.74, 0.404966
3113.61, 0.406687
3115.48, 0.408211
3117.35, 0.409469
3119.23, 0.410926
3121.1, 0.411985
3122.98, 0.412714
3124.87, 0.413575
3126.75, 0.414436
3128.64, 0.415363
3130.53, 0.415893
3132.42, 0.416290
3134.31, 0.416886
3136.21, 0.417350
3138.11, 0.417813
3140.01, 0.418343
3141.91, 0.418740
3143.82, 0.418873
3145.73, 0.418939
3147.64, 0.419204
3149.55, 0.419138
3151.46, 0.419005
3153.38, 0.418939
3155.3, 0.418740
3157.22, 0.418343
3159.14, 0.418012
3161.07, 0.417879
3163.0, 0.418078
3164.93, 0.418409
3166.86, 0.418740
3168.8, 0.419138
3170.74, 0.419800
3172.68, 0.420860
3174.62, 0.421919
3176.56, 0.422913
3178.51, 0.424105
3180.46, 0.425429
3182.42, 0.426820
3184.37, 0.428211
3186.33, 0.429601
3188.29, 0.430595
3190.25, 0.431257
3192.21, 0.432052
3194.18, 0.432648
3196.15, 0.433045
3198.12, 0.433641
3200.09, 0.434369
3202.07, 0.434634
3204.05, 0.435098
3206.03, 0.435495
3208.02, 0.435893
3210.0, 0.436422
3211.99, 0.437085
3213.98, 0.437681
3215.98, 0.438144
3217.97, 0.438608
3219.97, 0.439138
3221.97, 0.439601
3223.98, 0.439866
3225.98, 0.440263
3227.99, 0.440595
3230.0, 0.440926
3232.02, 0.441389
3234.03, 0.441787
3236.05, 0.441985
3238.07, 0.442250
3240.1, 0.442648
3242.12, 0.443111
3244.15, 0.443707
3246.18, 0.444634
3248.22, 0.445561
3250.25, 0.446356
3252.29, 0.446754
3254.33, 0.447151
3256.38, 0.447813
3258.43, 0.448409
3260.47, 0.448740
3262.53, 0.449138
3264.58, 0.449403
3266.64, 0.449667
3268.7, 0.449800
3270.76, 0.449800
3272.82, 0.449866
3274.89, 0.449866
3276.96, 0.449734
3279.04, 0.449667
3281.11, 0.449403
3283.19, 0.449403
3285.27, 0.449469
3287.35, 0.449336
3289.44, 0.449535
3291.53, 0.450065
3293.62, 0.450462
3295.71, 0.450992
3297.81, 0.451720
3299.91, 0.452581
3302.01, 0.453508
3304.11, 0.454369
3306.22, 0.455363
3308.33, 0.456224
3310.44, 0.456886
3312.56, 0.457614
3314.68, 0.458409
3316.8, 0.458806
3318.92, 0.459138
3321.05, 0.459601
3323.18, 0.460131
3325.31, 0.460595
3327.44, 0.460926
3329.58, 0.461455
3331.72, 0.461919
3333.86, 0.462250
3336.01, 0.462846
3338.16, 0.463376
3340.31, 0.463972
3342.46, 0.464436
3344.61, 0.464833
3346.77, 0.465296
3348.94, 0.465826
3351.1, 0.466157
3353.27, 0.466422
3355.44, 0.466753
3357.61, 0.467018
3359.79, 0.467151
3361.97, 0.467416
3364.15, 0.467548
3366.33, 0.467548
3368.52, 0.467945
3370.71, 0.468144
3372.9, 0.468210
3375.1, 0.468475
3377.3, 0.468806
3379.5, 0.469138
3381.71, 0.469734
3383.91, 0.470197
3386.12, 0.470661
3388.34, 0.471191
3390.55, 0.471720
3392.77, 0.472051
3394.99, 0.472383
3397.22, 0.472780
3399.45, 0.473244
3401.68, 0.473244
3403.91, 0.473111
3406.15, 0.473310
3408.39, 0.473376
3410.63, 0.473376
3412.87, 0.473508
3415.12, 0.473773
3417.37, 0.474303
3419.63, 0.474833
3421.88, 0.475363
3424.14, 0.476290
3426.41, 0.477349
3428.67, 0.478541
3430.94, 0.479535
3433.21, 0.480528
3435.49, 0.481389
3437.77, 0.482184
3440.05, 0.482846
3442.33, 0.483575
3444.62, 0.484104
3446.91, 0.484568
3449.2, 0.485164
3451.5, 0.485892
3453.8, 0.486356
3456.1, 0.486687
3458.41, 0.487217
3460.72, 0.487879
3463.03, 0.488277
3465.34, 0.488541
3467.66, 0.488939
3469.98, 0.489204
3472.31, 0.489336
3474.63, 0.489469
3476.96, 0.489667
3479.3, 0.489932
3481.64, 0.490131
3483.97, 0.490263
3486.32, 0.490396
3488.66, 0.490528
3491.01, 0.490594
3493.36, 0.490594
3495.72, 0.490594
3498.08, 0.490661
3500.44, 0.490661
3502.81, 0.490528
3505.18, 0.490727
3507.55, 0.491190
3509.92, 0.491588
3512.3, 0.492051
3514.68, 0.492581
3517.06, 0.493243
3519.45, 0.493839
3521.84, 0.494369
3524.24, 0.494833
3526.64, 0.495230
3529.04, 0.495694
3531.44, 0.495892
3533.85, 0.496157
3536.26, 0.496422
3538.67, 0.496687
3541.09, 0.497084
3543.51, 0.497349
3545.93, 0.497614
3548.36, 0.497879
3550.79, 0.497945
3553.22, 0.497879
3555.66, 0.497813
3558.1, 0.497879
3560.54, 0.497879
3562.99, 0.497813
3565.44, 0.497548
3567.9, 0.497416
3570.35, 0.497482
3572.81, 0.497482
3575.28, 0.497416
3577.75, 0.497349
3580.22, 0.497482
3582.69, 0.497548
3585.17, 0.497680
3587.65, 0.497945
3590.14, 0.498343
3592.62, 0.498939
3595.11, 0.499469
3597.61, 0.499932
3600.11, 0.500329
3602.61, 0.500661
3605.11, 0.500926
3607.62, 0.501190
3610.14, 0.501522
3612.65, 0.501588
3615.17, 0.501522
3617.69, 0.501323
3620.22, 0.500859
3622.75, 0.500263
3625.28, 0.499733
3627.82, 0.498806
3630.36, 0.497813
3632.9, 0.496753
3635.45, 0.495363
3638.0, 0.493641
3640.56, 0.491919
3643.12, 0.489601
3645.68, 0.486753
3648.24, 0.483508
3650.81, 0.479998
3653.39, 0.476488
3655.96, 0.473177
3658.54, 0.470396
3661.13, 0.468144
3663.71, 0.465959
3666.3, 0.463177
3668.9, 0.459800
3671.5, 0.456621
3674.1, 0.454767
3676.7, 0.455363
3679.31, 0.457946
3681.93, 0.460992
3684.54, 0.460462
3687.17, 0.452316
3689.79, 0.447349
3692.42, 0.459005
3695.05, 0.474965
3697.69, 0.484502
3700.32, 0.489734
3702.97, 0.493177
3705.61, 0.495628
3708.27, 0.497747
3710.92, 0.499270
3713.58, 0.500462
3716.24, 0.501257
3718.91, 0.502118
3721.58, 0.503045
3724.25, 0.504038
3726.93, 0.504767
3729.61, 0.505429
3732.29, 0.506025
3734.98, 0.506555
3737.67, 0.506820
3740.37, 0.507084
3743.07, 0.507416
3745.78, 0.507482
3748.49, 0.507548
3751.2, 0.507879
3753.91, 0.508144
3756.63, 0.508343
3759.36, 0.508475
3762.09, 0.508541
3764.82, 0.508674
3767.55, 0.508806
3770.29, 0.508939
3773.04, 0.508939
3775.78, 0.509005
3778.54, 0.509137
3781.29, 0.509336
3784.05, 0.509402
3786.82, 0.509601
3789.59, 0.509733
3792.36, 0.509733
3795.13, 0.509932
3797.92, 0.510396
3800.7, 0.510661
3803.49, 0.510859
3806.28, 0.511124
3809.08, 0.511389
3811.88, 0.511455
3814.68, 0.511588
3817.49, 0.512118
3820.31, 0.512382
3823.12, 0.512647
3825.94, 0.513045
3828.77, 0.513442
3831.6, 0.513707
3834.43, 0.513906
3837.27, 0.514104
3840.11, 0.514303
3842.96, 0.514369
3845.81, 0.514568
3848.67, 0.514700
3851.53, 0.514767
3854.39, 0.514899
3857.26, 0.514965
3860.13, 0.514965
3863.01, 0.514965
3865.89, 0.514965
3868.77, 0.514899
3871.66, 0.514767
3874.55, 0.514767
3877.45, 0.514833
3880.35, 0.514833
3883.26, 0.514899
3886.17, 0.514899
3889.09, 0.514634
3892.01, 0.514568
3894.93, 0.514435
3897.86, 0.514435
3900.79, 0.514435
3903.73, 0.514303
3906.67, 0.514237
3909.62, 0.514303
3912.57, 0.514237
3915.52, 0.514104
3918.48, 0.514038
3921.45, 0.513972
3924.42, 0.513906
3927.39, 0.513839
3930.37, 0.513839
3933.35, 0.513839
3936.34, 0.513839
3939.33, 0.513707
3942.32, 0.513575
3945.32, 0.513575
3948.33, 0.513641
3951.34, 0.513575
3954.35, 0.513508
3957.37, 0.513376
3960.39, 0.513243
3963.42, 0.513243
3966.45, 0.513310
3969.49, 0.513310
3972.53, 0.513376
3975.58, 0.513376
3978.63, 0.513310
3981.68, 0.513310
3984.75, 0.513243
3987.81, 0.513177
3990.88, 0.513111
3993.95, 0.513045
3997.03, 0.512912
4000.12, 0.512846
4003.21, 0.512581
4006.3, 0.512449
4009.4, 0.512382
4012.5, 0.512184
4015.61, 0.511853
4018.72, 0.511588
4021.84, 0.511323
4024.96, 0.511124
4028.09, 0.510859
4031.22, 0.510727
4034.36, 0.510661
4037.5, 0.510396
4040.65, 0.510263
4043.8, 0.510263
4046.96, 0.509998
4050.12, 0.509667
4053.29, 0.509469
4056.46, 0.509270
4059.64, 0.509137
4062.82, 0.509005
4066.0, 0.508873
4069.19, 0.508541
4072.39, 0.508276
4075.59, 0.508144
4078.8, 0.507945
4082.01, 0.507879
4085.23, 0.507680
4088.45, 0.507482
4091.68, 0.507217
4094.91, 0.507018
4098.15, 0.506753
4101.39, 0.506621
4104.63, 0.506356
4107.89, 0.506091
4111.14, 0.505760
4114.41, 0.505495
4117.67, 0.505164
4120.95, 0.504899
4124.23, 0.504767
4127.51, 0.504435
4130.8, 0.504038
4134.09, 0.503641
4137.39, 0.503376
4140.7, 0.503045
4144.01, 0.502581
4147.32, 0.502250
4150.64, 0.501853
4153.97, 0.501588
4157.3, 0.501257
4160.64, 0.500859
4163.98, 0.500462
4167.33, 0.500131
4170.68, 0.499800
4174.04, 0.499402
4177.4, 0.498873
4180.77, 0.498541
4184.14, 0.498343
4187.52, 0.497879
4190.91, 0.497217
4194.3, 0.496555
4197.69, 0.495694
4201.1, 0.494435
4204.5, 0.492846
4207.92, 0.490926
4211.34, 0.488541
4214.76, 0.485959
4218.19, 0.483508
4221.62, 0.481190
4225.06, 0.478873
4228.51, 0.476555
4231.96, 0.474568
4235.42, 0.472912
4238.88, 0.471389
4242.35, 0.470330
4245.83, 0.469932
4249.31, 0.469932
4252.79, 0.470263
4256.28, 0.469601
4259.78, 0.466025
4263.29, 0.461124
4266.79, 0.457018
4270.31, 0.453906
4273.83, 0.451124
4277.35, 0.448674
4280.89, 0.446489
4284.42, 0.444369
4287.97, 0.442383
4291.52, 0.440859
4295.07, 0.439734
4298.63, 0.438674
4302.2, 0.437681
4305.78, 0.437085
4309.35, 0.436754
4312.94, 0.436687
4316.53, 0.436754
4320.13, 0.437151
4323.73, 0.437614
4327.34, 0.438211
4330.96, 0.438939
4334.58, 0.439734
4338.21, 0.440528
4341.84, 0.441257
4345.48, 0.442118
4349.12, 0.443045
4352.77, 0.443840
4356.43, 0.444568
4360.1, 0.445032
4363.76, 0.445429
4367.44, 0.445826
4371.12, 0.445959
4374.81, 0.445959
4378.51, 0.445628
4382.21, 0.445164
4385.92, 0.444634
4389.63, 0.443972
4393.35, 0.443641
4397.08, 0.443442
4400.81, 0.443575
4404.55, 0.443840
4408.29, 0.444105
4412.04, 0.444303
4415.8, 0.444369
4419.57, 0.444303
4423.34, 0.443773
4427.12, 0.442979
4430.9, 0.441787
4434.69, 0.440263
4438.49, 0.438409
4442.29, 0.435959
4446.1, 0.432979
4449.92, 0.429800
4453.74, 0.426422
4457.57, 0.423045
4461.41, 0.419800
4465.25, 0.416687
4469.1, 0.414038
4472.95, 0.412184
4476.82, 0.410992
4480.69, 0.410131
4484.56, 0.409270
4488.44, 0.408211
4492.33, 0.406886
4496.23, 0.405032
4500.13, 0.403177
4504.04, 0.401522
4507.96, 0.399932
4511.88, 0.398542
4515.81, 0.397416
4519.75, 0.396423
4523.69, 0.395495
4527.65, 0.394701
4531.6, 0.394038
4535.57, 0.393442
4539.54, 0.392714
4543.52, 0.391721
4547.5, 0.390860
4551.5, 0.389999
4555.5, 0.388939
4559.5, 0.387482
4563.52, 0.385893
4567.54, 0.384568
4571.56, 0.383972
4575.6, 0.384303
4579.64, 0.385429
4583.69, 0.386952
4587.75, 0.388542
4591.81, 0.389734
4595.88, 0.390595
4599.96, 0.390926
4604.04, 0.390595
4608.14, 0.389668
4612.24, 0.388409
4616.34, 0.387085
4620.46, 0.385628
4624.58, 0.384171
4628.71, 0.382714
4632.84, 0.381058
4636.99, 0.379204
4641.14, 0.377350
4645.3, 0.375363
4649.47, 0.373111
4653.64, 0.370727
4657.82, 0.368012
4662.01, 0.365098
4666.21, 0.362052
4670.41, 0.359138
4674.62, 0.356356
4678.84, 0.353906
4683.07, 0.351588
4687.3, 0.349535
4691.54, 0.347482
4695.79, 0.345496
4700.05, 0.343443
4704.31, 0.341257
4708.59, 0.339006
4712.87, 0.336886
4717.15, 0.335098
4721.45, 0.333575
4725.76, 0.332383
4730.07, 0.331390
4734.39, 0.330396
4738.72, 0.329469
4743.05, 0.328410
4747.39, 0.327085
4751.75, 0.325297
4756.1, 0.323244
4760.47, 0.320926
4764.85, 0.318277
4769.23, 0.315429
4773.62, 0.312979
4778.02, 0.311456
4782.43, 0.311191
4786.85, 0.311787
4791.27, 0.312449
4795.7, 0.312582
4800.14, 0.312118
4804.59, 0.311191
4809.05, 0.310264
4813.51, 0.309204
4817.99, 0.308476
4822.47, 0.307880
4826.96, 0.307350
4831.46, 0.306621
4835.96, 0.305628
4840.48, 0.304237
4845.0, 0.302516
4849.54, 0.300264
4854.08, 0.297218
4858.63, 0.293575
4863.18, 0.289337
4867.75, 0.284701
4872.33, 0.279602
4876.91, 0.274370
4881.5, 0.269271
4886.1, 0.264039
4890.71, 0.258741
4895.33, 0.253575
4899.96, 0.248476
4904.59, 0.243575
4909.24, 0.238807
4913.89, 0.234171
4918.55, 0.229536
4923.22, 0.225032
4927.9, 0.220662
4932.59, 0.216158
4937.29, 0.211456
4942.0, 0.206556
4946.71, 0.201191
4951.44, 0.195430
4956.17, 0.189205
4960.91, 0.182913
4965.67, 0.176622
4970.43, 0.170529
4975.2, 0.165033
4979.98, 0.160397
4984.76, 0.156490
4989.56, 0.153245
4994.37, 0.150596
4999.18, 0.148410
5004.01, 0.146556
5008.84, 0.145099
5013.69, 0.143907
5018.54, 0.142913
5023.4, 0.141788
5028.28, 0.140264
5033.16, 0.138476
5038.05, 0.136821
5042.95, 0.135430
5047.86, 0.134702
5052.78, 0.134370
5057.71, 0.134370
5062.65, 0.134635
5067.6, 0.134834
5072.56, 0.134966
5077.53, 0.134900
5082.5, 0.134900
5087.49, 0.135099
5092.49, 0.135298
5097.5, 0.135430
5102.51, 0.135562
5107.54, 0.135695
5112.58, 0.135960
5117.62, 0.136423
5122.68, 0.136887
5127.75, 0.137417
5132.82, 0.137880
5137.91, 0.137748
5143.01, 0.136688
5148.12, 0.135099
5153.23, 0.133311
5158.36, 0.130596
5163.5, 0.127417
5168.65, 0.124437
5173.81, 0.121920
5178.98, 0.119867
5184.15, 0.118013
5189.34, 0.116225
5194.54, 0.114635
5199.75, 0.112847
5204.98, 0.111324
5210.21, 0.109602
5215.45, 0.108013
5220.7, 0.106887
5225.96, 0.105231
5231.23, 0.103311
5236.52, 0.101059
5241.81, 0.0987410
5247.12, 0.0960920
5252.44, 0.0930460
5257.76, 0.0896020
5263.1, 0.0860920
5268.45, 0.0823840
5273.81, 0.0789400
5279.18, 0.0759600
5284.56, 0.0735100
5289.95, 0.0715230
5295.36, 0.0703970
5300.77, 0.0698010
5306.2, 0.0696690
5311.63, 0.0700660
5317.08, 0.0709270
5322.54, 0.0719200
5328.01, 0.0731120
5333.49, 0.0746360
5338.98, 0.0762250
5344.49, 0.0777480
5350.0, 0.0794700
5355.53, 0.0820530
5361.07, 0.0848340
5366.62, 0.0874830
5372.18, 0.0900000
5377.75, 0.0924500
5383.34, 0.0947020
5388.93, 0.0966880
5394.54, 0.0983440
5400.16, 0.0996690
5405.79, 0.100794
5411.44, 0.101589
5417.09, 0.101788
5422.76, 0.101986
5428.43, 0.103245
5434.12, 0.103973
5439.83, 0.104238
5445.54, 0.104503
5451.26, 0.104834
5457.0, 0.104834
5462.75, 0.104569
5468.52, 0.105231
5474.29, 0.105894
5480.08, 0.106225
5485.88, 0.107284
5491.69, 0.108013
5497.51, 0.108476
5503.35, 0.108609
5509.2, 0.108874
5515.06, 0.108741
5520.93, 0.108410
5526.82, 0.108079
5532.71, 0.107947
5538.63, 0.107748
5544.55, 0.107549
5550.49, 0.107086
5556.44, 0.107086
5562.4, 0.107483
5568.37, 0.107549
5574.36, 0.106821
5580.36, 0.106821
5586.37, 0.108079
5592.4, 0.108940
5598.44, 0.109006
5604.49, 0.109205
5610.56, 0.109404
5616.63, 0.109470
5622.73, 0.109933
5628.83, 0.109867
5634.95, 0.109006
5641.08, 0.107748
5647.23, 0.108079
5653.39, 0.108410
5659.56, 0.108344
5665.74, 0.108410
5671.94, 0.107417
5678.15, 0.107020
5684.38, 0.106953
5690.62, 0.106026
5696.87, 0.105629
5703.14, 0.104702
5709.42, 0.102980
5715.72, 0.102649
5722.03, 0.102781
5728.35, 0.102980
5734.69, 0.102715
5741.03, 0.102384
5747.4, 0.101986
5753.78, 0.102781
5760.17, 0.101788
5766.58, 0.100596
5773.0, 0.102582
5779.44, 0.104371
5785.88, 0.105695
5792.35, 0.107218
5798.83, 0.108940
5805.32, 0.111523
5811.83, 0.113841
5818.35, 0.115298
5824.89, 0.118874
5831.45, 0.124172
5838.01, 0.128940
5844.59, 0.132715
5851.19, 0.135099
5857.8, 0.136622
5864.43, 0.138079
5871.07, 0.139337
5877.73, 0.136887
5884.4, 0.137615
5891.09, 0.139271
5897.79, 0.139337
5904.5, 0.142317
5911.23, 0.143576
5917.98, 0.143907
5924.75, 0.144238
5931.53, 0.142384
5938.32, 0.142450
5945.13, 0.147019
5951.96, 0.149735
5958.8, 0.151125
5965.65, 0.150728
5972.53, 0.152251
5979.42, 0.154105
5986.32, 0.153774
5993.24, 0.154966
6000.18, 0.157086
6007.13, 0.156887
6014.1, 0.155761
6021.08, 0.156092
6028.09, 0.155695
6035.1, 0.153576
6042.14, 0.147615
6049.19, 0.141721
6056.25, 0.143377
6063.34, 0.142715
6070.44, 0.138940
6077.55, 0.138278
6084.69, 0.139602
6091.84, 0.139735
6099.0, 0.139271
6106.19, 0.137284
6113.39, 0.135099
6120.61, 0.136821
6127.84, 0.138013
6135.09, 0.137019
6142.36, 0.136092
6149.65, 0.135827
6156.95, 0.135033
6164.27, 0.135364
6171.61, 0.136225
6178.97, 0.134768
6186.34, 0.133841
6193.73, 0.136092
6201.14, 0.137086
6208.57, 0.136953
6216.01, 0.137019
6223.47, 0.137284
6230.95, 0.137417
6238.45, 0.137218
6245.97, 0.136953
6253.5, 0.136622
6261.06, 0.136092
6268.63, 0.135364
6276.21, 0.134768
6283.82, 0.134106
6291.45, 0.133046
6299.1, 0.131986
6306.76, 0.130662
6314.44, 0.129271
6322.14, 0.127880
6329.86, 0.126159
6337.6, 0.122980
6345.35, 0.120463
6353.13, 0.121192
6360.92, 0.120662
6368.74, 0.118808
6376.57, 0.119006
6384.43, 0.119470
6392.3, 0.119271
6400.19, 0.118410
6408.1, 0.114437
6416.03, 0.112649
6423.98, 0.115033
6431.95, 0.115695
6439.94, 0.115761
6447.95, 0.115231
6455.98, 0.114370
6464.03, 0.113178
6472.1, 0.111125
6480.19, 0.109139
6488.31, 0.106887
6496.44, 0.106953
6504.59, 0.109337
6512.76, 0.109404
6520.95, 0.108079
6529.16, 0.108476
6537.4, 0.107947
6545.65, 0.106755
6553.92, 0.105695
6562.22, 0.104834
6570.54, 0.103046
6578.88, 0.103377
6587.23, 0.103708
6595.61, 0.103642
6604.02, 0.103774
6612.44, 0.103443
6620.89, 0.102847
6629.35, 0.100728
6637.84, 0.0990060
6646.35, 0.100927
6654.88, 0.102053
6663.44, 0.101125
6672.01, 0.0995360
6680.61, 0.0980130
6689.23, 0.0976820
6697.88, 0.0970200
6706.54, 0.0949000
6715.23, 0.0933770
6723.94, 0.0923840
6732.67, 0.0915890
6741.42, 0.0901980
6750.2, 0.0885430
6759.0, 0.0872180
6767.82, 0.0854300
6776.67, 0.0831790
6785.54, 0.0809270
6794.44, 0.0796020
6803.35, 0.0794040
6812.29, 0.0784100
6821.26, 0.0768210
6830.24, 0.0759600
6839.25, 0.0757610
6848.29, 0.0745690
6857.35, 0.0724500
6866.43, 0.0715890
6875.54, 0.0725830
6884.67, 0.0725160
6893.82, 0.0717880
6903.0, 0.0707940
6912.2, 0.0702650
6921.43, 0.0698670
6930.69, 0.0691390
6939.96, 0.0684100
6949.27, 0.0675490
6958.59, 0.0662250
6967.95, 0.0664900
6977.33, 0.0668870
6986.73, 0.0665560
6996.16, 0.0660260
7005.61, 0.0656950
7015.09, 0.0649000
7024.6, 0.0641720
7034.13, 0.0631120
7043.69, 0.0614570
7053.27, 0.0604630
7062.88, 0.0596690
7072.52, 0.0584770
7082.18, 0.0572850
7091.87, 0.0562910
7101.58, 0.0552980
7111.32, 0.0541060
7121.09, 0.0535760
7130.88, 0.0530460
7140.71, 0.0520530
7150.56, 0.0509930
7160.43, 0.0501320
7170.33, 0.0492050
7180.27, 0.0488740
7190.23, 0.0483440
7200.21, 0.0474830
7210.23, 0.0464900
7220.27, 0.0459600
7230.34, 0.0450990
7240.44, 0.0441720
7250.56, 0.0433110
7260.72, 0.0423180
7270.9, 0.0411920
7281.12, 0.0402650
7291.36, 0.0394700
7301.63, 0.0388080
7311.93, 0.0383440
7322.25, 0.0377480
7332.61, 0.0369540
7343.0, 0.0361590
7353.41, 0.0352980
7363.86, 0.0343710
7374.33, 0.0333110
7384.83, 0.0323180
7395.37, 0.0313240
7405.93, 0.0305300
7416.53, 0.0297350
7427.15, 0.0290070
7437.81, 0.0282120
7448.5, 0.0274170
7459.22, 0.0266890
7469.96, 0.0260260
7480.74, 0.0253640
7491.55, 0.0246360
7502.39, 0.0238410
7513.27, 0.0228480
7524.17, 0.0220530
7535.11, 0.0213910
7546.08, 0.0207280
7557.08, 0.0203310
7568.11, 0.0198670
7579.17, 0.0194700
7590.27, 0.0190730
7601.4, 0.0188740
7612.56, 0.0184110
7623.76, 0.0181460
7634.98, 0.0180130
7646.24, 0.0178150
7657.54, 0.0176820
7668.87, 0.0176820
7680.23, 0.0176160
7691.62, 0.0176820
7703.05, 0.0177480
7714.51, 0.0177480
7726.01, 0.0179470
7737.54, 0.0183440
7749.11, 0.0187420
7760.71, 0.0192710
7772.35, 0.0196030
7784.02, 0.0202650
7795.72, 0.0209270
7807.46, 0.0215230
7819.23, 0.0223180
7831.04, 0.0232450
7842.89, 0.0241060
7854.77, 0.0253640
7866.69, 0.0267550
7878.65, 0.0282120
7890.64, 0.0298670
7902.67, 0.0317220
7914.74, 0.0338410
7926.84, 0.0362910
7938.98, 0.0386750
7951.16, 0.0412580
7963.37, 0.0442380
7975.62, 0.0474830
7987.91, 0.0509930
8000.24, 0.0545690
8012.6, 0.0582120
8025.01, 0.0619870
8037.45, 0.0657610
8049.93, 0.0699340
8062.45, 0.0743710
8075.01, 0.0790060
8087.61, 0.0839730
8100.24, 0.0893370
8112.91, 0.0948340
8125.63, 0.100596
8138.39, 0.106622
8151.18, 0.112781
8164.02, 0.119205
8176.9, 0.125960
8189.81, 0.133245
8202.77, 0.140860
8215.77, 0.148476
8228.82, 0.156158
8241.9, 0.164039
8255.02, 0.171920
8268.19, 0.179801
8281.39, 0.187019
8294.65, 0.193708
8307.94, 0.199801
8321.28, 0.205496
8334.66, 0.210728
8348.08, 0.215893
8361.54, 0.220993
8375.05, 0.225893
8388.6, 0.230794
8402.2, 0.236092
8415.84, 0.241257
8429.52, 0.246423
8443.25, 0.251589
8457.02, 0.256622
8470.84, 0.261191
8484.7, 0.265363
8498.61, 0.269138
8512.57, 0.272582
8526.57, 0.275959
8540.62, 0.279072
8554.71, 0.282185
8568.85, 0.285363
8583.04, 0.288277
8597.27, 0.290992
8611.55, 0.293178
8625.88, 0.295165
8640.26, 0.297284
8654.68, 0.298939
8669.16, 0.299800
8683.68, 0.300463
8698.25, 0.300992
8712.87, 0.301456
8727.53, 0.301655
8742.25, 0.301522
8757.02, 0.300860
8771.83, 0.299403
8786.7, 0.297151
8801.62, 0.293641
8816.59, 0.288873
8831.61, 0.283045
8846.68, 0.276092
8861.8, 0.268012
8876.97, 0.258079
8892.2, 0.244701
8907.48, 0.225827
8922.81, 0.202383
8938.2, 0.179999
8953.63, 0.166357
8969.13, 0.160993
8984.67, 0.159602
9000.27, 0.165297
9015.92, 0.186622
9031.63, 0.219734
9047.39, 0.248542
9063.21, 0.265694
9079.08, 0.274039
9095.01, 0.276887
9111.0, 0.276887
9127.04, 0.275098
9143.13, 0.272052
9159.28, 0.268145
9175.49, 0.263509
9191.76, 0.258476
9208.09, 0.253046
9224.47, 0.247218
9240.92, 0.241191
9257.42, 0.234635
9273.98, 0.227814
9290.6, 0.220926
9307.28, 0.213907
9324.02, 0.206622
9340.82, 0.199536
9357.68, 0.192516
9374.6, 0.185629
9391.58, 0.179867
9408.62, 0.174900
9425.73, 0.169271
9442.9, 0.162847
9460.13, 0.155430
9477.42, 0.147814
9494.78, 0.140794
9512.2, 0.134370
9529.69, 0.128145
9547.24, 0.121986
9564.86, 0.116026
9582.54, 0.110529
9600.28, 0.106026
9618.1, 0.102582
9635.97, 0.100000
9653.92, 0.0978800
9671.93, 0.0958280
9690.01, 0.0939730
9708.16, 0.0925160
9726.37, 0.0913900
9744.65, 0.0906620
9763.0, 0.0898670
9781.43, 0.0887410
9799.92, 0.0874170
9818.48, 0.0862250
9837.1, 0.0850990
9855.8, 0.0841720
9874.58, 0.0833770
9893.42, 0.0824500
9912.34, 0.0815890
9931.33, 0.0805960
9950.39, 0.0794700
9969.52, 0.0786090
9988.74, 0.0775490
10008.0, 0.0763570
10027.4, 0.0752320
10046.8, 0.0743040
10066.3, 0.0733110
10085.9, 0.0721850
10105.6, 0.0705960
10125.3, 0.0690730
10145.1, 0.0674830
10165.0, 0.0654960
10185.0, 0.0635100
10205.0, 0.0618540
10225.2, 0.0599340
10245.4, 0.0580790
10265.7, 0.0561590
10286.0, 0.0547020
10306.5, 0.0539070
10327.0, 0.0550330
10347.6, 0.0588740
10368.3, 0.0662910
10389.1, 0.0759600
10409.9, 0.0860260
10430.9, 0.0943710
10451.9, 0.0993370
10473.0, 0.100993
10494.2, 0.0998670
10515.5, 0.0959600
10536.9, 0.0909270
10558.4, 0.0860920
10579.9, 0.0824500
10601.5, 0.0801980
10623.3, 0.0786750
10645.1, 0.0773510
10667.0, 0.0764900
10689.0, 0.0758940
10711.1, 0.0753640
10733.2, 0.0749000
10755.5, 0.0744370
10777.9, 0.0739730
10800.3, 0.0739070
10822.9, 0.0735760
10845.5, 0.0731790
10868.2, 0.0729140
10891.1, 0.0725830
10914.0, 0.0725830
10937.0, 0.0725160
10960.2, 0.0719200
10983.4, 0.0713900
11006.7, 0.0709270
11030.1, 0.0707280
11053.6, 0.0705300
11077.3, 0.0704630
11101.0, 0.0707940
11124.8, 0.0710590
11148.7, 0.0709270
11172.7, 0.0706620
11196.9, 0.0700000
11221.1, 0.0696690
11245.4, 0.0694040
11269.9, 0.0688080
11294.4, 0.0679470
11319.1, 0.0671520
11343.9, 0.0663570
11368.8, 0.0654960
11393.7, 0.0647020
11418.8, 0.0636420
11444.0, 0.0620530
11469.4, 0.0603970
11494.8, 0.0584100
11520.3, 0.0562250
11546.0, 0.0539730
11571.8, 0.0517220
11597.7, 0.0492050
11623.7, 0.0466220
11649.8, 0.0445690
11676.0, 0.0437080
11702.4, 0.0438410
11728.9, 0.0449670
11755.5, 0.0464240
11782.2, 0.0472850
11809.0, 0.0465560
11836.0, 0.0443710
11863.0, 0.0411920
11890.3, 0.0386090
11917.6, 0.0385430
11945.0, 0.0419870
11972.6, 0.0463570
12000.4, 0.0494040
12028.2, 0.0510590
12056.2, 0.0520530
12084.3, 0.0524500
12112.5, 0.0520530
12140.9, 0.0511260
12169.4, 0.0496690
12198.0, 0.0470200
12226.8, 0.0445690
12255.7, 0.0431790
12284.7, 0.0436420
12313.9, 0.0456290
12343.2, 0.0481460
12372.7, 0.0503970
12402.3, 0.0525830
12432.0, 0.0545030
12461.9, 0.0561590
12491.9, 0.0574170
12522.1, 0.0582120
12552.4, 0.0588740
12582.9, 0.0593380
12613.5, 0.0596690
12644.3, 0.0596690
12675.2, 0.0594040
12706.3, 0.0596020
12737.5, 0.0592710
12768.9, 0.0586090
12800.4, 0.0578810
12832.1, 0.0568210
12863.9, 0.0558280
12895.9, 0.0546360
12928.1, 0.0533770
12960.4, 0.0529140
12992.9, 0.0522510
13025.5, 0.0512580
13058.3, 0.0503310
13091.3, 0.0493380
13124.4, 0.0483440
13157.8, 0.0474170
13191.2, 0.0466220
13224.9, 0.0456950
13258.7, 0.0443040
13292.7, 0.0431120
13326.9, 0.0418540
13361.2, 0.0403310
13395.7, 0.0385430
13430.4, 0.0372180
13465.3, 0.0359600
13500.4, 0.0343050
13535.7, 0.0332450
13571.1, 0.0329800
13606.7, 0.0327810
13642.5, 0.0334440
13678.5, 0.0341720
13714.7, 0.0339730
13751.1, 0.0337080
13787.6, 0.0340400
13824.4, 0.0338410
13861.4, 0.0330460
13898.5, 0.0325160
13935.9, 0.0321850
13973.5, 0.0313240
14011.2, 0.0303310
14049.2, 0.0292710
14087.4, 0.0280790
14125.8, 0.0266890
14164.3, 0.0257620
14203.2, 0.0253640
14242.2, 0.0246360
14281.4, 0.0241060
14320.9, 0.0237750
14360.5, 0.0231130
14400.4, 0.0226490
14440.5, 0.0221190
14480.9, 0.0212580
14521.4, 0.0204640
14562.2, 0.0202650
14603.3, 0.0196690
14644.5, 0.0191390
14686.0, 0.0190730
14727.7, 0.0192050
14769.7, 0.0191390
14811.9, 0.0192050
14854.3, 0.0193380
14897.0, 0.0197350
14939.9, 0.0201320
14983.1, 0.0211260
15026.5, 0.0221190
15070.2, 0.0231130
15114.2, 0.0242380
15158.3, 0.0261590
15202.8, 0.0280790
15247.5, 0.0303310
15292.5, 0.0326490
15337.7, 0.0351650
15383.2, 0.0386750
15429.0, 0.0428480
15475.1, 0.0468210
15521.4, 0.0511260
15568.0, 0.0559600
15614.9, 0.0613240
15662.1, 0.0668870
15709.6, 0.0728470
15757.3, 0.0792050
15805.4, 0.0855630
15853.7, 0.0910590
15902.3, 0.0952980
15951.2, 0.0984760
16000.5, 0.101192
16050.0, 0.104569
16099.8, 0.110596
16150.0, 0.118808
16200.5, 0.127351
16251.3, 0.135629
16302.4, 0.143509
16353.8, 0.151125
16405.5, 0.158079
16457.6, 0.165165
16510.0, 0.172648
16562.8, 0.179138
16615.9, 0.185033
16669.3, 0.190066
16723.1, 0.193576
16777.2, 0.195893
16831.7, 0.196225
16886.5, 0.193377
16941.7, 0.188079
16997.2, 0.181920
17053.1, 0.175297
17109.4, 0.168278
17166.1, 0.162251
17223.1, 0.161125
17280.5, 0.166423
17338.3, 0.176556
17396.5, 0.189205
17455.1, 0.201125
17514.0, 0.211854
17573.4, 0.221059
17633.2, 0.227748
17693.4, 0.233112
17754.0, 0.237483
17815.0, 0.239999
17876.4, 0.241257
17938.3, 0.242251
18000.5, 0.242714
18063.3, 0.241191
18126.4, 0.237416
18190.0, 0.233509
18254.1, 0.228476
18318.6, 0.222383
18383.5, 0.216489
18449.0, 0.209271
18514.9, 0.200066
18581.2, 0.191191
18648.0, 0.183708
18715.4, 0.176754
18783.2, 0.170066
18851.5, 0.166092
18920.3, 0.162450
18989.6, 0.158145
19059.4, 0.153708
19129.7, 0.147417
19200.6, 0.138476
19272.0, 0.129205
19343.9, 0.119006
19416.3, 0.106291
19489.3, 0.0931120
19562.8, 0.0802650
19637.0, 0.0709270
19711.6, 0.0703310
19786.8, 0.0852980
19862.6, 0.109735
19939.0, 0.130331
20016.0, 0.141655
20093.6, 0.148431
20171.8, 0.150863
20250.6, 0.151905
20330.0, 0.151211
20410.0, 0.150805
20490.7, 0.152021
20572.0, 0.154685
20654.0, 0.156828
20736.6, 0.154627
20819.9, 0.149589
20903.8, 0.144898
20988.5, 0.140497
21073.8, 0.134821
21159.8, 0.130072
21246.5, 0.129262
21334.0, 0.130767
21422.1, 0.130709
21511.0, 0.128798
21600.7, 0.127524
21691.0, 0.127466
21782.1, 0.125208
21874.0, 0.121733
21966.7, 0.121327
22060.2, 0.119474
22154.5, 0.116521
22249.6, 0.114725
22345.5, 0.113104
22442.2, 0.112177
22539.8, 0.112583
22638.2, 0.113335
22737.5, 0.113335
22837.7, 0.111135
22938.7, 0.109166
23040.7, 0.110382
23143.5, 0.109803
23247.3, 0.105401
23352.1, 0.0996100
23457.7, 0.0930080
23564.4, 0.0868690
23672.0, 0.0862900
23780.5, 0.0928920
23890.1, 0.100595
24000.7, 0.107255
24112.3, 0.113278
24225.0, 0.117621
24338.7, 0.121096
24453.5, 0.122833
24569.4, 0.122544
24686.4, 0.119301
24804.5, 0.115710
24923.8, 0.114841
25044.2, 0.114146
25165.8, 0.112293
25288.6, 0.112061
25412.5, 0.113741
25537.7, 0.117158
25664.1, 0.118721
25791.8, 0.119474
25920.8, 0.121154
26051.1, 0.124686
26182.6, 0.125555
26315.5, 0.126250
26449.8, 0.130072
26585.4, 0.131288
26722.5, 0.130941
26860.9, 0.131694
27000.8, 0.130651
27142.1, 0.126945
27285.0, 0.121212
27429.4, 0.109282
27575.3, 0.0959040
27722.7, 0.0950350
27871.8, 0.104649
28022.4, 0.114262
28174.7, 0.122659
28328.7, 0.127814
28484.4, 0.130709
28641.7, 0.130420
28800.9, 0.127524
28961.8, 0.122544
29124.5, 0.117737
29289.0, 0.110324
29455.4, 0.100363
29623.8, 0.0897070
29794.0, 0.0835100
29966.3, 0.0893600
30140.5, 0.100073
30316.7, 0.108992
30495.1, 0.114494
30675.5, 0.119590
30858.1, 0.125092
31042.8, 0.131462
31229.8, 0.136501
31419.1, 0.138875
31610.7, 0.141018
31804.6, 0.143219
32000.9, 0.147967
32199.7, 0.155091
32400.9, 0.158797
32604.8, 0.160824
32811.1, 0.161809
33020.1, 0.162851
33231.8, 0.168121
33446.2, 0.171133
33663.4, 0.172175
33883.4, 0.171306
34106.3, 0.169569
34332.1, 0.169106
34561.0, 0.171654
34792.9, 0.174202
35028.0, 0.175592
35266.3, 0.175881
35507.8, 0.175823
35752.7, 0.174723
36001.0, 0.173565
36252.8, 0.173681
36508.1, 0.173681
36767.0, 0.171538
37029.7, 0.169511
37296.1, 0.166789
37566.3, 0.161693
37840.5, 0.157233
38118.8, 0.151558
38401.2, 0.142060
38687.8, 0.130999
38978.6, 0.121385
39273.9, 0.118142
39573.7, 0.126424
39878.1, 0.146693
40187.3, 0.172291
40501.2, 0.198699
40820.0, 0.218853
41144.0, 0.233678
41473.2, 0.244624
41807.6, 0.254006
42147.5, 0.259971
42493.0, 0.263388
42844.2, 0.266341
43201.2, 0.270858
43564.3, 0.269816
43933.5, 0.264604
44309.0, 0.265820
44691.0, 0.266920
45079.6, 0.266168
45475.0, 0.262982
45877.5, 0.254064
46287.1, 0.244276
46704.2, 0.231246
47128.7, 0.216536
47561.1, 0.198294
48001.5, 0.173044
48450.1, 0.147388
48907.2, 0.131346
49373.0, 0.129030
49847.7, 0.143392
50331.5, 0.160766
50825.0, 0.173970
51328.2, 0.177619
51841.5, 0.179935
52365.1, 0.184684
52899.4, 0.179588
53444.8, 0.170727
54001.5, 0.173391
54570.1, 0.187638
55150.6, 0.202463
55743.6, 0.209239
56349.5, 0.209239
56968.7, 0.203274
57601.7, 0.193024
58248.9, 0.183989
58910.9, 0.172812
59588.1, 0.158739
60281.0, 0.145419
60990.2, 0.136327
61716.3, 0.137369
62459.8, 0.140497
63221.6, 0.141771
64002.1, 0.157639
64802.1, 0.208255
65622.1, 0.201189
66463.4, 0.176461
67326.6, 0.194240
68212.4, 0.203043
69121.9, 0.209065
70056.0, 0.214393
71015.7, 0.217463
72002.0, 0.218621
73016.3, 0.230493
74059.4, 0.238427
75132.7, 0.237095
76237.6, 0.239759
77375.5, 0.243466
78547.9, 0.244045
79756.3, 0.256207
81002.5, 0.257017
82288.5, 0.256670
83615.7, 0.265183
84986.5, 0.272306
86402.9, 0.274275
87867.4, 0.275723
89382.4, 0.276824
90950.5, 0.279545
92574.6, 0.278793
94257.2, 0.270627
96002.7, 0.277808
97814.1, 0.283773
99695.1, 0.277171
101650.0, 0.283484
103683.0, 0.291244
105799.0, 0.300220
108003.0, 0.309776
110301.0, 0.313193
112699.0, 0.313482
115204.0, 0.323501
117822.0, 0.331957
120562.0, 0.331667
123433.0, 0.326049
126443.0, 0.333289
129604.0, 0.351010
132926.0, 0.360450
136424.0, 0.347419
140111.0, 0.361492
144003.0, 0.410892
148118.0, 0.391896
152474.0, 0.407127
157095.0, 0.433883
162004.0, 0.431103
167231.0, 0.412745
172805.0, 0.422590
178764.0, 0.423633
185148.0, 0.460060
192005.0, 0.510097
199390.0, 0.906800
207366.0, 0.638837
216006.0, 0.464577
