Database of Origin,USGS Spectral Database
Sample Description,See USGS database for additional info
Date Added,2016-11-20 03:59:39.354497

Data ID,USGS_liz06          
Sample ID,lizard_nmnhr4687.13068
Mineral Name,Lizardite
Material Class,Phyllosilicate

Wavelength
258.6, 0.0794730
263.6, 0.0921540
268.6, 0.0980620
273.1, 0.116791
277.1, 0.105682
281.1, 0.111506
285.1, 0.121966
289.1, 0.117577
293.1, 0.122784
297.1, 0.135139
301.1, 0.135396
305.1, 0.147790
309.1, 0.159053
313.1, 0.179635
317.1, 0.191180
321.1, 0.186193
325.1, 0.200946
329.1, 0.207414
333.1, 0.222688
337.1, 0.231534
341.1, 0.236564
345.1, 0.247208
349.1, 0.254194
353.1, 0.268100
357.1, 0.277036
360.6, 0.286041
363.6, 0.290067
366.6, 0.298560
369.6, 0.305870
372.6, 0.312767
375.6, 0.319318
378.6, 0.328294
381.1, 0.332589
383.1, 0.332962
385.1, 0.334242
387.1, 0.341088
389.1, 0.351210
391.1, 0.354722
393.1, 0.360550
395.1, 0.365027
397.1, 0.370690
399.1, 0.374790
401.1, 0.373373
403.1, 0.374479
405.1, 0.378770
407.1, 0.379816
409.1, 0.381869
411.1, 0.381739
412.8, 0.381270
415.8, 0.383936
418.8, 0.386666
421.8, 0.391027
424.8, 0.390036
427.8, 0.388432
430.8, 0.392665
433.8, 0.395826
436.8, 0.399423
439.8, 0.404001
442.8, 0.402715
445.8, 0.409579
448.8, 0.415959
451.3, 0.413791
453.3, 0.422063
455.3, 0.424986
457.3, 0.425885
459.3, 0.426586
461.3, 0.425713
463.3, 0.437672
465.3, 0.447732
467.3, 0.456811
469.3, 0.459191
471.3, 0.469155
473.3, 0.475300
475.3, 0.483646
477.3, 0.491346
479.3, 0.497343
481.3, 0.499699
483.3, 0.503990
485.3, 0.512288
487.3, 0.514896
489.3, 0.509530
491.3, 0.520003
493.3, 0.528652
495.3, 0.530051
497.3, 0.531333
499.3, 0.526830
501.3, 0.539875
503.3, 0.542362
505.3, 0.544696
507.3, 0.547215
509.3, 0.549782
511.3, 0.554691
513.3, 0.561234
515.3, 0.568548
517.3, 0.568613
519.3, 0.571825
521.3, 0.575466
523.3, 0.582775
525.3, 0.583923
527.3, 0.583575
529.3, 0.586483
531.3, 0.590978
533.3, 0.593237
535.3, 0.598194
537.3, 0.603862
539.3, 0.594446
541.3, 0.609112
543.3, 0.614331
545.3, 0.614615
547.3, 0.616037
549.3, 0.616421
551.3, 0.620682
553.3, 0.627977
555.3, 0.624243
557.3, 0.629660
559.3, 0.633735
561.3, 0.637747
563.3, 0.631077
565.3, 0.639888
567.3, 0.637049
569.3, 0.644802
571.3, 0.644928
573.3, 0.646723
575.3, 0.652915
577.3, 0.652780
579.3, 0.648716
581.3, 0.649341
583.3, 0.658760
585.3, 0.656775
587.3, 0.653913
589.3, 0.663257
591.3, 0.665824
593.3, 0.669920
595.3, 0.669483
597.3, 0.669211
599.3, 0.670617
601.1, 0.675252
602.7, 0.671809
604.3, 0.680041
605.9, 0.666599
607.5, 0.682204
609.1, 0.678918
610.7, 0.682610
612.3, 0.682633
613.9, 0.683687
615.5, 0.687424
617.1, 0.681206
618.7, 0.689073
620.3, 0.688589
621.9, 0.688247
623.5, 0.688286
625.1, 0.695935
626.7, 0.689935
628.3, 0.690306
629.9, 0.689276
631.7, 0.692858
633.7, 0.691975
635.7, 0.691664
637.7, 0.698147
639.7, 0.699765
641.7, 0.693038
643.7, 0.694739
645.7, 0.698095
647.7, 0.694991
649.7, 0.694824
651.7, 0.701201
653.7, 0.699159
655.7, 0.700524
657.7, 0.707042
659.7, 0.706019
661.7, 0.713770
663.7, 0.706871
665.7, 0.705819
667.7, 0.712924
670.2, 0.705585
673.2, 0.710338
676.2, 0.710423
679.2, 0.717189
682.2, 0.720020
685.2, 0.715236
688.2, 0.716904
691.2, 0.716396
694.2, 0.720373
697.2, 0.722295
700.2, 0.720810
702.0, 0.726048
704.0, 0.724586
706.0, 0.730192
708.0, 0.726815
710.0, 0.730676
712.0, 0.729591
714.0, 0.725359
716.0, 0.730913
718.0, 0.730744
720.0, 0.727840
722.0, 0.729826
724.0, 0.733585
726.0, 0.733211
728.0, 0.728068
730.0, 0.736142
732.0, 0.729946
734.0, 0.734205
736.0, 0.732902
738.0, 0.723162
740.0, 0.737253
742.0, 0.727279
744.0, 0.727711
746.0, 0.729922
748.0, 0.731234
750.5, 0.724031
753.5, 0.735077
756.5, 0.732365
759.5, 0.733355
762.5, 0.732755
765.5, 0.728523
768.5, 0.735375
771.5, 0.735321
774.5, 0.732286
777.5, 0.741547
781.0, 0.733525
785.0, 0.726121
789.0, 0.731548
793.0, 0.736818
797.0, 0.746710
801.5, 0.744670
806.5, 0.742894
811.5, 0.738413
816.5, 0.729355
822.0, 0.737006
828.0, 0.736178
835.0, 0.739810
871.0, 0.749169
883.0, 0.746931
894.0, 0.760823
904.0, 0.759925
914.0, 0.748317
924.0, 0.749477
933.0, 0.752852
941.0, 0.751557
949.0, 0.753280
957.0, 0.751313
964.0, 0.749169
970.0, 0.757163
976.0, 0.753007
982.0, 0.754697
988.0, 0.749629
994.0, 0.752450
1000.0, 0.747151
1006.0, 0.749171
1012.0, 0.747766
1018.0, 0.759850
1023.5, 0.751460
1028.5, 0.744736
1033.5, 0.747157
1038.5, 0.751088
1043.5, 0.750925
1048.5, 0.745931
1053.5, 0.750164
1058.5, 0.747097
1063.5, 0.750084
1068.5, 0.751891
1073.5, 0.737837
1078.5, 0.743439
1083.5, 0.743419
1088.5, 0.742384
1093.5, 0.739073
1098.5, 0.746198
1103.5, 0.747864
1108.5, 0.743493
1113.5, 0.748534
1118.5, 0.744725
1123.5, 0.746775
1128.5, 0.744224
1133.5, 0.743911
1138.5, 0.745642
1143.5, 0.748048
1148.5, 0.747894
1153.5, 0.741997
1158.5, 0.741319
1163.5, 0.748439
1168.5, 0.749167
1173.5, 0.746741
1178.5, 0.753714
1183.5, 0.745571
1188.5, 0.753781
1193.5, 0.749538
1198.5, 0.749696
1203.5, 0.741877
1208.5, 0.757304
1213.5, 0.749711
1218.5, 0.754589
1223.5, 0.758243
1228.5, 0.764438
1233.5, 0.758182
1238.5, 0.748884
1243.5, 0.753901
1248.5, 0.751674
1253.5, 0.748724
1258.5, 0.753098
1263.5, 0.758188
1268.5, 0.757247
1273.5, 0.755431
1278.5, 0.758665
1283.5, 0.762005
1288.5, 0.762572
1293.5, 0.760268
1298.5, 0.765079
1303.5, 0.762716
1308.5, 0.759692
1313.5, 0.757943
1318.5, 0.758745
1323.5, 0.759328
1328.5, 0.755365
1333.5, 0.747942
1338.5, 0.750119
1343.5, 0.750111
1348.5, 0.765524
1353.5, 0.695165
1358.5, 0.676464
1363.5, 0.663180
1368.5, 0.644456
1373.5, 0.656272
1378.5, 0.701140
1383.5, 0.729481
1388.5, 0.747216
1393.5, 0.738478
1398.5, 0.743166
1403.5, 0.750293
1408.5, 0.751826
1413.5, 0.746933
1418.5, 0.747569
1423.5, 0.746181
1428.5, 0.746311
1433.5, 0.748888
1438.5, 0.749531
1443.5, 0.752319
1448.5, 0.754541
1453.5, 0.749681
1458.5, 0.747258
1463.5, 0.753776
1468.5, 0.747812
1473.5, 0.759262
1478.5, 0.742433
1483.5, 0.749688
1488.5, 0.747588
1493.5, 0.748501
1498.5, 0.757706
1503.5, 0.759276
1508.5, 0.749147
1513.5, 0.752580
1518.5, 0.750409
1523.5, 0.764138
1528.5, 0.754069
1534.0, 0.762378
1540.0, 0.765678
1546.0, 0.769873
1552.0, 0.774405
1558.0, 0.764119
1564.0, 0.771799
1570.5, 0.759751
1577.5, 0.763403
1584.5, 0.764655
1591.5, 0.772725
1598.5, 0.769279
1605.5, 0.769630
1612.5, 0.759400
1619.5, 0.761527
1626.5, 0.767396
1633.5, 0.764154
1640.5, 0.763633
1647.5, 0.763227
1654.5, 0.767402
1661.5, 0.756239
1668.5, 0.753710
1676.0, 0.751906
1684.0, 0.753066
1692.0, 0.750730
1700.0, 0.737020
1708.0, 0.751362
1716.0, 0.744789
1724.0, 0.749812
1732.0, 0.748261
1740.0, 0.746676
1748.0, 0.746433
1756.0, 0.746603
1764.0, 0.756700
1772.0, 0.756335
1780.0, 0.745540
1788.0, 0.752666
1796.0, 0.751502
1805.0, 0.749768
1815.0, 0.741744
1825.0, 0.745680
1835.0, 0.741455
1845.0, 0.743886
1855.0, 0.734193
1865.0, 0.736664
1875.0, 0.710859
1885.0, 0.686351
1895.0, 0.685194
1905.0, 0.673698
1915.0, 0.662065
1925.0, 0.655773
1935.0, 0.630439
1945.0, 0.615791
1955.0, 0.610981
1965.0, 0.612232
1975.0, 0.622860
1985.0, 0.630660
1995.0, 0.635902
2005.0, 0.641095
2015.0, 0.641654
2025.0, 0.665124
2035.0, 0.675020
2045.0, 0.676139
2055.0, 0.673992
2065.0, 0.674366
2075.0, 0.668481
2085.0, 0.661941
2095.0, 0.656614
2105.0, 0.664506
2115.0, 0.646938
2125.0, 0.648106
2135.0, 0.652237
2145.0, 0.658147
2155.0, 0.648568
2165.0, 0.643437
2175.0, 0.634313
2185.0, 0.640244
2195.0, 0.630787
2205.0, 0.619651
2215.0, 0.605620
2225.0, 0.578048
2235.0, 0.563891
2245.0, 0.536239
2255.0, 0.498633
2265.0, 0.496737
2275.0, 0.457797
2285.0, 0.447354
2295.0, 0.405460
2305.0, 0.397785
2315.0, 0.407725
2325.0, 0.463238
2335.0, 0.501143
2345.0, 0.504363
2355.0, 0.481054
2365.0, 0.481198
2375.0, 0.476376
2386.0, 0.463540
2400.0, 0.460177
2418.0, 0.461364
2440.0, 0.470088
2466.0, 0.430583
2496.0, 0.405647
2528.0, 0.430136
2560.0, 0.426868
2592.0, 0.458831
2624.0, 0.457747
2656.0, 0.326129
2816.0, 0.0731940
2880.0, 0.0140560
