Database of Origin, USGS Spectral Database
Sample Description, See USGS database for additional info
Date Added,2016-08-03 21:02:49.756036

Data ID,USGS_ant10          
Sample ID, antigorite_nmnh96917.2955
Mineral Name, antigorite
Material Class,Phyllosilicate

Wavelength
1374.74, 0.382377
1375.11, 0.381960
1375.47, 0.381663
1375.84, 0.381484
1376.2, 0.381424
1376.57, 0.381543
1376.93, 0.381782
1377.3, 0.381603
1377.67, 0.381186
1378.03, 0.380828
1378.4, 0.380650
1378.76, 0.380412
1379.13, 0.379816
1379.5, 0.379041
1379.87, 0.377850
1380.23, 0.376123
1380.6, 0.373084
1380.97, 0.367247
1381.34, 0.359979
1381.7, 0.352473
1382.07, 0.345087
1382.44, 0.337879
1382.81, 0.331922
1383.18, 0.329777
1383.55, 0.330194
1383.92, 0.331088
1384.29, 0.331564
1384.66, 0.331684
1385.03, 0.332101
1385.4, 0.332756
1385.77, 0.333173
1386.14, 0.333173
1386.51, 0.332339
1386.88, 0.330492
1387.25, 0.329063
1387.62, 0.328705
1387.99, 0.329420
1388.36, 0.330016
1388.74, 0.330909
1389.11, 0.332398
1389.48, 0.332994
1389.85, 0.332637
1390.23, 0.331862
1390.6, 0.329480
1390.97, 0.324476
1391.35, 0.316553
1391.72, 0.308273
1392.09, 0.302435
1392.47, 0.301244
1392.84, 0.306605
1393.21, 0.313038
1393.59, 0.316553
1393.96, 0.317983
1394.34, 0.318757
1394.71, 0.319829
1395.09, 0.320246
1395.46, 0.319651
1395.84, 0.319234
1396.22, 0.319412
1396.59, 0.318638
1396.97, 0.316970
1397.35, 0.314766
1397.72, 0.313038
1398.1, 0.312860
1398.48, 0.313932
1398.85, 0.315838
1399.23, 0.318757
1399.61, 0.320604
1399.99, 0.321557
1400.37, 0.322867
1400.74, 0.323761
1401.12, 0.323761
1401.5, 0.324059
1401.88, 0.324595
1402.26, 0.325250
1402.64, 0.325310
1403.02, 0.325190
1403.4, 0.325190
1403.78, 0.325965
1404.16, 0.326918
1404.54, 0.328169
1404.92, 0.329301
1405.3, 0.329896
1405.68, 0.330730
1406.06, 0.331743
1406.44, 0.333352
1406.83, 0.334781
1407.21, 0.335973
1407.59, 0.337283
1407.97, 0.338236
1408.35, 0.339189
1408.74, 0.340738
1409.12, 0.341989
1409.5, 0.342823
1409.89, 0.343895
1410.27, 0.345444
1410.65, 0.346874
1411.04, 0.347708
1411.42, 0.349078
1411.81, 0.350686
1412.19, 0.351461
1412.58, 0.352116
1412.96, 0.353129
1413.35, 0.353963
1413.73, 0.354975
1414.12, 0.356107
1414.5, 0.356941
1414.89, 0.357775
1415.28, 0.358311
1415.66, 0.358788
1416.05, 0.359741
1416.44, 0.360634
1416.82, 0.360873
1417.21, 0.361588
1417.6, 0.362422
1417.98, 0.362958
1418.37, 0.363196
1418.76, 0.363792
1419.15, 0.364328
1419.54, 0.364685
1419.93, 0.365102
1420.32, 0.365460
1420.71, 0.365877
1421.09, 0.366353
1421.48, 0.366889
1421.88, 0.367306
1422.27, 0.367604
1422.66, 0.367902
1423.05, 0.368378
1423.44, 0.368795
1423.83, 0.369153
1424.22, 0.369212
1424.61, 0.369212
1425.0, 0.369570
1425.39, 0.369689
1425.78, 0.369808
1426.18, 0.369868
1426.57, 0.369927
1426.96, 0.370106
1427.36, 0.370344
1427.75, 0.370761
1428.14, 0.370702
1428.54, 0.370285
1428.93, 0.370463
1429.32, 0.370702
1429.72, 0.371059
1430.11, 0.371476
1430.51, 0.371774
1430.9, 0.372191
1431.3, 0.372072
1431.69, 0.372250
1432.09, 0.372727
1432.48, 0.372965
1432.88, 0.372846
1433.28, 0.372667
1433.67, 0.373025
1434.07, 0.373263
1434.46, 0.373204
1434.86, 0.373382
1435.26, 0.373561
1435.66, 0.373918
1436.05, 0.374038
1436.45, 0.373859
1436.85, 0.373799
1437.25, 0.374157
1437.65, 0.374395
1438.05, 0.374693
1438.44, 0.374812
1438.84, 0.374812
1439.24, 0.374931
1439.64, 0.374991
1440.04, 0.375229
1440.44, 0.375765
1440.84, 0.375825
1441.24, 0.376003
1441.65, 0.376420
1442.05, 0.376659
1442.45, 0.376420
1442.85, 0.376420
1443.25, 0.376778
1443.65, 0.377076
1444.05, 0.377254
1444.46, 0.377493
1444.86, 0.377195
1445.26, 0.377076
1445.67, 0.377612
1446.07, 0.378088
1446.47, 0.378029
1446.88, 0.378267
1447.28, 0.378029
1447.68, 0.378088
1448.09, 0.378565
1448.49, 0.378982
1448.9, 0.379161
1449.3, 0.379101
1449.71, 0.378684
1450.11, 0.378803
1450.52, 0.378982
1450.93, 0.378982
1451.33, 0.379220
1451.74, 0.379518
1452.14, 0.379995
1452.55, 0.380173
1452.96, 0.380114
1453.36, 0.379995
1453.77, 0.380054
1454.18, 0.380471
1454.59, 0.380531
1455.0, 0.380412
1455.41, 0.381067
1455.81, 0.381245
1456.22, 0.381305
1456.63, 0.381722
1457.04, 0.381841
1457.45, 0.381722
1457.86, 0.381782
1458.27, 0.381663
1458.68, 0.381663
1459.09, 0.381901
1459.5, 0.382199
1459.91, 0.382318
1460.32, 0.382496
1460.74, 0.382616
1461.15, 0.382735
1461.56, 0.383033
1461.97, 0.383271
1462.39, 0.383450
1462.8, 0.383211
1463.21, 0.383271
1463.62, 0.383926
1464.04, 0.383867
1464.45, 0.383926
1464.86, 0.384045
1465.28, 0.383986
1465.69, 0.383926
1466.11, 0.384284
1466.52, 0.384760
1466.94, 0.384879
1467.35, 0.384760
1467.77, 0.384939
1468.18, 0.385118
1468.6, 0.385296
1469.02, 0.385237
1469.43, 0.385177
1469.85, 0.385237
1470.27, 0.385654
1470.68, 0.385713
1471.1, 0.385832
1471.52, 0.385951
1471.94, 0.386428
1472.35, 0.386905
1472.77, 0.387262
1473.19, 0.387143
1473.61, 0.386845
1474.03, 0.386964
1474.45, 0.387083
1474.87, 0.387441
1475.29, 0.387679
1475.71, 0.387739
1476.13, 0.387739
1476.55, 0.387917
1476.97, 0.388215
1477.39, 0.388215
1477.81, 0.387977
1478.23, 0.388215
1478.65, 0.388811
1479.07, 0.388990
1479.5, 0.389049
1479.92, 0.389228
1480.34, 0.389526
1480.76, 0.389824
1481.19, 0.389764
1481.61, 0.389585
1482.03, 0.390002
1482.46, 0.390300
1482.88, 0.390657
1483.31, 0.390717
1483.73, 0.391015
1484.16, 0.390777
1484.58, 0.390777
1485.01, 0.390955
1485.43, 0.391194
1485.86, 0.391551
1486.28, 0.391849
1486.71, 0.391849
1487.14, 0.391908
1487.56, 0.391968
1487.99, 0.392147
1488.42, 0.392385
1488.84, 0.392325
1489.27, 0.392445
1489.7, 0.392683
1490.13, 0.392862
1490.56, 0.392802
1490.98, 0.392981
1491.41, 0.393040
1491.84, 0.393279
1492.27, 0.394053
1492.7, 0.394113
1493.13, 0.394232
1493.56, 0.394708
1493.99, 0.394768
1494.42, 0.394589
1494.85, 0.394649
1495.29, 0.394827
1495.72, 0.395363
1496.15, 0.395125
1496.58, 0.395185
1497.01, 0.395781
1497.44, 0.396078
1497.88, 0.396197
1498.31, 0.396197
1498.74, 0.396376
1499.18, 0.396555
1499.61, 0.396853
1500.04, 0.396853
1500.48, 0.396555
1500.91, 0.396972
1501.35, 0.397448
1501.78, 0.397627
1502.22, 0.397746
1502.65, 0.398282
1503.09, 0.398402
1503.53, 0.398759
1503.96, 0.399057
1504.4, 0.398938
1504.83, 0.398878
1505.27, 0.399057
1505.71, 0.399474
1506.15, 0.399593
1506.58, 0.399414
1507.02, 0.399653
1507.46, 0.399950
1507.9, 0.400069
1508.34, 0.400308
1508.78, 0.400367
1509.21, 0.400308
1509.66, 0.400427
1510.09, 0.401023
1510.53, 0.401142
1510.97, 0.401082
1511.42, 0.401201
1511.86, 0.401559
1512.3, 0.401737
1512.74, 0.401976
1513.18, 0.402154
1513.62, 0.402214
1514.06, 0.402393
1514.51, 0.402750
1514.95, 0.402750
1515.39, 0.402631
1515.83, 0.402571
1516.28, 0.403227
1516.72, 0.403584
1517.16, 0.403346
1517.61, 0.403644
1518.05, 0.403942
1518.5, 0.404001
1518.94, 0.404180
1519.39, 0.404239
1519.83, 0.404537
1520.28, 0.404835
1520.73, 0.405133
1521.17, 0.405252
1521.62, 0.405133
1522.07, 0.405133
1522.51, 0.405490
1522.96, 0.405669
1523.41, 0.406086
1523.85, 0.406443
1524.3, 0.406682
1524.75, 0.406920
1525.2, 0.406801
1525.65, 0.406741
1526.1, 0.406980
1526.55, 0.407158
1527.0, 0.407039
1527.45, 0.407158
1527.9, 0.407516
1528.35, 0.407933
1528.8, 0.408171
1529.25, 0.408469
1529.7, 0.408409
1530.15, 0.408350
1530.6, 0.408648
1531.05, 0.409005
1531.51, 0.409243
1531.96, 0.409601
1532.41, 0.409720
1532.87, 0.409779
1533.32, 0.409839
1533.77, 0.409958
1534.23, 0.410137
1534.68, 0.410435
1535.14, 0.410852
1535.59, 0.411209
1536.05, 0.411269
1536.5, 0.411566
1536.96, 0.412103
1537.41, 0.412162
1537.87, 0.412222
1538.32, 0.412341
1538.78, 0.412400
1539.24, 0.412639
1539.7, 0.413115
1540.15, 0.413413
1540.61, 0.413354
1541.07, 0.413532
1541.53, 0.413770
1541.98, 0.414068
1542.44, 0.414307
1542.9, 0.414545
1543.36, 0.414605
1543.82, 0.414485
1544.28, 0.415021
1544.74, 0.415498
1545.2, 0.415558
1545.66, 0.415915
1546.12, 0.415915
1546.59, 0.416094
1547.05, 0.416630
1547.51, 0.416809
1547.97, 0.416630
1548.43, 0.416749
1548.9, 0.417106
1549.36, 0.417226
1549.82, 0.417464
1550.29, 0.417940
1550.75, 0.418179
1551.21, 0.418179
1551.68, 0.418536
1552.14, 0.418953
1552.61, 0.419430
1553.07, 0.419668
1553.54, 0.419787
1554.0, 0.419728
1554.47, 0.420085
1554.93, 0.420144
1555.4, 0.420383
1555.87, 0.420561
1556.34, 0.420561
1556.8, 0.420919
1557.27, 0.421395
1557.74, 0.421693
1558.21, 0.421693
1558.68, 0.421932
1559.14, 0.422170
1559.61, 0.422468
1560.08, 0.422527
1560.55, 0.422885
1561.02, 0.423004
1561.49, 0.423063
1561.96, 0.423302
1562.43, 0.423778
1562.9, 0.424195
1563.38, 0.424255
1563.85, 0.424433
1564.32, 0.424612
1564.79, 0.424791
1565.26, 0.424970
1565.74, 0.425387
1566.21, 0.425625
1566.68, 0.425625
1567.16, 0.425744
1567.63, 0.425923
1568.1, 0.425982
1568.58, 0.426042
1569.05, 0.426340
1569.53, 0.426697
1570.0, 0.426876
1570.48, 0.427233
1570.96, 0.427293
1571.43, 0.427174
1571.91, 0.427650
1572.39, 0.428008
1572.86, 0.427829
1573.34, 0.428186
1573.82, 0.428544
1574.3, 0.428663
1574.77, 0.428782
1575.25, 0.428723
1575.73, 0.429139
1576.21, 0.429676
1576.69, 0.429735
1577.17, 0.429556
1577.65, 0.429676
1578.13, 0.429973
1578.61, 0.430271
1579.09, 0.430331
1579.57, 0.430748
1580.05, 0.431046
1580.54, 0.431105
1581.02, 0.431046
1581.5, 0.431343
1581.98, 0.431343
1582.47, 0.431463
1582.95, 0.431880
1583.43, 0.432118
1583.92, 0.432237
1584.4, 0.432773
1584.88, 0.432952
1585.37, 0.433011
1585.85, 0.433131
1586.34, 0.433369
1586.82, 0.433726
1587.31, 0.433786
1587.8, 0.433845
1588.28, 0.434322
1588.77, 0.434441
1589.26, 0.434560
1589.74, 0.434918
1590.23, 0.435037
1590.72, 0.435335
1591.21, 0.435513
1591.7, 0.435692
1592.19, 0.435930
1592.67, 0.436169
1593.16, 0.436228
1593.65, 0.436526
1594.14, 0.436824
1594.63, 0.437122
1595.12, 0.437062
1595.61, 0.437300
1596.11, 0.437717
1596.6, 0.437896
1597.09, 0.438134
1597.58, 0.438313
1598.08, 0.438432
1598.57, 0.438730
1599.06, 0.438790
1599.55, 0.439028
1600.05, 0.439266
1600.54, 0.439445
1601.04, 0.439743
1601.53, 0.439981
1602.03, 0.440219
1602.52, 0.440577
1603.02, 0.440696
1603.51, 0.440756
1604.01, 0.440875
1604.5, 0.441173
1605.0, 0.441292
1605.5, 0.441292
1606.0, 0.441709
1606.49, 0.441947
1606.99, 0.442126
1607.49, 0.442364
1607.99, 0.442662
1608.49, 0.443138
1608.99, 0.443436
1609.49, 0.443674
1609.99, 0.443972
1610.49, 0.444211
1610.99, 0.444330
1611.49, 0.444389
1611.99, 0.444568
1612.49, 0.444568
1612.99, 0.444628
1613.49, 0.444866
1614.0, 0.445283
1614.5, 0.445640
1615.0, 0.445938
1615.51, 0.446355
1616.01, 0.446415
1616.51, 0.446296
1617.02, 0.446355
1617.52, 0.446712
1618.03, 0.447189
1618.53, 0.447427
1619.04, 0.447487
1619.54, 0.447725
1620.05, 0.447963
1620.55, 0.448142
1621.06, 0.448500
1621.57, 0.448559
1622.08, 0.448738
1622.58, 0.449095
1623.09, 0.449393
1623.6, 0.449810
1624.11, 0.449989
1624.62, 0.449989
1625.13, 0.450346
1625.64, 0.450406
1626.15, 0.450465
1626.66, 0.450525
1627.17, 0.450763
1627.68, 0.451180
1628.19, 0.451359
1628.7, 0.451597
1629.21, 0.451538
1629.72, 0.451716
1630.24, 0.452133
1630.75, 0.452312
1631.26, 0.452133
1631.78, 0.451955
1632.29, 0.452491
1632.8, 0.452967
1633.32, 0.453086
1633.83, 0.453146
1634.35, 0.453265
1634.86, 0.453623
1635.38, 0.453980
1635.9, 0.453920
1636.41, 0.453980
1636.93, 0.454040
1637.45, 0.454397
1637.96, 0.454933
1638.48, 0.455052
1639.0, 0.455052
1639.52, 0.455469
1640.04, 0.455588
1640.56, 0.455708
1641.08, 0.455886
1641.59, 0.455946
1642.11, 0.455946
1642.63, 0.456244
1643.16, 0.456303
1643.68, 0.456661
1644.2, 0.456839
1644.72, 0.457018
1645.24, 0.457316
1645.76, 0.457197
1646.29, 0.457197
1646.81, 0.457495
1647.33, 0.457673
1647.86, 0.457912
1648.38, 0.457971
1648.9, 0.458150
1649.43, 0.458150
1649.95, 0.458209
1650.48, 0.458626
1651.0, 0.458865
1651.53, 0.459043
1652.06, 0.459460
1652.58, 0.459699
1653.11, 0.459580
1653.64, 0.459699
1654.17, 0.459937
1654.69, 0.460056
1655.22, 0.460235
1655.75, 0.460414
1656.28, 0.460592
1656.81, 0.460711
1657.34, 0.460890
1657.87, 0.461069
1658.4, 0.461247
1658.93, 0.461188
1659.46, 0.461367
1659.99, 0.461605
1660.52, 0.461724
1661.05, 0.461962
1661.59, 0.462498
1662.12, 0.462677
1662.65, 0.462677
1663.19, 0.463035
1663.72, 0.463213
1664.26, 0.463392
1664.79, 0.463571
1665.32, 0.463690
1665.86, 0.463869
1666.39, 0.464107
1666.93, 0.464464
1667.47, 0.464643
1668.0, 0.464822
1668.54, 0.465120
1669.08, 0.465239
1669.61, 0.465417
1670.15, 0.465477
1670.69, 0.465656
1671.23, 0.465894
1671.77, 0.465953
1672.31, 0.466073
1672.85, 0.466490
1673.39, 0.466549
1673.93, 0.466668
1674.47, 0.466907
1675.01, 0.466966
1675.55, 0.467264
1676.09, 0.467443
1676.64, 0.467621
1677.18, 0.467800
1677.72, 0.467979
1678.26, 0.468277
1678.81, 0.468336
1679.35, 0.468515
1679.89, 0.468694
1680.44, 0.468753
1680.98, 0.468932
1681.53, 0.468932
1682.07, 0.469230
1682.62, 0.469647
1683.17, 0.469826
1683.71, 0.469885
1684.26, 0.470064
1684.81, 0.470362
1685.36, 0.470481
1685.9, 0.470779
1686.45, 0.470898
1687.0, 0.471017
1687.55, 0.471315
1688.1, 0.471493
1688.65, 0.471732
1689.2, 0.471970
1689.75, 0.472030
1690.3, 0.472268
1690.85, 0.472566
1691.41, 0.472625
1691.96, 0.472685
1692.51, 0.472864
1693.06, 0.473042
1693.61, 0.473161
1694.17, 0.473161
1694.72, 0.473459
1695.28, 0.473936
1695.83, 0.474115
1696.39, 0.474115
1696.94, 0.474174
1697.5, 0.474234
1698.05, 0.474412
1698.61, 0.474472
1699.17, 0.474651
1699.72, 0.474889
1700.28, 0.474770
1700.84, 0.474770
1701.4, 0.475068
1701.95, 0.475306
1702.51, 0.475365
1703.07, 0.475544
1703.63, 0.475842
1704.19, 0.476021
1704.75, 0.476080
1705.31, 0.476140
1705.88, 0.476319
1706.44, 0.476378
1707.0, 0.476497
1707.56, 0.476736
1708.12, 0.476974
1708.69, 0.477153
1709.25, 0.477153
1709.81, 0.477212
1710.38, 0.477212
1710.94, 0.477391
1711.51, 0.477331
1712.07, 0.477391
1712.64, 0.477570
1713.2, 0.477808
1713.77, 0.477987
1714.34, 0.478106
1714.9, 0.478225
1715.47, 0.478404
1716.04, 0.478404
1716.61, 0.478761
1717.18, 0.479059
1717.74, 0.478880
1718.31, 0.478821
1718.88, 0.478999
1719.45, 0.479059
1720.02, 0.479118
1720.59, 0.479357
1721.17, 0.479595
1721.74, 0.479535
1722.31, 0.479476
1722.88, 0.479595
1723.45, 0.479714
1724.03, 0.479952
1724.6, 0.479893
1725.18, 0.480071
1725.75, 0.480429
1726.33, 0.480548
1726.9, 0.480369
1727.48, 0.480548
1728.05, 0.480727
1728.63, 0.480846
1729.2, 0.480965
1729.78, 0.481144
1730.36, 0.481382
1730.94, 0.481561
1731.51, 0.481501
1732.09, 0.481739
1732.67, 0.481799
1733.25, 0.481918
1733.83, 0.482037
1734.41, 0.482097
1734.99, 0.482216
1735.57, 0.482454
1736.15, 0.482454
1736.73, 0.482752
1737.32, 0.483050
1737.9, 0.483288
1738.48, 0.483348
1739.07, 0.483348
1739.65, 0.483586
1740.23, 0.483586
1740.82, 0.483527
1741.4, 0.483765
1741.99, 0.483824
1742.57, 0.483944
1743.16, 0.484241
1743.74, 0.484420
1744.33, 0.484658
1744.92, 0.484599
1745.51, 0.484480
1746.09, 0.484658
1746.68, 0.484956
1747.27, 0.484956
1747.86, 0.485135
1748.45, 0.485492
1749.04, 0.485850
1749.63, 0.486028
1750.22, 0.486088
1750.81, 0.486028
1751.4, 0.486148
1751.99, 0.486267
1752.59, 0.486326
1753.18, 0.486386
1753.77, 0.486505
1754.37, 0.486684
1754.96, 0.486743
1755.56, 0.486922
1756.15, 0.487041
1756.74, 0.487279
1757.34, 0.487637
1757.94, 0.487935
1758.53, 0.487875
1759.13, 0.487935
1759.73, 0.488113
1760.32, 0.488173
1760.92, 0.488530
1761.52, 0.488590
1762.12, 0.488590
1762.72, 0.488828
1763.32, 0.489007
1763.92, 0.489126
1764.52, 0.489067
1765.12, 0.489186
1765.72, 0.489364
1766.32, 0.489483
1766.92, 0.489603
1767.53, 0.489722
1768.13, 0.490020
1768.73, 0.490139
1769.34, 0.490496
1769.94, 0.490734
1770.55, 0.490675
1771.15, 0.490734
1771.76, 0.490854
1772.36, 0.491092
1772.97, 0.491271
1773.57, 0.491211
1774.18, 0.491271
1774.79, 0.491330
1775.4, 0.491390
1776.0, 0.491509
1776.61, 0.491509
1777.22, 0.491747
1777.83, 0.491866
1778.44, 0.491985
1779.05, 0.491926
1779.66, 0.492164
1780.27, 0.492224
1780.88, 0.492283
1781.5, 0.492283
1782.11, 0.492581
1782.72, 0.492700
1783.33, 0.492641
1783.95, 0.492522
1784.56, 0.492700
1785.18, 0.492939
1785.79, 0.493058
1786.41, 0.493177
1787.02, 0.493058
1787.64, 0.492939
1788.26, 0.493058
1788.87, 0.493177
1789.49, 0.493117
1790.11, 0.493236
1790.73, 0.493534
1791.35, 0.493415
1791.96, 0.493475
1792.58, 0.493594
1793.21, 0.493772
1793.83, 0.493772
1794.45, 0.493594
1795.07, 0.493653
1795.69, 0.493832
1796.31, 0.493832
1796.93, 0.493951
1797.56, 0.494011
1798.18, 0.494070
1798.8, 0.494190
1799.43, 0.494070
1800.05, 0.494368
1800.68, 0.494547
1801.3, 0.494428
1801.93, 0.494487
1802.56, 0.494487
1803.18, 0.494309
1803.81, 0.494487
1804.44, 0.494547
1805.07, 0.494726
1805.7, 0.495023
1806.33, 0.495083
1806.95, 0.494904
1807.58, 0.494666
1808.22, 0.494845
1808.85, 0.494845
1809.48, 0.494845
1810.11, 0.495143
1810.74, 0.495262
1811.38, 0.495023
1812.01, 0.495083
1812.64, 0.495262
1813.28, 0.495262
1813.91, 0.495381
1814.55, 0.495798
1815.18, 0.496096
1815.82, 0.496155
1816.45, 0.496155
1817.09, 0.496215
1817.73, 0.496453
1818.36, 0.496274
1819.0, 0.496096
1819.64, 0.496811
1820.28, 0.497585
1820.92, 0.497347
1821.56, 0.497466
1822.2, 0.497585
1822.84, 0.497406
1823.48, 0.497168
1824.12, 0.497406
1824.76, 0.497525
1825.41, 0.498121
1826.05, 0.499015
1826.69, 0.498479
1827.34, 0.497942
1827.98, 0.498181
1828.63, 0.498419
1829.27, 0.498538
1829.92, 0.498717
1830.56, 0.499074
1831.21, 0.499193
1831.86, 0.498836
1832.5, 0.498776
1833.15, 0.498538
1833.8, 0.498419
1834.45, 0.499134
1835.1, 0.499670
1835.75, 0.500027
1836.4, 0.500087
1837.05, 0.500087
1837.7, 0.500385
1838.35, 0.499729
1839.01, 0.499908
1839.66, 0.500683
1840.31, 0.500266
1840.96, 0.500266
1841.62, 0.501159
1842.27, 0.500623
1842.93, 0.499789
1843.58, 0.499491
1844.24, 0.499432
1844.9, 0.499610
1845.55, 0.499729
1846.21, 0.500683
1846.87, 0.501993
1847.53, 0.501874
1848.18, 0.501636
1848.84, 0.500742
1849.5, 0.500266
1850.16, 0.500325
1850.82, 0.500266
1851.48, 0.500385
1852.14, 0.500683
1852.81, 0.501338
1853.47, 0.502470
1854.13, 0.502351
1854.8, 0.501278
1855.46, 0.501100
1856.12, 0.501695
1856.79, 0.501993
1857.45, 0.501576
1858.12, 0.501100
1858.79, 0.501517
1859.45, 0.502887
1860.12, 0.502648
1860.79, 0.502112
1861.46, 0.501576
1862.12, 0.501457
1862.79, 0.501576
1863.46, 0.501934
1864.13, 0.502172
1864.8, 0.502053
1865.48, 0.501934
1866.15, 0.501934
1866.82, 0.502589
1867.49, 0.503840
1868.16, 0.503304
1868.84, 0.502768
1869.51, 0.502946
1870.19, 0.503780
1870.86, 0.504376
1871.54, 0.503065
1872.21, 0.503244
1872.89, 0.504435
1873.56, 0.503661
1874.24, 0.502648
1874.92, 0.502470
1875.6, 0.502351
1876.28, 0.502768
1876.96, 0.503065
1877.64, 0.502112
1878.32, 0.501636
1879.0, 0.501576
1879.68, 0.501338
1880.36, 0.501278
1881.04, 0.501338
1881.73, 0.501040
1882.41, 0.500742
1883.09, 0.501040
1883.78, 0.501636
1884.46, 0.501100
1885.15, 0.500504
1885.83, 0.500385
1886.52, 0.500146
1887.21, 0.499670
1887.89, 0.499491
1888.58, 0.499372
1889.27, 0.499491
1889.96, 0.499789
1890.65, 0.499253
1891.34, 0.498657
1892.03, 0.498479
1892.72, 0.498062
1893.41, 0.497883
1894.1, 0.497287
1894.79, 0.497049
1895.49, 0.496989
1896.18, 0.496453
1896.87, 0.496096
1897.57, 0.496155
1898.26, 0.495977
1898.96, 0.496513
1899.65, 0.496691
1900.35, 0.495798
1901.05, 0.494547
1901.74, 0.494011
1902.44, 0.494547
1903.14, 0.494309
1903.84, 0.493236
1904.54, 0.493594
1905.24, 0.493951
1905.94, 0.493355
1906.64, 0.492879
1907.34, 0.491747
1908.04, 0.490973
1908.75, 0.490734
1909.45, 0.490317
1910.15, 0.490079
1910.86, 0.490258
1911.56, 0.490258
1912.27, 0.489960
1912.97, 0.490317
1913.68, 0.490377
1914.39, 0.489424
1915.09, 0.488769
1915.8, 0.488709
1916.51, 0.488590
1917.22, 0.488292
1917.93, 0.487994
1918.64, 0.487994
1919.35, 0.488590
1920.06, 0.489126
1920.77, 0.488769
1921.48, 0.487458
1922.19, 0.486684
1922.91, 0.486684
1923.62, 0.487041
1924.33, 0.486684
1925.05, 0.486088
1925.76, 0.485969
1926.48, 0.485969
1927.19, 0.485969
1927.91, 0.485969
1928.63, 0.485611
1929.35, 0.485254
1930.07, 0.485016
1930.78, 0.484837
1931.5, 0.484420
1932.22, 0.483944
1932.94, 0.483765
1933.66, 0.483646
1934.39, 0.483348
1935.11, 0.482990
1935.83, 0.483050
1936.55, 0.482990
1937.28, 0.482514
1938.0, 0.481978
1938.73, 0.481620
1939.45, 0.481382
1940.18, 0.481144
1940.9, 0.480905
1941.63, 0.480429
1942.36, 0.480012
1943.09, 0.479893
1943.81, 0.479714
1944.54, 0.479416
1945.27, 0.478880
1946.0, 0.478404
1946.73, 0.478106
1947.47, 0.477808
1948.2, 0.477391
1948.93, 0.477033
1949.66, 0.476736
1950.4, 0.476378
1951.13, 0.476080
1951.86, 0.475663
1952.6, 0.475246
1953.34, 0.474829
1954.07, 0.474234
1954.81, 0.473698
1955.55, 0.473459
1956.29, 0.473340
1957.02, 0.473102
1957.76, 0.472744
1958.5, 0.472387
1959.24, 0.472030
1959.98, 0.471493
1960.72, 0.471017
1961.47, 0.470719
1962.21, 0.470540
1962.95, 0.470123
1963.7, 0.469528
1964.44, 0.469409
1965.18, 0.469051
1965.93, 0.468575
1966.67, 0.468336
1967.42, 0.468098
1968.17, 0.467741
1968.92, 0.467502
1969.66, 0.467264
1970.41, 0.466966
1971.16, 0.466609
1971.91, 0.466430
1972.66, 0.466371
1973.41, 0.466192
1974.16, 0.466073
1974.92, 0.466013
1975.67, 0.465953
1976.42, 0.465894
1977.18, 0.465715
1977.93, 0.465715
1978.69, 0.465656
1979.44, 0.465596
1980.2, 0.465596
1980.95, 0.465715
1981.71, 0.465775
1982.47, 0.465834
1983.23, 0.465834
1983.99, 0.465834
1984.74, 0.465953
1985.51, 0.466251
1986.27, 0.466490
1987.03, 0.466549
1987.79, 0.466549
1988.55, 0.466847
1989.32, 0.467085
1990.08, 0.467204
1990.84, 0.467502
1991.61, 0.467919
1992.37, 0.467979
1993.14, 0.468277
1993.9, 0.468575
1994.67, 0.468694
1995.44, 0.469051
1996.21, 0.469587
1996.98, 0.469885
1997.75, 0.470123
1998.52, 0.470421
1999.29, 0.470659
2000.06, 0.470838
2000.83, 0.470957
2001.6, 0.471374
2002.38, 0.471851
2003.15, 0.472149
2003.93, 0.472327
2004.7, 0.472744
2005.48, 0.473161
2006.25, 0.473161
2007.03, 0.473221
2007.81, 0.473757
2008.58, 0.474174
2009.36, 0.474472
2010.14, 0.474651
2010.92, 0.475008
2011.7, 0.475544
2012.48, 0.475961
2013.26, 0.476378
2014.05, 0.476914
2014.83, 0.477331
2015.61, 0.477748
2016.4, 0.478106
2017.18, 0.478523
2017.97, 0.478821
2018.75, 0.479535
2019.54, 0.479833
2020.32, 0.480369
2021.11, 0.480965
2021.9, 0.481501
2022.69, 0.482037
2023.48, 0.482454
2024.27, 0.482871
2025.06, 0.483348
2025.85, 0.483884
2026.64, 0.484360
2027.44, 0.484777
2028.23, 0.485314
2029.02, 0.485969
2029.82, 0.486386
2030.61, 0.486862
2031.41, 0.487399
2032.2, 0.488054
2033.0, 0.488709
2033.8, 0.489007
2034.6, 0.489364
2035.4, 0.489841
2036.2, 0.490258
2037.0, 0.490675
2037.8, 0.491032
2038.6, 0.491449
2039.4, 0.491866
2040.2, 0.492224
2041.01, 0.492700
2041.81, 0.493117
2042.61, 0.493713
2043.42, 0.494190
2044.22, 0.494487
2045.03, 0.494726
2045.84, 0.495083
2046.65, 0.495500
2047.46, 0.495798
2048.26, 0.495977
2049.07, 0.496215
2049.88, 0.496572
2050.69, 0.496930
2051.51, 0.497108
2052.32, 0.497347
2053.13, 0.497525
2053.94, 0.497823
2054.76, 0.498002
2055.57, 0.498181
2056.39, 0.498240
2057.2, 0.498359
2058.02, 0.498895
2058.84, 0.499074
2059.66, 0.499193
2060.48, 0.499253
2061.29, 0.499372
2062.11, 0.499610
2062.94, 0.499908
2063.76, 0.499968
2064.58, 0.499849
2065.4, 0.499908
2066.22, 0.500087
2067.05, 0.500027
2067.87, 0.499849
2068.7, 0.499908
2069.52, 0.499849
2070.35, 0.499491
2071.18, 0.499253
2072.0, 0.499193
2072.83, 0.498895
2073.66, 0.498598
2074.49, 0.498300
2075.32, 0.498002
2076.15, 0.497525
2076.98, 0.496930
2077.82, 0.496215
2078.65, 0.495679
2079.48, 0.495023
2080.32, 0.494606
2081.15, 0.493892
2081.99, 0.493177
2082.83, 0.492343
2083.66, 0.491211
2084.5, 0.490198
2085.34, 0.489424
2086.18, 0.488650
2087.02, 0.487816
2087.86, 0.486743
2088.7, 0.485731
2089.54, 0.485016
2090.39, 0.484301
2091.23, 0.483705
2092.07, 0.483169
2092.92, 0.482693
2093.76, 0.482037
2094.61, 0.481680
2095.45, 0.481322
2096.3, 0.480846
2097.15, 0.480608
2098.0, 0.480310
2098.85, 0.479952
2099.7, 0.479774
2100.55, 0.479774
2101.4, 0.479654
2102.25, 0.479595
2103.1, 0.479357
2103.96, 0.479118
2104.81, 0.478880
2105.67, 0.478642
2106.52, 0.478284
2107.38, 0.477748
2108.24, 0.477331
2109.09, 0.477033
2109.95, 0.476914
2110.81, 0.476379
2111.67, 0.476319
2112.53, 0.477272
2113.39, 0.477450
2114.25, 0.477272
2115.12, 0.478105
2115.98, 0.478581
2116.84, 0.478343
2117.71, 0.478284
2118.58, 0.478343
2119.44, 0.478939
2120.31, 0.479296
2121.18, 0.479534
2122.04, 0.479653
2122.91, 0.479594
2123.78, 0.479534
2124.65, 0.479891
2125.52, 0.479891
2126.4, 0.479891
2127.27, 0.479356
2128.14, 0.479236
2129.02, 0.479117
2129.89, 0.478939
2130.77, 0.478939
2131.64, 0.479415
2132.52, 0.479117
2133.4, 0.478343
2134.27, 0.477867
2135.15, 0.478224
2136.03, 0.478522
2136.91, 0.478522
2137.79, 0.478820
2138.68, 0.478998
2139.56, 0.478581
2140.44, 0.479117
2141.33, 0.479177
2142.21, 0.479356
2143.1, 0.479534
2143.99, 0.480189
2144.87, 0.481023
2145.76, 0.481261
2146.65, 0.481320
2147.54, 0.482154
2148.43, 0.482213
2149.32, 0.481916
2150.21, 0.482452
2151.1, 0.483702
2151.99, 0.484119
2152.89, 0.484357
2153.78, 0.484595
2154.68, 0.485429
2155.57, 0.486143
2156.47, 0.486143
2157.37, 0.486381
2158.27, 0.487155
2159.16, 0.487393
2160.06, 0.487870
2160.96, 0.488108
2161.86, 0.488644
2162.77, 0.489715
2163.67, 0.489656
2164.57, 0.489180
2165.48, 0.489418
2166.38, 0.490132
2167.29, 0.490728
2168.2, 0.491263
2169.1, 0.491323
2170.01, 0.491323
2170.92, 0.492097
2171.83, 0.492633
2172.74, 0.492454
2173.65, 0.492216
2174.56, 0.492454
2175.47, 0.492573
2176.39, 0.492633
2177.3, 0.492931
2178.22, 0.493109
2179.13, 0.493169
2180.05, 0.493109
2180.96, 0.492931
2181.88, 0.492931
2182.8, 0.492990
2183.72, 0.492931
2184.64, 0.492573
2185.56, 0.492157
2186.48, 0.492097
2187.41, 0.492276
2188.33, 0.492276
2189.25, 0.492395
2190.18, 0.491680
2191.1, 0.491204
2192.03, 0.491204
2192.96, 0.491442
2193.89, 0.491085
2194.82, 0.490489
2195.74, 0.489954
2196.68, 0.489775
2197.61, 0.489835
2198.54, 0.489477
2199.47, 0.489180
2200.4, 0.488941
2201.34, 0.488822
2202.28, 0.488822
2203.21, 0.488406
2204.15, 0.488406
2205.08, 0.488108
2206.02, 0.487929
2206.96, 0.487870
2207.9, 0.487632
2208.84, 0.486619
2209.78, 0.485786
2210.73, 0.485310
2211.67, 0.485190
2212.61, 0.485071
2213.56, 0.484178
2214.5, 0.483226
2215.45, 0.482511
2216.4, 0.481916
2217.35, 0.481559
2218.3, 0.480844
2219.24, 0.480129
2220.2, 0.478165
2221.15, 0.475843
2222.1, 0.474295
2223.05, 0.472568
2224.0, 0.470841
2224.96, 0.468996
2225.91, 0.466912
2226.87, 0.463816
2227.83, 0.460184
2228.79, 0.456730
2229.74, 0.453694
2230.7, 0.450479
2231.66, 0.446549
2232.63, 0.443096
2233.59, 0.440595
2234.55, 0.437618
2235.51, 0.433986
2236.48, 0.430890
2237.44, 0.428449
2238.41, 0.426067
2239.38, 0.422852
2240.34, 0.420054
2241.31, 0.418446
2242.28, 0.416481
2243.25, 0.414636
2244.22, 0.413326
2245.19, 0.411837
2246.17, 0.410646
2247.14, 0.409575
2248.12, 0.408622
2249.09, 0.407372
2250.07, 0.406419
2251.04, 0.405228
2252.02, 0.403859
2253.0, 0.402549
2253.98, 0.401835
2254.96, 0.400822
2255.94, 0.400227
2256.92, 0.399691
2257.91, 0.398917
2258.89, 0.398322
2259.88, 0.397845
2260.86, 0.396952
2261.85, 0.395523
2262.83, 0.393975
2263.82, 0.392487
2264.81, 0.390641
2265.8, 0.388379
2266.79, 0.385878
2267.78, 0.383258
2268.78, 0.380341
2269.77, 0.377126
2270.76, 0.373970
2271.76, 0.371648
2272.75, 0.368790
2273.75, 0.366111
2274.75, 0.363729
2275.75, 0.362062
2276.75, 0.360216
2277.75, 0.357894
2278.75, 0.355215
2279.75, 0.353250
2280.75, 0.350988
2281.76, 0.348308
2282.76, 0.346046
2283.77, 0.343545
2284.77, 0.340628
2285.78, 0.337889
2286.79, 0.335448
2287.8, 0.333007
2288.81, 0.330089
2289.82, 0.327231
2290.83, 0.324016
2291.84, 0.321277
2292.86, 0.318479
2293.87, 0.315740
2294.89, 0.313299
2295.91, 0.310441
2296.92, 0.307166
2297.94, 0.304487
2298.96, 0.302224
2299.98, 0.300379
2301.0, 0.298831
2302.02, 0.296866
2303.04, 0.294425
2304.07, 0.292341
2305.09, 0.289721
2306.12, 0.286565
2307.15, 0.283350
2308.17, 0.280552
2309.2, 0.277277
2310.23, 0.273050
2311.26, 0.269001
2312.29, 0.265846
2313.32, 0.262749
2314.35, 0.259772
2315.39, 0.257510
2316.42, 0.255664
2317.46, 0.253938
2318.5, 0.252687
2319.53, 0.251377
2320.57, 0.249948
2321.61, 0.248400
2322.65, 0.247507
2323.69, 0.247150
2324.73, 0.247924
2325.78, 0.248817
2326.82, 0.250722
2327.86, 0.253402
2328.91, 0.255962
2329.96, 0.258939
2331.01, 0.262630
2332.05, 0.266322
2333.1, 0.269716
2334.15, 0.273526
2335.21, 0.277932
2336.26, 0.282219
2337.31, 0.286208
2338.36, 0.290138
2339.42, 0.294127
2340.48, 0.298116
2341.53, 0.302165
2342.59, 0.306630
2343.65, 0.310739
2344.71, 0.314906
2345.77, 0.319729
2346.83, 0.323897
2347.9, 0.327946
2348.96, 0.331994
2350.02, 0.335209
2351.09, 0.337948
2352.16, 0.340509
2353.23, 0.343128
2354.29, 0.345569
2355.36, 0.347772
2356.43, 0.349856
2357.51, 0.351821
2358.58, 0.353905
2359.65, 0.355513
2360.73, 0.356644
2361.8, 0.357418
2362.88, 0.357894
2363.96, 0.358549
2365.03, 0.359323
2366.11, 0.359740
2367.19, 0.359919
2368.27, 0.359621
2369.36, 0.359085
2370.44, 0.358728
2371.53, 0.357239
2372.61, 0.355572
2373.7, 0.353607
2374.78, 0.350868
2375.87, 0.348189
2376.96, 0.345212
2378.05, 0.341997
2379.14, 0.338960
2380.24, 0.336222
2381.33, 0.333661
2382.42, 0.331339
2383.52, 0.329553
2384.61, 0.328660
2385.71, 0.328839
2386.81, 0.329613
2387.91, 0.330565
2389.01, 0.331875
2390.11, 0.332947
2391.22, 0.334376
2392.32, 0.335567
2393.42, 0.336638
2394.53, 0.337948
2395.64, 0.338663
2396.74, 0.339258
2397.85, 0.340389
2398.96, 0.341223
2400.07, 0.341521
2401.18, 0.341937
2402.3, 0.341878
2403.41, 0.341163
2404.52, 0.340509
2405.64, 0.339734
2406.76, 0.338484
2407.88, 0.336996
2408.99, 0.335329
2410.11, 0.333900
2411.23, 0.332471
2412.36, 0.331101
2413.48, 0.329613
2414.6, 0.328065
2415.73, 0.326040
2416.85, 0.324611
2417.98, 0.323480
2419.11, 0.322349
2420.24, 0.321158
2421.37, 0.320205
2422.5, 0.319610
2423.64, 0.319074
2424.77, 0.318419
2425.9, 0.317883
2427.04, 0.318122
2428.18, 0.318360
2429.31, 0.318419
2430.45, 0.318776
2431.59, 0.319491
2432.73, 0.319670
2433.88, 0.319491
2435.02, 0.319491
2436.16, 0.319550
2437.31, 0.319610
2438.45, 0.319312
2439.6, 0.318241
2440.75, 0.317228
2441.9, 0.316752
2443.05, 0.316157
2444.2, 0.315323
2445.35, 0.314549
2446.51, 0.313537
2447.67, 0.312644
2448.82, 0.311513
2449.98, 0.310441
2451.14, 0.309310
2452.3, 0.308417
2453.46, 0.307762
2454.62, 0.306868
2455.78, 0.306452
2456.94, 0.306214
2458.11, 0.305916
2459.28, 0.306154
2460.44, 0.306690
2461.61, 0.307523
2462.78, 0.308178
2463.95, 0.309071
2465.12, 0.310322
2466.3, 0.311513
2467.47, 0.312584
2468.65, 0.313775
2469.82, 0.314430
2471.0, 0.314906
2472.18, 0.315621
2473.36, 0.316395
2474.54, 0.316752
2475.72, 0.316693
2476.9, 0.316454
2478.08, 0.316216
2479.27, 0.315740
2480.46, 0.315025
2481.64, 0.313954
2482.83, 0.312942
2484.02, 0.311751
2485.21, 0.310560
2486.4, 0.309250
2487.6, 0.307643
2488.79, 0.305797
2489.99, 0.303772
2491.18, 0.302046
2492.38, 0.300557
2493.58, 0.299009
2494.78, 0.297521
2495.98, 0.296092
2497.18, 0.294961
2498.39, 0.294127
2499.59, 0.293472
2500.8, 0.292996
2502.01, 0.292519
2503.21, 0.291745
2504.42, 0.291150
2505.63, 0.290674
2506.84, 0.290435
2508.06, 0.289781
2509.27, 0.288887
2510.49, 0.288292
2511.7, 0.287875
2512.92, 0.287339
2514.14, 0.286804
2515.36, 0.286268
2516.58, 0.285910
2517.8, 0.285910
2519.03, 0.286030
2520.25, 0.286089
2521.48, 0.286149
2522.7, 0.286506
2523.93, 0.287339
2525.16, 0.288233
2526.39, 0.289007
2527.62, 0.290138
2528.86, 0.291388
2530.09, 0.292579
2531.33, 0.294306
2532.56, 0.296092
2533.8, 0.297283
2535.04, 0.298771
2536.28, 0.300498
2537.52, 0.301748
2538.76, 0.302939
2540.01, 0.304011
2541.25, 0.304785
2542.5, 0.305618
2543.75, 0.306571
2544.99, 0.307166
2546.24, 0.307226
2547.49, 0.307285
2548.75, 0.307285
2550.0, 0.307523
2551.26, 0.307643
2552.51, 0.307166
2553.77, 0.306214
2555.03, 0.305023
2556.29, 0.304130
2557.55, 0.303475
2558.81, 0.303117
2560.08, 0.302998
2561.34, 0.302641
2562.61, 0.301391
2563.88, 0.300081
2565.14, 0.298295
2566.41, 0.296806
2567.68, 0.296509
2568.96, 0.296985
2570.23, 0.296628
2571.51, 0.296032
2572.78, 0.297580
2574.06, 0.298235
2575.34, 0.298414
2576.62, 0.299664
2577.9, 0.300021
2579.18, 0.300557
2580.47, 0.302522
2581.75, 0.304130
2583.04, 0.305975
2584.32, 0.307226
2585.61, 0.307047
2586.9, 0.308833
2588.2, 0.309905
2589.49, 0.310798
2590.78, 0.311751
2592.08, 0.313239
2593.37, 0.317109
2594.67, 0.321099
2595.97, 0.320205
2597.27, 0.319372
2598.57, 0.320086
2599.88, 0.321634
2601.18, 0.323421
2602.49, 0.325385
2603.79, 0.327469
2605.1, 0.329791
2606.41, 0.330506
2607.72, 0.331161
2609.03, 0.332352
2610.35, 0.333245
2611.66, 0.334138
2612.98, 0.335209
2614.3, 0.335745
2615.62, 0.337770
2616.94, 0.339496
2618.26, 0.338841
2619.58, 0.339675
2620.91, 0.340330
2622.23, 0.339318
2623.56, 0.339675
2624.89, 0.340747
2626.22, 0.342473
2627.55, 0.342533
2628.88, 0.343188
2630.21, 0.344617
2631.55, 0.343486
2632.89, 0.342950
2634.22, 0.343069
2635.56, 0.341699
2636.9, 0.341104
2638.25, 0.340806
2639.59, 0.340509
2640.93, 0.339794
2642.28, 0.339080
2643.63, 0.337889
2644.98, 0.336996
2646.33, 0.335329
2647.68, 0.333304
2649.03, 0.331220
2650.39, 0.329553
2651.74, 0.327946
2653.1, 0.324909
2654.46, 0.321753
2655.82, 0.319074
2657.18, 0.315740
2658.54, 0.313954
2659.9, 0.312048
2661.27, 0.309250
2662.64, 0.306690
2664.01, 0.306094
2665.38, 0.305142
2666.74, 0.301927
2668.12, 0.297759
2669.49, 0.296211
2670.87, 0.292341
2672.24, 0.285196
2673.62, 0.279837
2675.0, 0.275848
2676.38, 0.270728
2677.76, 0.263107
2679.15, 0.252925
2680.54, 0.239172
2681.92, 0.223334
2683.31, 0.206306
2684.7, 0.188741
2686.09, 0.172725
2687.48, 0.158733
2688.88, 0.147421
2690.27, 0.137656
2691.67, 0.129618
2693.07, 0.122533
2694.47, 0.115984
2695.87, 0.109851
2697.27, 0.104314
2698.67, 0.0991930
2700.08, 0.0934780
2701.49, 0.0871660
2702.9, 0.0815100
2704.31, 0.0771640
2705.72, 0.0751390
2707.13, 0.0737100
2708.54, 0.0725200
2709.96, 0.0712100
2711.38, 0.0693640
2712.8, 0.0669230
2714.22, 0.0646010
2715.64, 0.0618020
2717.06, 0.0581700
2718.49, 0.0541810
2719.91, 0.0506680
2721.34, 0.0476320
2722.77, 0.0469170
2724.2, 0.0473940
2725.63, 0.0478110
2727.07, 0.0487630
2728.5, 0.0494180
2729.94, 0.0483460
2731.38, 0.0470960
2732.82, 0.0472150
2734.26, 0.0486440
2735.7, 0.0504900
2737.15, 0.0518590
2738.59, 0.0535260
2740.04, 0.0550150
2741.49, 0.0555510
2742.94, 0.0555510
2744.39, 0.0557290
2745.84, 0.0569800
2747.3, 0.0582900
2748.76, 0.0590040
2750.21, 0.0595990
2751.67, 0.0600760
2753.14, 0.0608500
2754.6, 0.0623980
2756.06, 0.0636480
2757.53, 0.0639460
2759.0, 0.0646010
2760.46, 0.0653750
2761.94, 0.0660890
2763.41, 0.0669230
2764.88, 0.0678750
2766.36, 0.0688280
2767.83, 0.0697210
2769.31, 0.0709120
2770.79, 0.0721620
2772.27, 0.0728170
2773.76, 0.0732940
2775.24, 0.0739490
2776.73, 0.0747230
2778.22, 0.0752580
2779.71, 0.0756750
2781.2, 0.0756750
2782.69, 0.0753770
2784.18, 0.0751390
2785.68, 0.0753770
2787.18, 0.0756160
2788.68, 0.0752580
2790.18, 0.0750200
2791.68, 0.0750800
2793.19, 0.0750200
2794.69, 0.0748420
2796.2, 0.0746030
2797.71, 0.0745440
2799.22, 0.0746030
2800.73, 0.0745440
2802.24, 0.0744250
2803.76, 0.0743060
2805.28, 0.0740080
2806.8, 0.0738890
2808.32, 0.0735910
2809.84, 0.0735910
2811.36, 0.0736510
2812.89, 0.0737700
2814.42, 0.0740080
2815.94, 0.0740680
2817.48, 0.0744840
2819.01, 0.0750200
2820.54, 0.0754970
2822.08, 0.0756750
2823.61, 0.0759730
2825.15, 0.0765090
2826.69, 0.0769850
2828.23, 0.0775210
2829.78, 0.0781160
2831.32, 0.0788900
2832.87, 0.0794860
2834.42, 0.0802600
2835.97, 0.0810930
2837.52, 0.0818670
2839.08, 0.0825220
2840.63, 0.0832960
2842.19, 0.0842490
2843.75, 0.0850230
2845.31, 0.0857370
2846.87, 0.0866900
2848.44, 0.0878210
2850.0, 0.0885950
2851.57, 0.0893100
2853.14, 0.0904410
2854.71, 0.0913340
2856.28, 0.0920490
2857.86, 0.0928230
2859.43, 0.0934780
2861.01, 0.0940730
2862.59, 0.0946680
2864.17, 0.0952640
2865.76, 0.0957400
2867.34, 0.0960380
2868.93, 0.0964550
2870.52, 0.0969900
2872.11, 0.0974070
2873.7, 0.0975860
2875.29, 0.0978240
2876.89, 0.0980030
2878.49, 0.0980620
2880.08, 0.0982410
2881.69, 0.0984190
2883.29, 0.0984790
2884.89, 0.0984790
2886.5, 0.0985980
2888.11, 0.0986580
2889.72, 0.0987770
2891.33, 0.0989550
2892.94, 0.0990740
2894.56, 0.0993720
2896.17, 0.0996700
2897.79, 0.0997290
2899.42, 0.0999080
2901.04, 0.100206
2902.66, 0.100384
2904.29, 0.100920
2905.92, 0.101515
2907.55, 0.101932
2909.18, 0.102170
2910.81, 0.102468
2912.45, 0.103064
2914.08, 0.103659
2915.72, 0.104254
2917.36, 0.104850
2919.01, 0.105445
2920.65, 0.106041
2922.3, 0.106934
2923.94, 0.107708
2925.59, 0.108541
2927.25, 0.109196
2928.9, 0.109970
2930.56, 0.111101
2932.21, 0.112352
2933.87, 0.113423
2935.53, 0.114376
2937.2, 0.115448
2938.86, 0.116520
2940.53, 0.117591
2942.2, 0.118723
2943.87, 0.120151
2945.54, 0.121521
2947.22, 0.123069
2948.89, 0.124676
2950.57, 0.126284
2952.25, 0.127832
2953.93, 0.129440
2955.62, 0.130988
2957.3, 0.132714
2958.99, 0.134203
2960.68, 0.135930
2962.37, 0.137716
2964.07, 0.139383
2965.76, 0.141467
2967.46, 0.143491
2969.16, 0.145515
2970.86, 0.147421
2972.56, 0.149207
2974.27, 0.151172
2975.98, 0.153196
2977.69, 0.155280
2979.4, 0.157542
2981.11, 0.159686
2982.83, 0.161889
2984.54, 0.164151
2986.26, 0.166235
2987.98, 0.168200
2989.71, 0.170284
2991.43, 0.172308
2993.16, 0.174273
2994.89, 0.176417
2996.62, 0.178560
2998.35, 0.180704
3000.09, 0.182609
3001.83, 0.184514
3003.57, 0.186479
3005.31, 0.188503
3007.05, 0.190468
3008.79, 0.192314
3010.54, 0.194457
3012.29, 0.196422
3014.04, 0.198089
3015.8, 0.200054
3017.55, 0.201959
3019.31, 0.203686
3021.07, 0.205532
3022.83, 0.207437
3024.59, 0.209342
3026.36, 0.211188
3028.13, 0.212915
3029.9, 0.214403
3031.67, 0.216130
3033.44, 0.217916
3035.22, 0.219404
3037.0, 0.221191
3038.78, 0.223036
3040.56, 0.224525
3042.34, 0.226013
3044.13, 0.227561
3045.92, 0.229169
3047.71, 0.230657
3049.5, 0.232384
3051.3, 0.234111
3053.09, 0.235659
3054.89, 0.237266
3056.69, 0.238814
3058.5, 0.240482
3060.3, 0.242149
3062.11, 0.243637
3063.92, 0.245245
3065.73, 0.246971
3067.55, 0.248400
3069.36, 0.250127
3071.18, 0.251556
3073.0, 0.252925
3074.82, 0.254533
3076.65, 0.256141
3078.48, 0.257629
3080.31, 0.259177
3082.14, 0.260963
3083.97, 0.262452
3085.8, 0.263702
3087.64, 0.264893
3089.48, 0.266084
3091.33, 0.267274
3093.17, 0.268465
3095.02, 0.269597
3096.87, 0.270787
3098.72, 0.271919
3100.57, 0.272990
3102.43, 0.274002
3104.28, 0.275134
3106.14, 0.276384
3108.01, 0.277456
3109.87, 0.278349
3111.74, 0.279361
3113.61, 0.280552
3115.48, 0.281624
3117.35, 0.282636
3119.23, 0.283707
3121.1, 0.284541
3122.98, 0.285256
3124.87, 0.285970
3126.75, 0.286804
3128.64, 0.287697
3130.53, 0.288590
3132.42, 0.289483
3134.31, 0.290495
3136.21, 0.291329
3138.11, 0.292281
3140.01, 0.293353
3141.91, 0.294425
3143.82, 0.295675
3145.73, 0.297104
3147.64, 0.298414
3149.55, 0.299605
3151.46, 0.300795
3153.38, 0.301986
3155.3, 0.303117
3157.22, 0.304546
3159.14, 0.305856
3161.07, 0.307047
3163.0, 0.308238
3164.93, 0.309548
3166.86, 0.310679
3168.8, 0.311691
3170.74, 0.312822
3172.68, 0.314251
3174.62, 0.315799
3176.56, 0.317169
3178.51, 0.318419
3180.46, 0.319729
3182.42, 0.321099
3184.37, 0.322408
3186.33, 0.323659
3188.29, 0.324969
3190.25, 0.326338
3192.21, 0.327529
3194.18, 0.328720
3196.15, 0.329910
3198.12, 0.331101
3200.09, 0.332232
3202.07, 0.333364
3204.05, 0.334376
3206.03, 0.335150
3208.02, 0.335983
3210.0, 0.336936
3211.99, 0.337532
3213.98, 0.337889
3215.98, 0.338067
3217.97, 0.338067
3219.97, 0.338008
3221.97, 0.337651
3223.98, 0.337115
3225.98, 0.336460
3227.99, 0.335864
3230.0, 0.335388
3232.02, 0.334733
3234.03, 0.333900
3236.05, 0.333304
3238.07, 0.332768
3240.1, 0.332173
3242.12, 0.331816
3244.15, 0.331875
3246.18, 0.331637
3248.22, 0.331518
3250.25, 0.331518
3252.29, 0.331458
3254.33, 0.331518
3256.38, 0.331697
3258.43, 0.331697
3260.47, 0.331935
3262.53, 0.332054
3264.58, 0.332173
3266.64, 0.332173
3268.7, 0.332411
3270.76, 0.332649
3272.82, 0.332828
3274.89, 0.332887
3276.96, 0.332947
3279.04, 0.332947
3281.11, 0.332828
3283.19, 0.332411
3285.27, 0.331816
3287.35, 0.331042
3289.44, 0.329970
3291.53, 0.328720
3293.62, 0.327410
3295.71, 0.325564
3297.81, 0.323480
3299.91, 0.321575
3302.01, 0.319908
3304.11, 0.318538
3306.22, 0.317645
3308.33, 0.317467
3310.44, 0.317467
3312.56, 0.317586
3314.68, 0.318122
3316.8, 0.318896
3318.92, 0.319610
3321.05, 0.320325
3323.18, 0.320979
3325.31, 0.321575
3327.44, 0.322230
3329.58, 0.322706
3331.72, 0.322944
3333.86, 0.323063
3336.01, 0.323182
3338.16, 0.323361
3340.31, 0.323599
3342.46, 0.323837
3344.61, 0.324314
3346.77, 0.324850
3348.94, 0.325385
3351.1, 0.325981
3353.27, 0.326755
3355.44, 0.327767
3357.61, 0.328660
3359.79, 0.329255
3361.97, 0.329791
3364.15, 0.330208
3366.33, 0.330506
3368.52, 0.330684
3370.71, 0.331101
3372.9, 0.331637
3375.1, 0.332352
3377.3, 0.333304
3379.5, 0.334257
3381.71, 0.335090
3383.91, 0.336222
3386.12, 0.337234
3388.34, 0.338246
3390.55, 0.338901
3392.77, 0.339437
3394.99, 0.339556
3397.22, 0.339199
3399.45, 0.338544
3401.68, 0.337591
3403.91, 0.336638
3406.15, 0.335864
3408.39, 0.335209
3410.63, 0.334614
3412.87, 0.334495
3415.12, 0.334971
3417.37, 0.335983
3419.63, 0.337770
3421.88, 0.340092
3424.14, 0.342771
3426.41, 0.345391
3428.67, 0.347832
3430.94, 0.349975
3433.21, 0.351583
3435.49, 0.352833
3437.77, 0.353905
3440.05, 0.354798
3442.33, 0.355632
3444.62, 0.356406
3446.91, 0.357358
3449.2, 0.358311
3451.5, 0.359323
3453.8, 0.360216
3456.1, 0.361228
3458.41, 0.362121
3460.72, 0.363074
3463.03, 0.363729
3465.34, 0.364324
3467.66, 0.364801
3469.98, 0.365039
3472.31, 0.365277
3474.63, 0.365634
3476.96, 0.366111
3479.3, 0.366527
3481.64, 0.366944
3483.97, 0.367301
3486.32, 0.367480
3488.66, 0.367837
3491.01, 0.367956
3493.36, 0.367837
3495.72, 0.367480
3498.08, 0.367599
3500.44, 0.368433
3502.81, 0.370040
3505.18, 0.372601
3507.55, 0.375875
3509.92, 0.379388
3512.3, 0.382841
3514.68, 0.386116
3517.06, 0.389093
3519.45, 0.391772
3521.84, 0.393975
3524.24, 0.395940
3526.64, 0.397667
3529.04, 0.399453
3531.44, 0.400822
3533.85, 0.402132
3536.26, 0.403383
3538.67, 0.404454
3541.09, 0.405407
3543.51, 0.406002
3545.93, 0.406657
3548.36, 0.407431
3550.79, 0.408384
3553.22, 0.409694
3555.66, 0.411004
3558.1, 0.412195
3560.54, 0.413266
3562.99, 0.414338
3565.44, 0.415172
3567.9, 0.415886
3570.35, 0.416720
3572.81, 0.417494
3575.28, 0.418208
3577.75, 0.418863
3580.22, 0.419458
3582.69, 0.420054
3585.17, 0.420411
3587.65, 0.420709
3590.14, 0.421364
3592.62, 0.422019
3595.11, 0.422376
3597.61, 0.422495
3600.11, 0.422793
3602.61, 0.423269
3605.11, 0.423626
3607.62, 0.423924
3610.14, 0.424222
3612.65, 0.424638
3615.17, 0.424877
3617.69, 0.424877
3620.22, 0.425055
3622.75, 0.425293
3625.28, 0.425531
3627.82, 0.425829
3630.36, 0.426008
3632.9, 0.426067
3635.45, 0.426246
3638.0, 0.426425
3640.56, 0.426544
3643.12, 0.426663
3645.68, 0.426841
3648.24, 0.426960
3650.81, 0.426901
3653.39, 0.427020
3655.96, 0.427318
3658.54, 0.427496
3661.13, 0.427437
3663.71, 0.427079
3666.3, 0.426901
3668.9, 0.426782
3671.5, 0.426841
3674.1, 0.426841
3676.7, 0.426841
3679.31, 0.426960
3681.93, 0.427139
3684.54, 0.427079
3687.17, 0.426484
3689.79, 0.425293
3692.42, 0.424579
3695.05, 0.424103
3697.69, 0.423269
3700.32, 0.422376
3702.97, 0.421721
3705.61, 0.421245
3708.27, 0.420709
3710.92, 0.420292
3713.58, 0.420054
3716.24, 0.419816
3718.91, 0.419935
3721.58, 0.420173
3724.25, 0.420590
3726.93, 0.420947
3729.61, 0.421483
3732.29, 0.421959
3734.98, 0.422435
3737.67, 0.422614
3740.37, 0.422554
3743.07, 0.422316
3745.78, 0.422019
3748.49, 0.421721
3751.2, 0.421364
3753.91, 0.420768
3756.63, 0.420113
3759.36, 0.419458
3762.09, 0.418744
3764.82, 0.417910
3767.55, 0.416958
3770.29, 0.416065
3773.04, 0.415291
3775.78, 0.414517
3778.54, 0.413743
3781.29, 0.412790
3784.05, 0.411837
3786.82, 0.410944
3789.59, 0.409932
3792.36, 0.409039
3795.13, 0.408384
3797.92, 0.407670
3800.7, 0.407015
3803.49, 0.406598
3806.28, 0.406360
3809.08, 0.406538
3811.88, 0.407134
3814.68, 0.407729
3817.49, 0.408563
3820.31, 0.409456
3823.12, 0.410468
3825.94, 0.411361
3828.77, 0.412135
3831.6, 0.412730
3834.43, 0.413504
3837.27, 0.414040
3840.11, 0.414278
3842.96, 0.414278
3845.81, 0.413743
3848.67, 0.412730
3851.53, 0.411421
3854.39, 0.409872
3857.26, 0.408682
3860.13, 0.407670
3863.01, 0.406895
3865.89, 0.406360
3868.77, 0.405824
3871.66, 0.405228
3874.55, 0.404693
3877.45, 0.404335
3880.35, 0.403978
3883.26, 0.403621
3886.17, 0.403264
3889.09, 0.402906
3892.01, 0.402728
3894.93, 0.402370
3897.86, 0.401835
3900.79, 0.401120
3903.73, 0.400167
3906.67, 0.399155
3909.62, 0.398322
3912.57, 0.397548
3915.52, 0.396833
3918.48, 0.396178
3921.45, 0.395881
3924.42, 0.395642
3927.39, 0.395226
3930.37, 0.394690
3933.35, 0.394392
3936.34, 0.393916
3939.33, 0.393559
3942.32, 0.393320
3945.32, 0.392963
3948.33, 0.392606
3951.34, 0.392368
3954.35, 0.392189
3957.37, 0.392011
3960.39, 0.391832
3963.42, 0.391713
3966.45, 0.391832
3969.49, 0.392130
3972.53, 0.392606
3975.58, 0.393439
3978.63, 0.394511
3981.68, 0.395642
3984.75, 0.396774
3987.81, 0.397905
3990.88, 0.398977
3993.95, 0.399870
3997.03, 0.400763
4000.12, 0.401716
4003.21, 0.402609
4006.3, 0.403740
4009.4, 0.404871
4012.5, 0.405943
4015.61, 0.406836
4018.72, 0.407729
4021.84, 0.408444
4024.96, 0.409098
4028.09, 0.409634
4031.22, 0.410349
4034.36, 0.410825
4037.5, 0.411182
4040.65, 0.411540
4043.8, 0.411778
4046.96, 0.412016
4050.12, 0.412433
4053.29, 0.412492
4056.46, 0.412433
4059.64, 0.412611
4062.82, 0.412849
4066.0, 0.412730
4069.19, 0.412552
4072.39, 0.412433
4075.59, 0.412492
4078.8, 0.412433
4082.01, 0.412254
4085.23, 0.411956
4088.45, 0.411897
4091.68, 0.411718
4094.91, 0.411599
4098.15, 0.411361
4101.39, 0.411182
4104.63, 0.410825
4107.89, 0.410527
4111.14, 0.410289
4114.41, 0.410051
4117.67, 0.409694
4120.95, 0.409515
4124.23, 0.409277
4127.51, 0.408920
4130.8, 0.408503
4134.09, 0.408205
4137.39, 0.407789
4140.7, 0.407491
4144.01, 0.407015
4147.32, 0.406657
4150.64, 0.406300
4153.97, 0.406121
4157.3, 0.405943
4160.64, 0.405824
4163.98, 0.405645
4167.33, 0.405288
4170.68, 0.404990
4174.04, 0.404633
4177.4, 0.404335
4180.77, 0.404038
4184.14, 0.403740
4187.52, 0.403442
4190.91, 0.403085
4194.3, 0.402787
4197.69, 0.402370
4201.1, 0.402192
4204.5, 0.401656
4207.92, 0.401239
4211.34, 0.400882
4214.76, 0.400584
4218.19, 0.400167
4221.62, 0.399929
4225.06, 0.399572
4228.51, 0.399155
4231.96, 0.398798
4235.42, 0.398381
4238.88, 0.397965
4242.35, 0.397548
4245.83, 0.397012
4249.31, 0.396595
4252.79, 0.396059
4256.28, 0.395702
4259.78, 0.395404
4263.29, 0.395047
4266.79, 0.394452
4270.31, 0.393797
4273.83, 0.393380
4277.35, 0.392963
4280.89, 0.392368
4284.42, 0.392011
4287.97, 0.391713
4291.52, 0.391237
4295.07, 0.390760
4298.63, 0.390403
4302.2, 0.389986
4305.78, 0.389629
4309.35, 0.389153
4312.94, 0.388736
4316.53, 0.388379
4320.13, 0.388021
4323.73, 0.387605
4327.34, 0.387307
4330.96, 0.386890
4334.58, 0.386533
4338.21, 0.386235
4341.84, 0.385997
4345.48, 0.385878
4349.12, 0.385699
4352.77, 0.385282
4356.43, 0.384925
4360.1, 0.384509
4363.76, 0.384032
4367.44, 0.383556
4371.12, 0.383020
4374.81, 0.382365
4378.51, 0.381829
4382.21, 0.381234
4385.92, 0.380638
4389.63, 0.379983
4393.35, 0.379388
4397.08, 0.378793
4400.81, 0.378078
4404.55, 0.377245
4408.29, 0.376649
4412.04, 0.375935
4415.8, 0.375220
4419.57, 0.374506
4423.34, 0.373732
4427.12, 0.372898
4430.9, 0.372065
4434.69, 0.371172
4438.49, 0.370457
4442.29, 0.369743
4446.1, 0.369088
4449.92, 0.368373
4453.74, 0.367778
4457.57, 0.367242
4461.41, 0.366527
4465.25, 0.365813
4469.1, 0.365218
4472.95, 0.364503
4476.82, 0.363610
4480.69, 0.362538
4484.56, 0.361526
4488.44, 0.360454
4492.33, 0.359323
4496.23, 0.358013
4500.13, 0.356763
4504.04, 0.355393
4507.96, 0.353845
4511.88, 0.352238
4515.81, 0.350749
4519.75, 0.349201
4523.69, 0.347653
4527.65, 0.346105
4531.6, 0.344617
4535.57, 0.343009
4539.54, 0.341402
4543.52, 0.339794
4547.5, 0.338067
4551.5, 0.335983
4555.5, 0.334138
4559.5, 0.332173
4563.52, 0.330089
4567.54, 0.328124
4571.56, 0.326219
4575.6, 0.324135
4579.64, 0.322230
4583.69, 0.320325
4587.75, 0.318598
4591.81, 0.316871
4595.88, 0.315085
4599.96, 0.313358
4604.04, 0.311751
4608.14, 0.310143
4612.24, 0.308714
4616.34, 0.307226
4620.46, 0.305797
4624.58, 0.304308
4628.71, 0.303058
4632.84, 0.301629
4636.99, 0.300379
4641.14, 0.299247
4645.3, 0.298235
4649.47, 0.297104
4653.64, 0.295913
4657.82, 0.294722
4662.01, 0.293651
4666.21, 0.292460
4670.41, 0.291269
4674.62, 0.289781
4678.84, 0.288173
4683.07, 0.286268
4687.3, 0.284184
4691.54, 0.282040
4695.79, 0.279897
4700.05, 0.277575
4704.31, 0.275431
4708.59, 0.273348
4712.87, 0.271204
4717.15, 0.269001
4721.45, 0.266798
4725.76, 0.264536
4730.07, 0.262392
4734.39, 0.260249
4738.72, 0.258284
4743.05, 0.256319
4747.39, 0.254473
4751.75, 0.252628
4756.1, 0.250841
4760.47, 0.249174
4764.85, 0.247686
4769.23, 0.246138
4773.62, 0.244768
4778.02, 0.243578
4782.43, 0.242446
4786.85, 0.241375
4791.27, 0.240362
4795.7, 0.239410
4800.14, 0.238636
4804.59, 0.237981
4809.05, 0.237445
4813.51, 0.236731
4817.99, 0.236016
4822.47, 0.235182
4826.96, 0.234408
4831.46, 0.233515
4835.96, 0.232503
4840.48, 0.231551
4845.0, 0.230479
4849.54, 0.229288
4854.08, 0.228038
4858.63, 0.226787
4863.18, 0.225418
4867.75, 0.224108
4872.33, 0.222858
4876.91, 0.221607
4881.5, 0.220536
4886.1, 0.219583
4890.71, 0.218571
4895.33, 0.217440
4899.96, 0.216427
4904.59, 0.215356
4909.24, 0.214344
4913.89, 0.213272
4918.55, 0.212141
4923.22, 0.211069
4927.9, 0.210116
4932.59, 0.208866
4937.29, 0.207735
4942.0, 0.206663
4946.71, 0.205591
4951.44, 0.204341
4956.17, 0.203150
4960.91, 0.201840
4965.67, 0.200471
4970.43, 0.199042
4975.2, 0.197553
4979.98, 0.196124
4984.76, 0.194695
4989.56, 0.193266
4994.37, 0.191957
4999.18, 0.190587
5004.01, 0.189277
5008.84, 0.187848
5013.69, 0.186717
5018.54, 0.185705
5023.4, 0.184574
5028.28, 0.183442
5033.16, 0.182549
5038.05, 0.181656
5042.95, 0.180882
5047.86, 0.180049
5052.78, 0.179275
5057.71, 0.178441
5062.65, 0.177786
5067.6, 0.177310
5072.56, 0.177012
5077.53, 0.176714
5082.5, 0.176298
5087.49, 0.175583
5092.49, 0.174809
5097.5, 0.173916
5102.51, 0.172963
5107.54, 0.171951
5112.58, 0.171058
5117.62, 0.170165
5122.68, 0.169331
5127.75, 0.168617
5132.82, 0.168081
5137.91, 0.167783
5143.01, 0.167664
5148.12, 0.167545
5153.23, 0.167367
5158.36, 0.167188
5163.5, 0.167069
5168.65, 0.166831
5173.81, 0.166414
5178.98, 0.165938
5184.15, 0.165461
5189.34, 0.164806
5194.54, 0.164032
5199.75, 0.163020
5204.98, 0.161829
5210.21, 0.160639
5215.45, 0.159269
5220.7, 0.157423
5225.96, 0.155578
5231.23, 0.153791
5236.52, 0.151946
5241.81, 0.149921
5247.12, 0.148135
5252.44, 0.146587
5257.76, 0.145337
5263.1, 0.144384
5268.45, 0.143491
5273.81, 0.142538
5279.18, 0.141586
5284.56, 0.140693
5289.95, 0.139978
5295.36, 0.139026
5300.77, 0.138073
5306.2, 0.137120
5311.63, 0.136227
5317.08, 0.135275
5322.54, 0.134262
5328.01, 0.133429
5333.49, 0.132714
5338.98, 0.131881
5344.49, 0.131285
5350.0, 0.130690
5355.53, 0.129678
5361.07, 0.128547
5366.62, 0.127594
5372.18, 0.126701
5377.75, 0.125629
5383.34, 0.124557
5388.93, 0.123605
5394.54, 0.122533
5400.16, 0.121461
5405.79, 0.120509
5411.44, 0.119556
5417.09, 0.118663
5422.76, 0.117710
5428.43, 0.116222
5434.12, 0.114912
5439.83, 0.113721
5445.54, 0.112471
5451.26, 0.111280
5457.0, 0.110387
5462.75, 0.109672
5468.52, 0.108898
5474.29, 0.108422
5480.08, 0.108184
5485.88, 0.107708
5491.69, 0.107291
5497.51, 0.106934
5503.35, 0.106636
5509.2, 0.106160
5515.06, 0.105743
5520.93, 0.105207
5526.82, 0.104552
5532.71, 0.103838
5538.63, 0.103123
5544.55, 0.102528
5550.49, 0.101992
5556.44, 0.101158
5562.4, 0.100265
5568.37, 0.0994320
5574.36, 0.0988360
5580.36, 0.0981810
5586.37, 0.0971690
5592.4, 0.0962760
5598.44, 0.0956810
5604.49, 0.0948470
5610.56, 0.0940730
5616.63, 0.0934180
5622.73, 0.0927040
5628.83, 0.0921080
5634.95, 0.0917510
5641.08, 0.0914530
5647.23, 0.0908580
5653.39, 0.0902620
5659.56, 0.0896080
5665.74, 0.0889530
5671.94, 0.0887740
5678.15, 0.0884170
5684.38, 0.0880000
5690.62, 0.0878210
5696.87, 0.0872850
5703.14, 0.0871070
5709.42, 0.0871660
5715.72, 0.0866900
5722.03, 0.0860350
5728.35, 0.0853800
5734.69, 0.0847250
5741.03, 0.0842490
5747.4, 0.0837130
5753.78, 0.0828790
5760.17, 0.0825820
5766.58, 0.0822840
5773.0, 0.0812120
5779.44, 0.0804980
5785.88, 0.0798430
5792.35, 0.0791880
5798.83, 0.0787120
5805.32, 0.0781760
5811.83, 0.0777000
5818.35, 0.0777590
5824.89, 0.0774020
5831.45, 0.0766870
5838.01, 0.0759730
5844.59, 0.0754370
5851.19, 0.0751990
5857.8, 0.0750200
5864.43, 0.0748420
5871.07, 0.0745440
5877.73, 0.0749610
5884.4, 0.0747820
5891.09, 0.0743060
5897.79, 0.0741870
5904.5, 0.0734720
5911.23, 0.0732940
5917.98, 0.0733530
5924.75, 0.0732940
5931.53, 0.0735910
5938.32, 0.0737100
5945.13, 0.0731150
5951.96, 0.0728770
5958.8, 0.0726980
5965.65, 0.0727580
5972.53, 0.0724000
5979.42, 0.0720430
5986.32, 0.0719240
5993.24, 0.0713880
6000.18, 0.0707330
6007.13, 0.0701980
6014.1, 0.0696020
6021.08, 0.0687090
6028.09, 0.0676970
6035.1, 0.0668630
6042.14, 0.0665660
6049.19, 0.0659110
6056.25, 0.0641240
6063.34, 0.0630530
6070.44, 0.0623980
6077.55, 0.0614450
6084.69, 0.0603140
6091.84, 0.0596590
6099.0, 0.0591830
6106.19, 0.0588850
6113.39, 0.0588250
6120.61, 0.0581700
6127.84, 0.0575750
6135.09, 0.0573960
6142.36, 0.0572770
6149.65, 0.0571580
6156.95, 0.0572770
6164.27, 0.0572180
6171.61, 0.0570390
6178.97, 0.0572770
6186.34, 0.0574560
6193.73, 0.0572770
6201.14, 0.0572770
6208.57, 0.0574560
6216.01, 0.0576350
6223.47, 0.0578730
6230.95, 0.0582300
6238.45, 0.0586470
6245.97, 0.0590040
6253.5, 0.0593020
6261.06, 0.0597780
6268.63, 0.0603140
6276.21, 0.0609090
6283.82, 0.0615640
6291.45, 0.0622790
6299.1, 0.0630530
6306.76, 0.0638270
6314.44, 0.0647790
6322.14, 0.0657320
6329.86, 0.0666850
6337.6, 0.0680540
6345.35, 0.0695430
6353.13, 0.0704950
6360.92, 0.0716260
6368.74, 0.0730550
6376.57, 0.0740080
6384.43, 0.0747820
6392.3, 0.0756160
6400.19, 0.0766280
6408.1, 0.0782950
6416.03, 0.0794260
6423.98, 0.0793070
6431.95, 0.0797240
6439.94, 0.0800810
6447.95, 0.0804380
6455.98, 0.0809150
6464.03, 0.0812720
6472.1, 0.0818670
6480.19, 0.0825220
6488.31, 0.0831770
6496.44, 0.0830580
6504.59, 0.0822840
6512.76, 0.0821050
6520.95, 0.0821650
6529.16, 0.0817480
6537.4, 0.0813910
6545.65, 0.0811530
6553.92, 0.0808550
6562.22, 0.0805570
6570.54, 0.0804380
6578.88, 0.0797240
6587.23, 0.0789500
6595.61, 0.0782950
6604.02, 0.0775800
6612.44, 0.0769260
6620.89, 0.0763900
6629.35, 0.0763900
6637.84, 0.0760320
6646.35, 0.0746030
6654.88, 0.0735320
6663.44, 0.0729960
6672.01, 0.0726390
6680.61, 0.0721620
6689.23, 0.0714480
6697.88, 0.0709720
6706.54, 0.0707930
6715.23, 0.0703760
6723.94, 0.0697810
6732.67, 0.0691850
6741.42, 0.0687090
6750.2, 0.0683520
6759.0, 0.0679350
6767.82, 0.0675780
6776.67, 0.0672800
6785.54, 0.0670420
6794.44, 0.0663870
6803.35, 0.0655530
6812.29, 0.0651370
6821.26, 0.0648390
6830.24, 0.0644220
6839.25, 0.0638270
6848.29, 0.0636480
6857.35, 0.0638860
6866.43, 0.0637080
6875.54, 0.0628740
6884.67, 0.0623380
6893.82, 0.0620410
6903.0, 0.0619210
6912.2, 0.0615640
6921.43, 0.0612070
6930.69, 0.0609090
6939.96, 0.0606710
6949.27, 0.0604930
6958.59, 0.0603730
6967.95, 0.0598970
6977.33, 0.0593610
6986.73, 0.0590040
6996.16, 0.0585870
7005.61, 0.0581110
7015.09, 0.0576940
7024.6, 0.0572180
7034.13, 0.0568010
7043.69, 0.0564440
7053.27, 0.0556100
7062.88, 0.0547770
7072.52, 0.0540620
7082.18, 0.0533480
7091.87, 0.0528710
7101.58, 0.0524550
7111.32, 0.0520380
7121.09, 0.0515620
7130.88, 0.0508470
7140.71, 0.0503710
7150.56, 0.0500130
7160.43, 0.0493590
7170.33, 0.0488230
7180.27, 0.0482270
7190.23, 0.0476910
7200.21, 0.0471560
7210.23, 0.0466200
7220.27, 0.0459050
7230.34, 0.0451910
7240.44, 0.0445360
7250.56, 0.0439400
7260.72, 0.0434050
7270.9, 0.0427500
7281.12, 0.0420350
7291.36, 0.0413800
7301.63, 0.0406660
7311.93, 0.0400110
7322.25, 0.0395340
7332.61, 0.0389990
7343.0, 0.0384030
7353.41, 0.0376890
7363.86, 0.0370930
7374.33, 0.0364980
7384.83, 0.0359620
7395.37, 0.0354860
7405.93, 0.0350090
7416.53, 0.0345330
7427.15, 0.0339970
7437.81, 0.0335210
7448.5, 0.0332230
7459.22, 0.0329260
7469.96, 0.0325090
7480.74, 0.0321520
7491.55, 0.0318540
7502.39, 0.0315560
7513.27, 0.0311990
7524.17, 0.0309610
7535.11, 0.0307230
7546.08, 0.0303650
7557.08, 0.0301270
7568.11, 0.0298290
7579.17, 0.0294720
7590.27, 0.0292940
7601.4, 0.0291150
7612.56, 0.0287580
7623.76, 0.0284600
7634.98, 0.0281620
7646.24, 0.0279240
7657.54, 0.0275670
7668.87, 0.0272100
7680.23, 0.0269120
7691.62, 0.0265550
7703.05, 0.0261980
7714.51, 0.0258400
7726.01, 0.0253040
7737.54, 0.0249470
7749.11, 0.0246500
7760.71, 0.0243520
7772.35, 0.0239350
7784.02, 0.0235780
7795.72, 0.0232210
7807.46, 0.0228630
7819.23, 0.0226250
7831.04, 0.0221490
7842.89, 0.0216730
7854.77, 0.0212560
7866.69, 0.0208980
7878.65, 0.0204220
7890.64, 0.0199460
7902.67, 0.0195290
7914.74, 0.0190530
7926.84, 0.0185170
7938.98, 0.0179220
7951.16, 0.0176240
7963.37, 0.0171470
7975.62, 0.0164930
7987.91, 0.0159570
8000.24, 0.0154800
8012.6, 0.0148250
8025.01, 0.0144090
8037.45, 0.0139320
8049.93, 0.0134560
8062.45, 0.0130390
8075.01, 0.0125630
8087.61, 0.0121460
8100.24, 0.0114320
8112.91, 0.0108360
8125.63, 0.0104190
8138.39, 0.00994300
8151.18, 0.00946700
8164.02, 0.00881200
8176.9, 0.00839500
8189.81, 0.00803800
8202.77, 0.00774000
8215.77, 0.00738300
8228.82, 0.00696600
8241.9, 0.00678800
8255.02, 0.00672800
8268.19, 0.00666800
8281.39, 0.00666800
8294.65, 0.00672800
8307.94, 0.00672800
8321.28, 0.00678800
8334.66, 0.00696600
8348.08, 0.00696600
8361.54, 0.00690700
8375.05, 0.00690700
8388.6, 0.00702600
8402.2, 0.00720400
8415.84, 0.00744200
8429.52, 0.00768100
8443.25, 0.00791900
8457.02, 0.00827600
8470.84, 0.00857400
8484.7, 0.00893100
8498.61, 0.00946700
8512.57, 0.0101810
8526.57, 0.0109550
8540.62, 0.0119080
8554.71, 0.0130990
8568.85, 0.0142900
8583.04, 0.0157190
8597.27, 0.0171470
8611.55, 0.0186960
8625.88, 0.0203630
8640.26, 0.0219110
8654.68, 0.0231010
8669.16, 0.0242920
8683.68, 0.0252450
8698.25, 0.0261380
8712.87, 0.0270310
8727.53, 0.0281620
8742.25, 0.0293530
8757.02, 0.0306630
8771.83, 0.0319130
8786.7, 0.0333420
8801.62, 0.0350690
8816.59, 0.0366770
8831.61, 0.0382250
8846.68, 0.0400110
8861.8, 0.0419760
8876.97, 0.0440000
8892.2, 0.0467980
8907.48, 0.0503710
8922.81, 0.0541810
8938.2, 0.0581110
8953.63, 0.0623380
8969.13, 0.0669230
8984.67, 0.0718650
9000.27, 0.0769850
9015.92, 0.0819270
9031.63, 0.0865710
9047.39, 0.0909770
9063.21, 0.0954420
9079.08, 0.100682
9095.01, 0.106398
9111.0, 0.112471
9127.04, 0.118603
9143.13, 0.124557
9159.28, 0.129678
9175.49, 0.134143
9191.76, 0.137835
9208.09, 0.141169
9224.47, 0.144682
9240.92, 0.149386
9257.42, 0.154982
9273.98, 0.161055
9290.6, 0.166890
9307.28, 0.171892
9324.02, 0.175940
9340.82, 0.180108
9357.68, 0.184633
9374.6, 0.190706
9391.58, 0.198982
9408.62, 0.210176
9425.73, 0.224227
9442.9, 0.240541
9460.13, 0.257748
9477.42, 0.273645
9494.78, 0.286208
9512.2, 0.295199
9529.69, 0.300200
9547.24, 0.302105
9564.86, 0.301391
9582.54, 0.298652
9600.28, 0.294127
9618.1, 0.287875
9635.97, 0.279837
9653.92, 0.270966
9671.93, 0.261916
9690.01, 0.253640
9708.16, 0.246138
9726.37, 0.239886
9744.65, 0.235421
9763.0, 0.232384
9781.43, 0.229645
9799.92, 0.226371
9818.48, 0.222084
9837.1, 0.217618
9855.8, 0.213034
9874.58, 0.208568
9893.42, 0.203626
9912.34, 0.198744
9931.33, 0.194457
9950.39, 0.190468
9969.52, 0.186419
9988.74, 0.182728
10008.0, 0.179632
10027.4, 0.177250
10046.8, 0.175524
10066.3, 0.174452
10085.9, 0.173559
10105.6, 0.172547
10125.3, 0.170463
10145.1, 0.167307
10165.0, 0.162842
10185.0, 0.157721
10205.0, 0.152958
10225.2, 0.149088
10245.4, 0.145694
10265.7, 0.142717
10286.0, 0.140038
10306.5, 0.137656
10327.0, 0.135215
10347.6, 0.132536
10368.3, 0.129618
10389.1, 0.126582
10409.9, 0.123605
10430.9, 0.120330
10451.9, 0.116817
10473.0, 0.113543
10494.2, 0.110149
10515.5, 0.106398
10536.9, 0.102587
10558.4, 0.0985980
10579.9, 0.0946680
10601.5, 0.0906200
10623.3, 0.0868090
10645.1, 0.0834750
10667.0, 0.0802000
10689.0, 0.0772830
10711.1, 0.0746030
10733.2, 0.0724000
10755.5, 0.0713880
10777.9, 0.0710310
10800.3, 0.0710910
10822.9, 0.0710910
10845.5, 0.0706740
10868.2, 0.0700190
10891.1, 0.0691260
10914.0, 0.0678160
10937.0, 0.0662080
10960.2, 0.0646010
10983.4, 0.0628740
11006.7, 0.0614450
11030.1, 0.0603140
11053.6, 0.0593610
11077.3, 0.0582900
11101.0, 0.0575750
11124.8, 0.0567410
11148.7, 0.0557890
11172.7, 0.0550150
11196.9, 0.0541220
11221.1, 0.0530500
11245.4, 0.0518000
11269.9, 0.0506680
11294.4, 0.0498940
11319.1, 0.0488230
11343.9, 0.0476910
11368.8, 0.0468580
11393.7, 0.0460840
11418.8, 0.0448340
11444.0, 0.0437620
11469.4, 0.0432850
11494.8, 0.0425710
11520.3, 0.0416180
11546.0, 0.0408440
11571.8, 0.0401300
11597.7, 0.0395340
11623.7, 0.0387600
11649.8, 0.0379860
11676.0, 0.0372720
11702.4, 0.0363790
11728.9, 0.0356050
11755.5, 0.0350690
11782.2, 0.0345330
11809.0, 0.0340570
11836.0, 0.0337590
11863.0, 0.0333420
11890.3, 0.0328060
11917.6, 0.0321520
11945.0, 0.0311990
11972.6, 0.0306630
12000.4, 0.0301270
12028.2, 0.0293530
12056.2, 0.0288770
12084.3, 0.0286390
12112.5, 0.0280430
12140.9, 0.0270310
12169.4, 0.0265550
12198.0, 0.0261380
12226.8, 0.0257210
12255.7, 0.0252450
12284.7, 0.0247090
12313.9, 0.0244710
12343.2, 0.0241140
12372.7, 0.0235180
12402.3, 0.0229230
12432.0, 0.0222080
12461.9, 0.0218510
12491.9, 0.0212560
12522.1, 0.0206010
12552.4, 0.0203030
12582.9, 0.0198860
12613.5, 0.0189930
12644.3, 0.0182190
12675.2, 0.0176830
12706.3, 0.0176240
12737.5, 0.0169090
12768.9, 0.0161950
12800.4, 0.0160760
12832.1, 0.0160160
12863.9, 0.0157780
12895.9, 0.0160760
12928.1, 0.0167900
12960.4, 0.0177430
12992.9, 0.0188740
13025.5, 0.0200650
13058.3, 0.0209580
13091.3, 0.0217320
13124.4, 0.0218510
13157.8, 0.0211370
13191.2, 0.0200650
13224.9, 0.0191120
13258.7, 0.0181600
13292.7, 0.0172670
13326.9, 0.0165520
13361.2, 0.0161950
13395.7, 0.0161350
13430.4, 0.0161950
13465.3, 0.0160160
13500.4, 0.0160160
13535.7, 0.0162540
13571.1, 0.0165520
13606.7, 0.0169690
13642.5, 0.0178020
13678.5, 0.0188150
13714.7, 0.0195890
13751.1, 0.0207200
13787.6, 0.0223870
13824.4, 0.0238160
13861.4, 0.0253640
13898.5, 0.0270310
13935.9, 0.0287580
13973.5, 0.0311990
14011.2, 0.0337590
14049.2, 0.0361410
14087.4, 0.0387010
14125.8, 0.0413210
14164.3, 0.0443570
14203.2, 0.0475130
14242.2, 0.0512640
14281.4, 0.0552530
14320.9, 0.0601950
14360.5, 0.0668040
14400.4, 0.0749010
14440.5, 0.0837730
14480.9, 0.0920490
14521.4, 0.0993720
14562.2, 0.106160
14603.3, 0.111756
14644.5, 0.115865
14686.0, 0.119318
14727.7, 0.122176
14769.7, 0.123724
14811.9, 0.124438
14854.3, 0.124260
14897.0, 0.122771
14939.9, 0.120628
14983.1, 0.117889
15026.5, 0.115448
15070.2, 0.113364
15114.2, 0.111220
15158.3, 0.109911
15202.8, 0.109553
15247.5, 0.109196
15292.5, 0.108541
15337.7, 0.107827
15383.2, 0.106695
15429.0, 0.104850
15475.1, 0.103242
15521.4, 0.101873
15568.0, 0.100206
15614.9, 0.0981810
15662.1, 0.0965740
15709.6, 0.0953230
15757.3, 0.0941330
15805.4, 0.0934180
15853.7, 0.0925250
15902.3, 0.0913340
15951.2, 0.0897270
16000.5, 0.0882980
16050.0, 0.0868090
16099.8, 0.0852610
16150.0, 0.0829990
16200.5, 0.0808550
16251.3, 0.0784140
16302.4, 0.0751390
16353.8, 0.0720430
16405.5, 0.0694830
16457.6, 0.0668630
16510.0, 0.0643630
16562.8, 0.0622190
16615.9, 0.0598380
16669.3, 0.0575160
16723.1, 0.0553130
16777.2, 0.0537650
16831.7, 0.0526930
16886.5, 0.0519780
16941.7, 0.0513230
16997.2, 0.0501330
17053.1, 0.0494180
17109.4, 0.0491800
17166.1, 0.0485850
17223.1, 0.0483460
17280.5, 0.0486440
17338.3, 0.0486440
17396.5, 0.0487040
17455.1, 0.0489420
17514.0, 0.0499540
17573.4, 0.0512040
17633.2, 0.0528120
17693.4, 0.0539430
17754.0, 0.0536450
17815.0, 0.0532880
17876.4, 0.0537050
17938.3, 0.0526930
18000.5, 0.0509660
18063.3, 0.0506090
18126.4, 0.0513230
18190.0, 0.0529310
18254.1, 0.0544790
18318.6, 0.0563840
18383.5, 0.0602540
18449.0, 0.0637670
18514.9, 0.0681140
18581.2, 0.0744840
18648.0, 0.0810340
18715.4, 0.0888330
18783.2, 0.0984190
18851.5, 0.109137
18920.3, 0.121164
18989.6, 0.132953
19059.4, 0.144861
19129.7, 0.158019
19200.6, 0.172308
19272.0, 0.187312
19343.9, 0.200530
19416.3, 0.208866
19489.3, 0.215415
19562.8, 0.222322
19637.0, 0.228038
19711.6, 0.232444
19786.8, 0.235421
19862.6, 0.239588
19939.0, 0.244947
20016.0, 0.251318
20093.6, 0.257569
20171.8, 0.264119
20250.6, 0.270549
20330.0, 0.274836
20410.0, 0.276503
20490.7, 0.278944
20572.0, 0.281624
20654.0, 0.282814
20736.6, 0.282933
20819.9, 0.284779
20903.8, 0.286030
20988.5, 0.286923
21073.8, 0.287994
21159.8, 0.289126
21246.5, 0.289245
21334.0, 0.289423
21422.1, 0.287220
21511.0, 0.283231
21600.7, 0.281028
21691.0, 0.279063
21782.1, 0.276205
21874.0, 0.274181
21966.7, 0.271085
22060.2, 0.266917
22154.5, 0.260844
22249.6, 0.252925
22345.5, 0.245007
22442.2, 0.237802
22539.8, 0.230896
22638.2, 0.225775
22737.5, 0.219881
22837.7, 0.213867
22938.7, 0.207080
23040.7, 0.198744
23143.5, 0.191540
23247.3, 0.186896
23352.1, 0.179870
23457.7, 0.173082
23564.4, 0.169391
23672.0, 0.164449
23780.5, 0.159269
23890.1, 0.157542
24000.7, 0.156411
24112.3, 0.153375
24225.0, 0.153256
24338.7, 0.153970
24453.5, 0.153791
24569.4, 0.152363
24686.4, 0.153613
24804.5, 0.154089
24923.8, 0.154208
