Database of Origin, USGS Spectral Database
Sample Description, See USGS database for additional info
Date Added,2016-08-03 21:25:29.308391

Data ID,USGS_cli23          
Sample ID, clinozoisite_hs299.5965
Mineral Name, clinozoisite
Material Class,Tectosilicate

Wavelength
1592.67, 0.531229
1593.16, 0.531591
1593.65, 0.531891
1594.14, 0.532373
1594.63, 0.532975
1595.12, 0.533697
1595.61, 0.534599
1596.11, 0.535682
1596.6, 0.535983
1597.09, 0.536766
1597.58, 0.537307
1598.08, 0.537608
1598.57, 0.538691
1599.06, 0.539774
1599.55, 0.539835
1600.05, 0.539714
1600.54, 0.540316
1601.04, 0.540978
1601.53, 0.541640
1602.03, 0.541881
1602.52, 0.542422
1603.02, 0.543626
1603.51, 0.544167
1604.01, 0.544709
1604.5, 0.545551
1605.0, 0.546273
1605.5, 0.546273
1606.0, 0.546815
1606.49, 0.547357
1606.99, 0.548079
1607.49, 0.548560
1607.99, 0.548861
1608.49, 0.549282
1608.99, 0.550125
1609.49, 0.550546
1609.99, 0.551268
1610.49, 0.551749
1610.99, 0.551930
1611.49, 0.552231
1611.99, 0.553133
1612.49, 0.553795
1612.99, 0.554337
1613.49, 0.554578
1614.0, 0.555300
1614.5, 0.555962
1615.0, 0.556262
1615.51, 0.556864
1616.01, 0.557406
1616.51, 0.557827
1617.02, 0.558308
1617.52, 0.559392
1618.03, 0.560174
1618.53, 0.560054
1619.04, 0.560776
1619.54, 0.561197
1620.05, 0.561859
1620.55, 0.562521
1621.06, 0.562882
1621.57, 0.562822
1622.08, 0.563062
1622.58, 0.564266
1623.09, 0.565168
1623.6, 0.564928
1624.11, 0.565108
1624.62, 0.565770
1625.13, 0.566312
1625.64, 0.566553
1626.15, 0.566974
1626.66, 0.567335
1627.17, 0.568117
1627.68, 0.568538
1628.19, 0.569441
1628.7, 0.569983
1629.21, 0.570524
1629.72, 0.570705
1630.24, 0.570644
1630.75, 0.571367
1631.26, 0.572089
1631.78, 0.572329
1632.29, 0.572390
1632.8, 0.572811
1633.32, 0.573352
1633.83, 0.573774
1634.35, 0.574436
1634.86, 0.574736
1635.38, 0.575459
1635.9, 0.576481
1636.41, 0.576903
1636.93, 0.576481
1637.45, 0.576662
1637.96, 0.577083
1638.48, 0.577805
1639.0, 0.578347
1639.52, 0.578828
1640.04, 0.579129
1640.56, 0.579189
1641.08, 0.579851
1641.59, 0.580754
1642.11, 0.580874
1642.63, 0.581476
1643.16, 0.581897
1643.68, 0.582559
1644.2, 0.582800
1644.72, 0.583041
1645.24, 0.583703
1645.76, 0.583642
1646.29, 0.584003
1646.81, 0.584605
1647.33, 0.584665
1647.86, 0.585087
1648.38, 0.585989
1648.9, 0.586772
1649.43, 0.587313
1649.95, 0.587674
1650.48, 0.587433
1651.0, 0.587494
1651.53, 0.587855
1652.06, 0.588396
1652.58, 0.588878
1653.11, 0.589600
1653.64, 0.590201
1654.17, 0.590563
1654.69, 0.590743
1655.22, 0.590563
1655.75, 0.590924
1656.28, 0.591345
1656.81, 0.591706
1657.34, 0.592187
1657.87, 0.592729
1658.4, 0.593090
1658.93, 0.593632
1659.46, 0.594655
1659.99, 0.595316
1660.52, 0.595196
1661.05, 0.594895
1661.59, 0.595076
1662.12, 0.595437
1662.65, 0.596219
1663.19, 0.596761
1663.72, 0.596700
1664.26, 0.597001
1664.79, 0.597543
1665.32, 0.598024
1665.86, 0.598265
1666.39, 0.598686
1666.93, 0.599168
1667.47, 0.599408
1668.0, 0.599950
1668.54, 0.599950
1669.08, 0.599950
1669.61, 0.600371
1670.15, 0.601334
1670.69, 0.601575
1671.23, 0.601575
1671.77, 0.601755
1672.31, 0.602537
1672.85, 0.602778
1673.39, 0.603500
1673.93, 0.604162
1674.47, 0.604042
1675.01, 0.603801
1675.55, 0.604283
1676.09, 0.604764
1676.64, 0.605486
1677.18, 0.605667
1677.72, 0.605787
1678.26, 0.606268
1678.81, 0.606930
1679.35, 0.606810
1679.89, 0.606750
1680.44, 0.607532
1680.98, 0.607953
1681.53, 0.607893
1682.07, 0.608254
1682.62, 0.608856
1683.17, 0.609036
1683.71, 0.609578
1684.26, 0.610240
1684.81, 0.609999
1685.36, 0.610300
1685.9, 0.611203
1686.45, 0.611805
1687.0, 0.611624
1687.55, 0.611564
1688.1, 0.611564
1688.65, 0.611805
1689.2, 0.611925
1689.75, 0.613008
1690.3, 0.614332
1690.85, 0.615295
1691.41, 0.614753
1691.96, 0.614452
1692.51, 0.614452
1693.06, 0.614753
1693.61, 0.615114
1694.17, 0.615716
1694.72, 0.616017
1695.28, 0.616137
1695.83, 0.616318
1696.39, 0.616558
1696.94, 0.616859
1697.5, 0.617581
1698.05, 0.617942
1698.61, 0.618003
1699.17, 0.618364
1699.72, 0.619146
1700.28, 0.619507
1700.84, 0.619447
1701.4, 0.619507
1701.95, 0.619627
1702.51, 0.620169
1703.07, 0.621011
1703.63, 0.621372
1704.19, 0.621854
1704.75, 0.621974
1705.31, 0.621794
1705.88, 0.622034
1706.44, 0.622576
1707.0, 0.622516
1707.56, 0.623118
1708.12, 0.623719
1708.69, 0.624140
1709.25, 0.624321
1709.81, 0.624381
1710.38, 0.624321
1710.94, 0.624441
1711.51, 0.624863
1712.07, 0.625284
1712.64, 0.625404
1713.2, 0.626006
1713.77, 0.626367
1714.34, 0.626548
1714.9, 0.626728
1715.47, 0.627029
1716.04, 0.627209
1716.61, 0.627691
1717.18, 0.628052
1717.74, 0.627932
1718.31, 0.627932
1718.88, 0.628413
1719.45, 0.629015
1720.02, 0.629255
1720.59, 0.629436
1721.17, 0.630218
1721.74, 0.630278
1722.31, 0.630399
1722.88, 0.630399
1723.45, 0.630579
1724.03, 0.631001
1724.6, 0.631482
1725.18, 0.631482
1725.75, 0.631662
1726.33, 0.632024
1726.9, 0.632505
1727.48, 0.632866
1728.05, 0.633227
1728.63, 0.633167
1729.2, 0.633468
1729.78, 0.633528
1730.36, 0.633648
1730.94, 0.633829
1731.51, 0.634431
1732.09, 0.634972
1732.67, 0.634792
1733.25, 0.634972
1733.83, 0.635273
1734.41, 0.635694
1734.99, 0.635875
1735.57, 0.635634
1736.15, 0.636236
1736.73, 0.636898
1737.32, 0.637199
1737.9, 0.637319
1738.48, 0.637560
1739.07, 0.637379
1739.65, 0.637921
1740.23, 0.638763
1740.82, 0.638944
1741.4, 0.639064
1741.99, 0.639124
1742.57, 0.639245
1743.16, 0.639545
1743.74, 0.639305
1744.33, 0.639606
1744.92, 0.639907
1745.51, 0.640207
1746.09, 0.640930
1746.68, 0.641291
1747.27, 0.641591
1747.86, 0.642013
1748.45, 0.642133
1749.04, 0.642253
1749.63, 0.642434
1750.22, 0.642614
1750.81, 0.642614
1751.4, 0.642915
1751.99, 0.643397
1752.59, 0.644059
1753.18, 0.643878
1753.77, 0.643517
1754.37, 0.643577
1754.96, 0.644420
1755.56, 0.644600
1756.15, 0.645021
1756.74, 0.645262
1757.34, 0.645082
1757.94, 0.645142
1758.53, 0.645503
1759.13, 0.645503
1759.73, 0.646165
1760.32, 0.646646
1760.92, 0.646706
1761.52, 0.646887
1762.12, 0.647128
1762.72, 0.647368
1763.32, 0.647850
1763.92, 0.647729
1764.52, 0.647549
1765.12, 0.648211
1765.72, 0.648873
1766.32, 0.648993
1766.92, 0.649173
1767.53, 0.649354
1768.13, 0.649655
1768.73, 0.649715
1769.34, 0.649956
1769.94, 0.650377
1770.55, 0.651039
1771.15, 0.650979
1771.76, 0.651039
1772.36, 0.651340
1772.97, 0.651340
1773.57, 0.651340
1774.18, 0.651520
1774.79, 0.651761
1775.4, 0.651881
1776.0, 0.652002
1776.61, 0.652182
1777.22, 0.652363
1777.83, 0.652784
1778.44, 0.653205
1779.05, 0.653446
1779.66, 0.653446
1780.27, 0.653627
1780.88, 0.653927
1781.5, 0.654349
1782.11, 0.654469
1782.72, 0.654649
1783.33, 0.654710
1783.95, 0.654950
1784.56, 0.654950
1785.18, 0.655372
1785.79, 0.655733
1786.41, 0.655733
1787.02, 0.655552
1787.64, 0.656033
1788.26, 0.656334
1788.87, 0.656154
1789.49, 0.656094
1790.11, 0.656455
1790.73, 0.656395
1791.35, 0.656635
1791.96, 0.657177
1792.58, 0.657538
1793.21, 0.657718
1793.83, 0.657899
1794.45, 0.658019
1795.07, 0.658380
1795.69, 0.658561
1796.31, 0.658681
1796.93, 0.658862
1797.56, 0.659102
1798.18, 0.659343
1798.8, 0.659283
1799.43, 0.658982
1800.05, 0.659283
1800.68, 0.659464
1801.3, 0.659825
1801.93, 0.660186
1802.56, 0.660065
1803.18, 0.660065
1803.81, 0.660487
1804.44, 0.660667
1805.07, 0.660607
1805.7, 0.660787
1806.33, 0.661389
1806.95, 0.661329
1807.58, 0.661148
1808.22, 0.661329
1808.85, 0.661449
1809.48, 0.661449
1810.11, 0.661750
1810.74, 0.661991
1811.38, 0.661871
1812.01, 0.661991
1812.64, 0.662352
1813.28, 0.662412
1813.91, 0.662533
1814.55, 0.662472
1815.18, 0.662472
1815.82, 0.662472
1816.45, 0.662171
1817.09, 0.661931
1817.73, 0.661991
1818.36, 0.661690
1819.0, 0.661570
1819.64, 0.661449
1820.28, 0.661570
1820.92, 0.661630
1821.56, 0.661570
1822.2, 0.660908
1822.84, 0.660366
1823.48, 0.660306
1824.12, 0.660125
1824.76, 0.660065
1825.41, 0.660125
1826.05, 0.660487
1826.69, 0.660366
1827.34, 0.660005
1827.98, 0.660186
1828.63, 0.660246
1829.27, 0.660246
1829.92, 0.660065
1830.56, 0.660547
1831.21, 0.661028
1831.86, 0.660968
1832.5, 0.661269
1833.15, 0.661509
1833.8, 0.662111
1834.45, 0.662894
1835.1, 0.663194
1835.75, 0.664278
1836.4, 0.664940
1837.05, 0.665000
1837.7, 0.665421
1838.35, 0.665421
1839.01, 0.665541
1839.66, 0.666504
1840.31, 0.666624
1840.96, 0.666925
1841.62, 0.668249
1842.27, 0.668490
1842.93, 0.667948
1843.58, 0.668129
1844.24, 0.668370
1844.9, 0.668430
1845.55, 0.668550
1846.21, 0.669453
1846.87, 0.670897
1847.53, 0.671438
1848.18, 0.671499
1848.84, 0.671138
1849.5, 0.670536
1850.16, 0.670656
1850.82, 0.670897
1851.48, 0.671017
1852.14, 0.671860
1852.81, 0.672943
1853.47, 0.673845
1854.13, 0.674146
1854.8, 0.673304
1855.46, 0.673003
1856.12, 0.673906
1856.79, 0.674568
1857.45, 0.673845
1858.12, 0.673244
1858.79, 0.673424
1859.45, 0.674748
1860.12, 0.674989
1860.79, 0.674387
1861.46, 0.674146
1862.12, 0.674146
1862.79, 0.674267
1863.46, 0.674507
1864.13, 0.674989
1864.8, 0.675109
1865.48, 0.674808
1866.15, 0.674748
1866.82, 0.675169
1867.49, 0.676433
1868.16, 0.676553
1868.84, 0.676072
1869.51, 0.676132
1870.19, 0.676794
1870.86, 0.677697
1871.54, 0.676914
1872.21, 0.676132
1872.89, 0.677155
1873.56, 0.677095
1874.24, 0.676313
1874.92, 0.675952
1875.6, 0.676192
1876.28, 0.676373
1876.96, 0.676493
1877.64, 0.675771
1878.32, 0.675410
1879.0, 0.675350
1879.68, 0.675230
1880.36, 0.675350
1881.04, 0.675651
1881.73, 0.675470
1882.41, 0.675290
1883.09, 0.675530
1883.78, 0.676252
1884.46, 0.676433
1885.15, 0.675892
1885.83, 0.675711
1886.52, 0.676012
1887.21, 0.676252
1887.89, 0.676553
1888.58, 0.676674
1889.27, 0.676794
1889.96, 0.677396
1890.65, 0.677576
1891.34, 0.677396
1892.03, 0.677877
1892.72, 0.677877
1893.41, 0.677998
1894.1, 0.678238
1894.79, 0.677937
1895.49, 0.677697
1896.18, 0.677817
1896.87, 0.677998
1897.57, 0.678238
1898.26, 0.678539
1898.96, 0.679261
1899.65, 0.679923
1900.35, 0.679201
1901.05, 0.678539
1901.74, 0.678659
1902.44, 0.679442
1903.14, 0.679622
1903.84, 0.678659
1904.54, 0.678960
1905.24, 0.679743
1905.94, 0.679863
1906.64, 0.679983
1907.34, 0.679502
1908.04, 0.678900
1908.75, 0.679261
1909.45, 0.679382
1910.15, 0.679562
1910.86, 0.679983
1911.56, 0.680344
1912.27, 0.680224
1912.97, 0.680826
1913.68, 0.681608
1914.39, 0.681307
1915.09, 0.681127
1915.8, 0.681187
1916.51, 0.681187
1917.22, 0.681187
1917.93, 0.680946
1918.64, 0.681307
1919.35, 0.682210
1920.06, 0.682992
1920.77, 0.683413
1921.48, 0.682932
1922.19, 0.682631
1922.91, 0.682631
1923.62, 0.682751
1924.33, 0.682992
1925.05, 0.682992
1925.76, 0.683173
1926.48, 0.683113
1927.19, 0.683293
1927.91, 0.683654
1928.63, 0.684196
1929.35, 0.683955
1930.07, 0.683895
1930.78, 0.684196
1931.5, 0.684376
1932.22, 0.684256
1932.94, 0.684256
1933.66, 0.684557
1934.39, 0.684617
1935.11, 0.684376
1935.83, 0.684858
1936.55, 0.684918
1937.28, 0.684617
1938.0, 0.684436
1938.73, 0.684617
1939.45, 0.684677
1940.18, 0.684918
1940.9, 0.684677
1941.63, 0.684316
1942.36, 0.684075
1943.09, 0.683955
1943.81, 0.684015
1944.54, 0.684436
1945.27, 0.684436
1946.0, 0.684436
1946.73, 0.684436
1947.47, 0.684196
1948.2, 0.684075
1948.93, 0.684256
1949.66, 0.684376
1950.4, 0.684376
1951.13, 0.684316
1951.86, 0.684677
1952.6, 0.684677
1953.34, 0.684737
1954.07, 0.684677
1954.81, 0.685038
1955.55, 0.685158
1956.29, 0.685399
1957.02, 0.685760
1957.76, 0.686121
1958.5, 0.686302
1959.24, 0.686723
1959.98, 0.686964
1960.72, 0.686964
1961.47, 0.686964
1962.21, 0.687265
1962.95, 0.687566
1963.7, 0.687806
1964.44, 0.688047
1965.18, 0.688227
1965.93, 0.688408
1966.67, 0.688829
1967.42, 0.689010
1968.17, 0.689371
1968.92, 0.689431
1969.66, 0.689672
1970.41, 0.690093
1971.16, 0.690695
1971.91, 0.691056
1972.66, 0.691176
1973.41, 0.691357
1974.16, 0.691657
1974.92, 0.691778
1975.67, 0.692079
1976.42, 0.692380
1977.18, 0.692620
1977.93, 0.692680
1978.69, 0.692861
1979.44, 0.693041
1980.2, 0.693102
1980.95, 0.693403
1981.71, 0.693824
1982.47, 0.693764
1983.23, 0.693944
1983.99, 0.694305
1984.74, 0.694546
1985.51, 0.694426
1986.27, 0.694546
1987.03, 0.694546
1987.79, 0.694907
1988.55, 0.695388
1989.32, 0.695629
1990.08, 0.695509
1990.84, 0.695629
1991.61, 0.695509
1992.37, 0.695388
1993.14, 0.695629
1993.9, 0.695870
1994.67, 0.696050
1995.44, 0.696411
1996.21, 0.696471
1996.98, 0.696532
1997.75, 0.696532
1998.52, 0.696532
1999.29, 0.696893
2000.06, 0.697254
2000.83, 0.697374
2001.6, 0.697555
2002.38, 0.697735
2003.15, 0.697675
2003.93, 0.697735
2004.7, 0.698217
2005.48, 0.698036
2006.25, 0.698277
2007.03, 0.698698
2007.81, 0.698698
2008.58, 0.698939
2009.36, 0.699059
2010.14, 0.698999
2010.92, 0.699179
2011.7, 0.699420
2012.48, 0.699480
2013.26, 0.699601
2014.05, 0.699360
2014.83, 0.699420
2015.61, 0.699661
2016.4, 0.699781
2017.18, 0.699962
2017.97, 0.700142
2018.75, 0.700323
2019.54, 0.700202
2020.32, 0.700202
2021.11, 0.700383
2021.9, 0.700744
2022.69, 0.701105
2023.48, 0.701286
2024.27, 0.701105
2025.06, 0.701105
2025.85, 0.701406
2026.64, 0.701586
2027.44, 0.701586
2028.23, 0.701827
2029.02, 0.701767
2029.82, 0.701647
2030.61, 0.701947
2031.41, 0.702308
2032.2, 0.702248
2033.0, 0.702609
2033.8, 0.702850
2034.6, 0.702910
2035.4, 0.702970
2036.2, 0.703031
2037.0, 0.703091
2037.8, 0.703211
2038.6, 0.703271
2039.4, 0.703452
2040.2, 0.703572
2041.01, 0.703813
2041.81, 0.704174
2042.61, 0.704595
2043.42, 0.704716
2044.22, 0.704475
2045.03, 0.704595
2045.84, 0.705077
2046.65, 0.705197
2047.46, 0.705257
2048.26, 0.705317
2049.07, 0.705197
2049.88, 0.705137
2050.69, 0.705618
2051.51, 0.705919
2052.32, 0.705979
2053.13, 0.705739
2053.94, 0.705739
2054.76, 0.705859
2055.57, 0.705859
2056.39, 0.705859
2057.2, 0.706160
2058.02, 0.706461
2058.84, 0.706340
2059.66, 0.705919
2060.48, 0.706160
2061.29, 0.706280
2062.11, 0.706581
2062.94, 0.706641
2063.76, 0.706762
2064.58, 0.706822
2065.4, 0.706942
2066.22, 0.707123
2067.05, 0.707363
2067.87, 0.707303
2068.7, 0.707604
2069.52, 0.707604
2070.35, 0.707784
2071.18, 0.707845
2072.0, 0.707845
2072.83, 0.707604
2073.66, 0.707664
2074.49, 0.707784
2075.32, 0.707965
2076.15, 0.708326
2076.98, 0.708386
2077.82, 0.708145
2078.65, 0.708145
2079.48, 0.708446
2080.32, 0.708567
2081.15, 0.708446
2081.99, 0.708807
2082.83, 0.709048
2083.66, 0.709048
2084.5, 0.708807
2085.34, 0.708687
2086.18, 0.708747
2087.02, 0.708807
2087.86, 0.708988
2088.7, 0.709108
2089.54, 0.709229
2090.39, 0.709530
2091.23, 0.709289
2092.07, 0.708988
2092.92, 0.709108
2093.76, 0.709530
2094.61, 0.709469
2095.45, 0.709168
2096.3, 0.709289
2097.15, 0.709650
2098.0, 0.709770
2098.85, 0.709650
2099.7, 0.709710
2100.55, 0.710011
2101.4, 0.710252
2102.25, 0.710372
2103.1, 0.710131
2103.96, 0.710011
2104.81, 0.710131
2105.67, 0.710252
2106.52, 0.710252
2107.38, 0.710432
2108.24, 0.710432
2109.09, 0.710553
2109.95, 0.710613
2110.81, 0.710553
2111.67, 0.710553
2112.53, 0.710673
2113.39, 0.710853
2114.25, 0.710733
2115.12, 0.710673
2115.98, 0.710914
2116.84, 0.710974
2117.71, 0.711154
2118.58, 0.711034
2119.44, 0.711094
2120.31, 0.711455
2121.18, 0.711455
2122.04, 0.711214
2122.91, 0.711275
2123.78, 0.711395
2124.65, 0.711455
2125.52, 0.711335
2126.4, 0.711515
2127.27, 0.711455
2128.14, 0.711636
2129.02, 0.711816
2129.89, 0.712117
2130.77, 0.711937
2131.64, 0.711876
2132.52, 0.711937
2133.4, 0.711876
2134.27, 0.711937
2135.15, 0.712177
2136.03, 0.712237
2136.91, 0.712117
2137.79, 0.712237
2138.68, 0.712177
2139.56, 0.712057
2140.44, 0.712177
2141.33, 0.712117
2142.21, 0.712177
2143.1, 0.712298
2143.99, 0.712478
2144.87, 0.712418
2145.76, 0.712418
2146.65, 0.712599
2147.54, 0.712599
2148.43, 0.712599
2149.32, 0.712659
2150.21, 0.712659
2151.1, 0.712599
2151.99, 0.712478
2152.89, 0.712538
2153.78, 0.712659
2154.68, 0.712779
2155.57, 0.712538
2156.47, 0.712538
2157.37, 0.712478
2158.27, 0.712538
2159.16, 0.712538
2160.06, 0.712659
2160.96, 0.712538
2161.86, 0.712478
2162.77, 0.712418
2163.67, 0.712538
2164.57, 0.712418
2165.48, 0.712358
2166.38, 0.712177
2167.29, 0.711997
2168.2, 0.711816
2169.1, 0.711816
2170.01, 0.711816
2170.92, 0.711455
2171.83, 0.711275
2172.74, 0.711455
2173.65, 0.711395
2174.56, 0.711275
2175.47, 0.711275
2176.39, 0.711275
2177.3, 0.710733
2178.22, 0.710553
2179.13, 0.710613
2180.05, 0.710312
2180.96, 0.709830
2181.88, 0.709710
2182.8, 0.709409
2183.72, 0.709349
2184.64, 0.709289
2185.56, 0.709469
2186.48, 0.709168
2187.41, 0.708807
2188.33, 0.708807
2189.25, 0.708627
2190.18, 0.708206
2191.1, 0.707905
2192.03, 0.707905
2192.96, 0.707784
2193.89, 0.707363
2194.82, 0.707243
2195.74, 0.707303
2196.68, 0.707243
2197.61, 0.706822
2198.54, 0.706461
2199.47, 0.706160
2200.4, 0.706100
2201.34, 0.705678
2202.28, 0.705438
2203.21, 0.705257
2204.15, 0.705137
2205.08, 0.704956
2206.02, 0.704716
2206.96, 0.704475
2207.9, 0.704294
2208.84, 0.704234
2209.78, 0.704114
2210.73, 0.704054
2211.67, 0.704174
2212.61, 0.704234
2213.56, 0.703632
2214.5, 0.702970
2215.45, 0.702910
2216.4, 0.702910
2217.35, 0.702609
2218.3, 0.702188
2219.24, 0.701887
2220.2, 0.701466
2221.15, 0.700864
2222.1, 0.700202
2223.05, 0.699601
2224.0, 0.699119
2224.96, 0.698578
2225.91, 0.698036
2226.87, 0.697494
2227.83, 0.696532
2228.79, 0.695569
2229.74, 0.694666
2230.7, 0.693463
2231.66, 0.692079
2232.63, 0.690755
2233.59, 0.689491
2234.55, 0.687987
2235.51, 0.686121
2236.48, 0.683955
2237.44, 0.681488
2238.41, 0.678780
2239.38, 0.675892
2240.34, 0.672702
2241.31, 0.668851
2242.28, 0.665000
2243.25, 0.660908
2244.22, 0.656515
2245.19, 0.652062
2246.17, 0.647850
2247.14, 0.643577
2248.12, 0.639666
2249.09, 0.636416
2250.07, 0.633347
2251.04, 0.630700
2252.02, 0.628955
2253.0, 0.627871
2253.98, 0.627330
2254.96, 0.627270
2255.94, 0.627751
2256.92, 0.628413
2257.91, 0.629436
2258.89, 0.630940
2259.88, 0.632986
2260.86, 0.635213
2261.85, 0.637800
2262.83, 0.640328
2263.82, 0.642975
2264.81, 0.645503
2265.8, 0.648030
2266.79, 0.650558
2267.78, 0.652664
2268.78, 0.654168
2269.77, 0.655492
2270.76, 0.656756
2271.76, 0.657839
2272.75, 0.658802
2273.75, 0.659464
2274.75, 0.659764
2275.75, 0.659945
2276.75, 0.660065
2277.75, 0.659644
2278.75, 0.659043
2279.75, 0.658322
2280.75, 0.657600
2281.76, 0.656818
2282.76, 0.655616
2283.77, 0.655135
2284.77, 0.654594
2285.78, 0.652970
2286.79, 0.651287
2287.8, 0.650265
2288.81, 0.648581
2289.82, 0.646537
2290.83, 0.645094
2291.84, 0.643170
2292.86, 0.641065
2293.87, 0.639201
2294.89, 0.636857
2295.91, 0.634151
2296.92, 0.631746
2297.94, 0.630062
2298.96, 0.627898
2299.98, 0.625252
2301.0, 0.622667
2302.02, 0.619781
2303.04, 0.616534
2304.07, 0.613768
2305.09, 0.610942
2306.12, 0.607816
2307.15, 0.604629
2308.17, 0.601142
2309.2, 0.597594
2310.23, 0.594528
2311.26, 0.590920
2312.29, 0.587493
2313.32, 0.583945
2314.35, 0.579917
2315.39, 0.575828
2316.42, 0.571620
2317.46, 0.567952
2318.5, 0.564344
2319.53, 0.560075
2320.57, 0.555987
2321.61, 0.551838
2322.65, 0.547208
2323.69, 0.542579
2324.73, 0.537769
2325.78, 0.532778
2326.82, 0.527728
2327.86, 0.523038
2328.91, 0.517867
2329.96, 0.513117
2331.01, 0.508547
2332.05, 0.503797
2333.1, 0.499408
2334.15, 0.495380
2335.21, 0.490810
2336.26, 0.486661
2337.31, 0.483535
2338.36, 0.480889
2339.42, 0.478965
2340.48, 0.477161
2341.53, 0.475839
2342.59, 0.474997
2343.65, 0.474516
2344.71, 0.474756
2345.77, 0.475658
2346.83, 0.476680
2347.9, 0.478244
2348.96, 0.480589
2350.02, 0.483715
2351.09, 0.487202
2352.16, 0.490990
2353.23, 0.495259
2354.29, 0.500250
2355.36, 0.505481
2356.43, 0.512095
2357.51, 0.518949
2358.58, 0.526525
2359.65, 0.534221
2360.73, 0.541857
2361.8, 0.550034
2362.88, 0.559053
2363.96, 0.567651
2365.03, 0.576009
2366.11, 0.584306
2367.19, 0.592664
2368.27, 0.600420
2369.36, 0.607515
2370.44, 0.614189
2371.53, 0.621043
2372.61, 0.626876
2373.7, 0.632287
2374.78, 0.637097
2375.87, 0.641607
2376.96, 0.645815
2378.05, 0.649844
2379.14, 0.653451
2380.24, 0.656638
2381.33, 0.659885
2382.42, 0.663011
2383.52, 0.665477
2384.61, 0.667942
2385.71, 0.670106
2386.81, 0.672572
2387.91, 0.674676
2389.01, 0.676299
2390.11, 0.678163
2391.22, 0.679727
2392.32, 0.681170
2393.42, 0.682853
2394.53, 0.684236
2395.64, 0.685679
2396.74, 0.686821
2397.85, 0.688204
2398.96, 0.689106
2400.07, 0.690309
2401.18, 0.691571
2402.3, 0.692594
2403.41, 0.693195
2404.52, 0.694157
2405.64, 0.694938
2406.76, 0.695359
2407.88, 0.696261
2408.99, 0.697344
2410.11, 0.698005
2411.23, 0.698666
2412.36, 0.698787
2413.48, 0.699207
2414.6, 0.699508
2415.73, 0.700049
2416.85, 0.700590
2417.98, 0.700891
2419.11, 0.701372
2420.24, 0.701552
2421.37, 0.701432
2422.5, 0.702033
2423.64, 0.702334
2424.77, 0.702214
2425.9, 0.702334
2427.04, 0.702875
2428.18, 0.703236
2429.31, 0.702995
2430.45, 0.702935
2431.59, 0.703056
2432.73, 0.702755
2433.88, 0.702875
2435.02, 0.703176
2436.16, 0.703476
2437.31, 0.703416
2438.45, 0.703416
2439.6, 0.703356
2440.75, 0.703236
2441.9, 0.702755
2443.05, 0.702635
2444.2, 0.702635
2445.35, 0.702695
2446.51, 0.702033
2447.67, 0.701853
2448.82, 0.701853
2449.98, 0.701853
2451.14, 0.701432
2452.3, 0.701131
2453.46, 0.701011
2454.62, 0.700711
2455.78, 0.700230
2456.94, 0.700169
2458.11, 0.699809
2459.28, 0.699628
2460.44, 0.699207
2461.61, 0.699087
2462.78, 0.698486
2463.95, 0.698185
2465.12, 0.697885
2466.3, 0.697704
2467.47, 0.697464
2468.65, 0.697043
2469.82, 0.696622
2471.0, 0.696562
2472.18, 0.696382
2473.36, 0.696201
2474.54, 0.695480
2475.72, 0.694999
2476.9, 0.694397
2478.08, 0.694457
2479.27, 0.694277
2480.46, 0.693916
2481.64, 0.693435
2482.83, 0.693075
2484.02, 0.692594
2485.21, 0.692233
2486.4, 0.691812
2487.6, 0.691812
2488.79, 0.691331
2489.99, 0.690669
2491.18, 0.690429
2492.38, 0.690128
2493.58, 0.689888
2494.78, 0.689647
2495.98, 0.689046
2497.18, 0.688625
2498.39, 0.687844
2499.59, 0.687603
2500.8, 0.687723
2502.01, 0.687062
2503.21, 0.686100
2504.42, 0.685679
2505.63, 0.685499
2506.84, 0.684958
2508.06, 0.684236
2509.27, 0.683995
2510.49, 0.683394
2511.7, 0.682973
2512.92, 0.682552
2514.14, 0.682072
2515.36, 0.681651
2516.58, 0.681350
2517.8, 0.680809
2519.03, 0.680448
2520.25, 0.679666
2521.48, 0.679306
2522.7, 0.679185
2523.93, 0.679065
2525.16, 0.678584
2526.39, 0.678284
2527.62, 0.678163
2528.86, 0.677742
2530.09, 0.677742
2531.33, 0.678344
2532.56, 0.678344
2533.8, 0.677622
2535.04, 0.677803
2536.28, 0.678825
2537.52, 0.677502
2538.76, 0.676299
2540.01, 0.675939
2541.25, 0.676540
2542.5, 0.678103
2543.75, 0.678163
2544.99, 0.676961
2546.24, 0.676720
2547.49, 0.677562
2548.75, 0.676901
2550.0, 0.676540
2551.26, 0.678043
2552.51, 0.679185
2553.77, 0.677261
2555.03, 0.675277
2556.29, 0.675097
2557.55, 0.674736
2558.81, 0.675878
2560.08, 0.680508
2561.34, 0.684897
2562.61, 0.684777
2563.88, 0.683514
2565.14, 0.679967
2566.41, 0.676239
2567.68, 0.676720
2568.96, 0.681049
2570.23, 0.680628
2571.51, 0.677442
2572.78, 0.681951
2574.06, 0.682613
2575.34, 0.679606
2576.62, 0.681410
2577.9, 0.678885
2579.18, 0.676480
2580.47, 0.679486
2581.75, 0.680628
2583.04, 0.684537
2584.32, 0.686100
2585.61, 0.680448
2586.9, 0.682192
2588.2, 0.681771
2589.49, 0.678945
2590.78, 0.675758
2592.08, 0.676720
2593.37, 0.688264
2594.67, 0.703236
2595.97, 0.692233
2597.27, 0.677742
2598.57, 0.672632
2599.88, 0.672932
2601.18, 0.675037
2602.49, 0.676780
2603.79, 0.679245
2605.1, 0.683815
2606.41, 0.680809
2607.72, 0.675157
2609.03, 0.673534
2610.35, 0.671249
2611.66, 0.668543
2612.98, 0.668663
2614.3, 0.667401
2615.62, 0.672812
2616.94, 0.677863
2618.26, 0.671489
2619.58, 0.672632
2620.91, 0.672511
2622.23, 0.663492
2623.56, 0.660847
2624.89, 0.663072
2626.22, 0.669685
2627.55, 0.667220
2628.88, 0.666499
2630.21, 0.673413
2631.55, 0.668242
2632.89, 0.663132
2634.22, 0.662831
2635.56, 0.658863
2636.9, 0.657420
2638.25, 0.656638
2639.59, 0.656518
2640.93, 0.657119
2642.28, 0.657720
2643.63, 0.656458
2644.98, 0.658261
2646.33, 0.657841
2647.68, 0.654714
2649.03, 0.652910
2650.39, 0.653692
2651.74, 0.657059
2653.1, 0.656879
2654.46, 0.654173
2655.82, 0.653211
2657.18, 0.649543
2658.54, 0.650986
2659.9, 0.652008
2661.27, 0.649724
2662.64, 0.647198
2664.01, 0.652730
2665.38, 0.659885
2666.74, 0.658201
2668.12, 0.648641
2669.49, 0.651768
2670.87, 0.652790
2672.24, 0.636917
2673.62, 0.630423
2675.0, 0.631806
2676.38, 0.635233
2677.76, 0.632107
2679.15, 0.627477
2680.54, 0.618759
2681.92, 0.613708
2683.31, 0.612505
2684.7, 0.608898
2686.09, 0.605471
2687.48, 0.600540
2688.88, 0.595129
2690.27, 0.589477
2691.67, 0.585990
2693.07, 0.586711
2694.47, 0.582863
2695.87, 0.572461
2697.27, 0.562541
2698.67, 0.555927
2700.08, 0.553401
2701.49, 0.550696
2702.9, 0.545044
2704.31, 0.541196
2705.72, 0.539091
2707.13, 0.537949
2708.54, 0.539753
2709.96, 0.541737
2711.38, 0.538009
2712.8, 0.526525
2714.22, 0.519129
2715.64, 0.513177
2717.06, 0.507525
2718.49, 0.503497
2719.91, 0.504940
2721.34, 0.498145
2722.77, 0.489487
2724.2, 0.488886
2725.63, 0.482032
2727.07, 0.472051
2728.5, 0.465377
2729.94, 0.460506
2731.38, 0.456899
2732.82, 0.455576
2734.26, 0.457079
2735.7, 0.454374
2737.15, 0.451187
2738.59, 0.454674
2740.04, 0.456177
2741.49, 0.450165
2742.94, 0.441146
2744.39, 0.435434
2745.84, 0.432848
2747.3, 0.430864
2748.76, 0.429000
2750.21, 0.426896
2751.67, 0.425032
2753.14, 0.423529
2754.6, 0.426655
2756.06, 0.425212
2757.53, 0.416494
2759.0, 0.411383
2760.46, 0.409640
2761.94, 0.410421
2763.41, 0.408858
2764.88, 0.404890
2766.36, 0.403026
2767.83, 0.402004
2769.31, 0.400019
2770.79, 0.398637
2772.27, 0.395029
2773.76, 0.390760
2775.24, 0.388175
2776.73, 0.386611
2778.22, 0.384327
2779.71, 0.382102
2781.2, 0.380118
2782.69, 0.377232
2784.18, 0.374406
2785.68, 0.373684
2787.18, 0.372482
2788.68, 0.368032
2790.18, 0.363824
2791.68, 0.361238
2793.19, 0.359194
2794.69, 0.356548
2796.2, 0.353181
2797.71, 0.348431
2799.22, 0.342238
2800.73, 0.335384
2802.24, 0.329431
2803.76, 0.323118
2805.28, 0.317346
2806.8, 0.314400
2808.32, 0.314099
2809.84, 0.315302
2811.36, 0.317106
2812.89, 0.319090
2814.42, 0.321134
2815.94, 0.322156
2817.48, 0.323238
2819.01, 0.324140
2820.54, 0.323719
2822.08, 0.322156
2823.61, 0.320052
2825.15, 0.317707
2826.69, 0.315061
2828.23, 0.312235
2829.78, 0.308928
2831.32, 0.305682
2832.87, 0.302735
2834.42, 0.299308
2835.97, 0.295580
2837.52, 0.291973
2839.08, 0.288065
2840.63, 0.283916
2842.19, 0.279767
2843.75, 0.275799
2845.31, 0.272071
2846.87, 0.268463
2848.44, 0.265096
2850.0, 0.261188
2851.57, 0.257220
2853.14, 0.253733
2854.71, 0.250546
2856.28, 0.247059
2857.86, 0.243691
2859.43, 0.240685
2861.01, 0.237318
2862.59, 0.233951
2864.17, 0.231065
2865.76, 0.228179
2867.34, 0.225293
2868.93, 0.222287
2870.52, 0.219701
2872.11, 0.217176
2873.7, 0.214711
2875.29, 0.212245
2876.89, 0.209961
2878.49, 0.207796
2880.08, 0.205752
2881.69, 0.203527
2883.29, 0.201783
2884.89, 0.199980
2886.5, 0.198416
2888.11, 0.196853
2889.72, 0.195170
2891.33, 0.193727
2892.94, 0.192464
2894.56, 0.191201
2896.17, 0.190119
2897.79, 0.189097
2899.42, 0.188135
2901.04, 0.186872
2902.66, 0.185429
2904.29, 0.184227
2905.92, 0.183024
2907.55, 0.181641
2909.18, 0.180439
2910.81, 0.178936
2912.45, 0.177492
2914.08, 0.176170
2915.72, 0.174787
2917.36, 0.173043
2919.01, 0.171179
2920.65, 0.169375
2922.3, 0.167091
2923.94, 0.164505
2925.59, 0.161860
2927.25, 0.159094
2928.9, 0.155907
2930.56, 0.152480
2932.21, 0.149053
2933.87, 0.145325
2935.53, 0.141477
2937.2, 0.137749
2938.86, 0.134081
2940.53, 0.130354
2942.2, 0.126445
2943.87, 0.122958
2945.54, 0.119711
2947.22, 0.116705
2948.89, 0.114059
2950.57, 0.111534
2952.25, 0.109309
2953.93, 0.107385
2955.62, 0.105822
2957.3, 0.104620
2958.99, 0.103778
2960.68, 0.102996
2962.37, 0.102275
2964.07, 0.101673
2965.76, 0.101493
2967.46, 0.101493
2969.16, 0.101734
2970.86, 0.102094
2972.56, 0.102455
2974.27, 0.102936
2975.98, 0.103597
2977.69, 0.104319
2979.4, 0.105101
2981.11, 0.106063
2982.83, 0.107325
2984.54, 0.108588
2986.26, 0.110091
2987.98, 0.111654
2989.71, 0.113157
2991.43, 0.115082
2993.16, 0.117246
2994.89, 0.119771
2996.62, 0.122176
2998.35, 0.124762
3000.09, 0.127648
3001.83, 0.130835
3003.57, 0.134142
3005.31, 0.137629
3007.05, 0.141357
3008.79, 0.144904
3010.54, 0.148391
3012.29, 0.151939
3014.04, 0.155607
3015.8, 0.159274
3017.55, 0.162701
3019.31, 0.165888
3021.07, 0.169135
3022.83, 0.172081
3024.59, 0.174667
3026.36, 0.177072
3028.13, 0.179417
3029.9, 0.181341
3031.67, 0.183084
3033.44, 0.184648
3035.22, 0.186030
3037.0, 0.187173
3038.78, 0.188075
3040.56, 0.188916
3042.34, 0.189518
3044.13, 0.190119
3045.92, 0.190720
3047.71, 0.191261
3049.5, 0.191562
3051.3, 0.192103
3053.09, 0.192704
3054.89, 0.193306
3056.69, 0.194027
3058.5, 0.194689
3060.3, 0.195350
3062.11, 0.196192
3063.92, 0.197154
3065.73, 0.198296
3067.55, 0.199439
3069.36, 0.200641
3071.18, 0.202024
3073.0, 0.203347
3074.82, 0.204790
3076.65, 0.206233
3078.48, 0.207736
3080.31, 0.209359
3082.14, 0.211283
3083.97, 0.213328
3085.8, 0.215252
3087.64, 0.217236
3089.48, 0.219400
3091.33, 0.221505
3093.17, 0.223790
3095.02, 0.225954
3096.87, 0.228179
3098.72, 0.230524
3100.57, 0.232989
3102.43, 0.235394
3104.28, 0.237859
3106.14, 0.240384
3108.01, 0.242729
3109.87, 0.245495
3111.74, 0.248321
3113.61, 0.250786
3115.48, 0.253372
3117.35, 0.255957
3119.23, 0.258783
3121.1, 0.261729
3122.98, 0.264495
3124.87, 0.267261
3126.75, 0.270267
3128.64, 0.273093
3130.53, 0.275859
3132.42, 0.278685
3134.31, 0.281451
3136.21, 0.284397
3138.11, 0.287463
3140.01, 0.290049
3141.91, 0.292514
3143.82, 0.295220
3145.73, 0.297865
3147.64, 0.300330
3149.55, 0.302495
3151.46, 0.304780
3153.38, 0.307125
3155.3, 0.309229
3157.22, 0.310973
3159.14, 0.312656
3161.07, 0.314400
3163.0, 0.315963
3164.93, 0.317887
3166.86, 0.319511
3168.8, 0.320954
3170.74, 0.322336
3172.68, 0.323780
3174.62, 0.325283
3176.56, 0.326726
3178.51, 0.328229
3180.46, 0.329973
3182.42, 0.331897
3184.37, 0.333640
3186.33, 0.335564
3188.29, 0.337428
3190.25, 0.339593
3192.21, 0.341697
3194.18, 0.343862
3196.15, 0.346207
3198.12, 0.348732
3200.09, 0.351077
3202.07, 0.353722
3204.05, 0.356428
3206.03, 0.359254
3208.02, 0.362020
3210.0, 0.364906
3211.99, 0.367732
3213.98, 0.370317
3215.98, 0.373203
3217.97, 0.375969
3219.97, 0.378494
3221.97, 0.381080
3223.98, 0.383725
3225.98, 0.386251
3227.99, 0.388656
3230.0, 0.390940
3232.02, 0.392985
3234.03, 0.395089
3236.05, 0.397194
3238.07, 0.398997
3240.1, 0.400801
3242.12, 0.402485
3244.15, 0.404048
3246.18, 0.405491
3248.22, 0.406694
3250.25, 0.407896
3252.29, 0.409279
3254.33, 0.410542
3256.38, 0.411744
3258.43, 0.412887
3260.47, 0.414149
3262.53, 0.415472
3264.58, 0.416674
3266.64, 0.417757
3268.7, 0.419140
3270.76, 0.420703
3272.82, 0.422266
3274.89, 0.423829
3276.96, 0.425513
3279.04, 0.427136
3281.11, 0.428820
3283.19, 0.430984
3285.27, 0.433209
3287.35, 0.435314
3289.44, 0.437598
3291.53, 0.439883
3293.62, 0.442228
3295.71, 0.444573
3297.81, 0.447038
3299.91, 0.449624
3302.01, 0.452149
3304.11, 0.454674
3306.22, 0.457019
3308.33, 0.459124
3310.44, 0.461468
3312.56, 0.463934
3314.68, 0.466279
3316.8, 0.468623
3318.92, 0.470788
3321.05, 0.472652
3323.18, 0.474516
3325.31, 0.476380
3327.44, 0.478063
3329.58, 0.479566
3331.72, 0.481130
3333.86, 0.482693
3336.01, 0.484076
3338.16, 0.485519
3340.31, 0.487022
3342.46, 0.488405
3344.61, 0.489547
3346.77, 0.490750
3348.94, 0.491952
3351.1, 0.493035
3353.27, 0.494237
3355.44, 0.495079
3357.61, 0.495861
3359.79, 0.496702
3361.97, 0.497424
3364.15, 0.498206
3366.33, 0.498807
3368.52, 0.499348
3370.71, 0.500130
3372.9, 0.500971
3375.1, 0.501933
3377.3, 0.502835
3379.5, 0.503737
3381.71, 0.504699
3383.91, 0.505842
3386.12, 0.506864
3388.34, 0.507645
3390.55, 0.508307
3392.77, 0.508908
3394.99, 0.509149
3397.22, 0.509209
3399.45, 0.509209
3401.68, 0.509269
3403.91, 0.509269
3406.15, 0.509028
3408.39, 0.508668
3410.63, 0.508487
3412.87, 0.508547
3415.12, 0.508848
3417.37, 0.509269
3419.63, 0.510171
3421.88, 0.511193
3424.14, 0.512516
3426.41, 0.513718
3428.67, 0.515101
3430.94, 0.516484
3433.21, 0.517807
3435.49, 0.519069
3437.77, 0.520452
3440.05, 0.521535
3442.33, 0.522617
3444.62, 0.524000
3446.91, 0.525503
3449.2, 0.526946
3451.5, 0.528569
3453.8, 0.530072
3456.1, 0.531395
3458.41, 0.532718
3460.72, 0.534161
3463.03, 0.535544
3465.34, 0.536867
3467.66, 0.538009
3469.98, 0.539091
3472.31, 0.540174
3474.63, 0.541196
3476.96, 0.542218
3479.3, 0.543300
3481.64, 0.544142
3483.97, 0.545164
3486.32, 0.546246
3488.66, 0.547269
3491.01, 0.548231
3493.36, 0.549012
3495.72, 0.549854
3498.08, 0.550515
3500.44, 0.551417
3502.81, 0.553161
3505.18, 0.555025
3507.55, 0.556768
3509.92, 0.558753
3512.3, 0.561098
3514.68, 0.563142
3517.06, 0.565126
3519.45, 0.567050
3521.84, 0.568974
3524.24, 0.570838
3526.64, 0.572582
3529.04, 0.574025
3531.44, 0.575347
3533.85, 0.576851
3536.26, 0.578474
3538.67, 0.579857
3541.09, 0.581180
3543.51, 0.582382
3545.93, 0.583525
3548.36, 0.584607
3550.79, 0.585689
3553.22, 0.586711
3555.66, 0.587794
3558.1, 0.588816
3560.54, 0.589778
3562.99, 0.590620
3565.44, 0.591521
3567.9, 0.592303
3570.35, 0.593145
3572.81, 0.593866
3575.28, 0.594468
3577.75, 0.595069
3580.22, 0.595911
3582.69, 0.596632
3585.17, 0.597293
3587.65, 0.597714
3590.14, 0.598256
3592.62, 0.598737
3595.11, 0.599458
3597.61, 0.599939
3600.11, 0.600600
3602.61, 0.601142
3605.11, 0.601623
3607.62, 0.602104
3610.14, 0.602525
3612.65, 0.603126
3615.17, 0.603727
3617.69, 0.604328
3620.22, 0.604990
3622.75, 0.605591
3625.28, 0.606192
3627.82, 0.606673
3630.36, 0.607455
3632.9, 0.608116
3635.45, 0.608597
3638.0, 0.609078
3640.56, 0.609680
3643.12, 0.610401
3645.68, 0.610942
3648.24, 0.611303
3650.81, 0.611964
3653.39, 0.612566
3655.96, 0.612926
3658.54, 0.613167
3661.13, 0.613648
3663.71, 0.613888
3666.3, 0.614129
3668.9, 0.614429
3671.5, 0.614670
3674.1, 0.614790
3676.7, 0.615031
3679.31, 0.615271
3681.93, 0.615572
3684.54, 0.615752
3687.17, 0.615933
3689.79, 0.616053
3692.42, 0.616293
3695.05, 0.616594
3697.69, 0.616774
3700.32, 0.617135
3702.97, 0.617556
3705.61, 0.617977
3708.27, 0.618398
3710.92, 0.618819
3713.58, 0.619300
3716.24, 0.619721
3718.91, 0.620382
3721.58, 0.620923
3724.25, 0.621585
3726.93, 0.622126
3729.61, 0.622607
3732.29, 0.623268
3734.98, 0.623929
3737.67, 0.624651
3740.37, 0.625553
3743.07, 0.626214
3745.78, 0.626936
3748.49, 0.627597
3751.2, 0.628499
3753.91, 0.629160
3756.63, 0.630002
3759.36, 0.630844
3762.09, 0.631505
3764.82, 0.632167
3767.55, 0.632888
3770.29, 0.633610
3773.04, 0.634391
3775.78, 0.634933
3778.54, 0.635654
3781.29, 0.636315
3784.05, 0.636857
3786.82, 0.637338
3789.59, 0.637879
3792.36, 0.638420
3795.13, 0.638901
3797.92, 0.639201
3800.7, 0.639562
3803.49, 0.640043
3806.28, 0.640344
3809.08, 0.640584
3811.88, 0.640885
3814.68, 0.641005
3817.49, 0.641246
3820.31, 0.641486
3823.12, 0.641607
3825.94, 0.641727
3828.77, 0.641667
3831.6, 0.641727
3834.43, 0.641967
3837.27, 0.641967
3840.11, 0.641967
3842.96, 0.641967
3845.81, 0.641967
3848.67, 0.642027
3851.53, 0.642148
3854.39, 0.642148
3857.26, 0.642268
3860.13, 0.642328
3863.01, 0.642448
3865.89, 0.642388
3868.77, 0.642508
3871.66, 0.642569
3874.55, 0.642689
3877.45, 0.642569
3880.35, 0.642448
3883.26, 0.642448
3886.17, 0.642569
3889.09, 0.642508
3892.01, 0.642388
3894.93, 0.642328
3897.86, 0.642148
3900.79, 0.641847
3903.73, 0.641607
3906.67, 0.641486
3909.62, 0.641366
3912.57, 0.640885
3915.52, 0.640524
3918.48, 0.640284
3921.45, 0.639983
3924.42, 0.639622
3927.39, 0.639201
3930.37, 0.638660
3933.35, 0.638119
3936.34, 0.637578
3939.33, 0.637157
3942.32, 0.636556
3945.32, 0.635895
3948.33, 0.635113
3951.34, 0.634572
3954.35, 0.634031
3957.37, 0.633369
3960.39, 0.632347
3963.42, 0.631566
3966.45, 0.630664
3969.49, 0.629702
3972.53, 0.628679
3975.58, 0.627657
3978.63, 0.626575
3981.68, 0.625793
3984.75, 0.624891
3987.81, 0.624410
3990.88, 0.623869
3993.95, 0.623629
3997.03, 0.623569
4000.12, 0.623749
4003.21, 0.624110
4006.3, 0.624891
4009.4, 0.625613
4012.5, 0.626575
4015.61, 0.627537
4018.72, 0.628800
4021.84, 0.630062
4024.96, 0.631505
4028.09, 0.632768
4031.22, 0.634031
4034.36, 0.634993
4037.5, 0.635955
4040.65, 0.636857
4043.8, 0.637698
4046.96, 0.638480
4050.12, 0.639201
4053.29, 0.639683
4056.46, 0.640043
4059.64, 0.640464
4062.82, 0.641005
4066.0, 0.641366
4069.19, 0.641727
4072.39, 0.641907
4075.59, 0.642208
4078.8, 0.642328
4082.01, 0.642508
4085.23, 0.642448
4088.45, 0.642508
4091.68, 0.642569
4094.91, 0.642448
4098.15, 0.642328
4101.39, 0.642388
4104.63, 0.642268
4107.89, 0.642027
4111.14, 0.641727
4114.41, 0.641546
4117.67, 0.641426
4120.95, 0.641306
4124.23, 0.641065
4127.51, 0.640945
4130.8, 0.640705
4134.09, 0.640464
4137.39, 0.640284
4140.7, 0.639923
4144.01, 0.639502
4147.32, 0.639262
4150.64, 0.638901
4153.97, 0.638480
4157.3, 0.638119
4160.64, 0.637758
4163.98, 0.637097
4167.33, 0.636676
4170.68, 0.636075
4174.04, 0.635594
4177.4, 0.634993
4180.77, 0.634391
4184.14, 0.633610
4187.52, 0.633069
4190.91, 0.632467
4194.3, 0.631986
4197.69, 0.631445
4201.1, 0.631145
4204.5, 0.630964
4207.92, 0.630904
4211.34, 0.631084
4214.76, 0.631265
4218.19, 0.631385
4221.62, 0.631686
4225.06, 0.631686
4228.51, 0.631746
4231.96, 0.631626
4235.42, 0.631265
4238.88, 0.630543
4242.35, 0.629822
4245.83, 0.628559
4249.31, 0.627116
4252.79, 0.625192
4256.28, 0.623448
4259.78, 0.623268
4263.29, 0.624230
4266.79, 0.624771
4270.31, 0.624771
4273.83, 0.624350
4277.35, 0.623869
4280.89, 0.623328
4284.42, 0.622787
4287.97, 0.622066
4291.52, 0.621585
4295.07, 0.620983
4298.63, 0.620322
4302.2, 0.619721
4305.78, 0.619119
4309.35, 0.618578
4312.94, 0.618097
4316.53, 0.617496
4320.13, 0.617075
4323.73, 0.616474
4327.34, 0.615752
4330.96, 0.615151
4334.58, 0.614550
4338.21, 0.613708
4341.84, 0.612806
4345.48, 0.611964
4349.12, 0.611062
4352.77, 0.609920
4356.43, 0.608898
4360.1, 0.607695
4363.76, 0.606553
4367.44, 0.605110
4371.12, 0.603727
4374.81, 0.602284
4378.51, 0.600781
4382.21, 0.599037
4385.92, 0.597654
4389.63, 0.596031
4393.35, 0.594287
4397.08, 0.592664
4400.81, 0.591040
4404.55, 0.589357
4408.29, 0.587734
4412.04, 0.585990
4415.8, 0.584366
4419.57, 0.582623
4423.34, 0.580759
4427.12, 0.578775
4430.9, 0.576851
4434.69, 0.574927
4438.49, 0.573003
4442.29, 0.570958
4446.1, 0.568974
4449.92, 0.566449
4453.74, 0.563803
4457.57, 0.561037
4461.41, 0.558512
4465.25, 0.555987
4469.1, 0.553702
4472.95, 0.551658
4476.82, 0.549854
4480.69, 0.547629
4484.56, 0.545525
4488.44, 0.543481
4492.33, 0.541496
4496.23, 0.539332
4500.13, 0.537348
4504.04, 0.535544
4507.96, 0.533680
4511.88, 0.531756
4515.81, 0.529772
4519.75, 0.527427
4523.69, 0.524902
4527.65, 0.522136
4531.6, 0.519190
4535.57, 0.516063
4539.54, 0.512937
4543.52, 0.509569
4547.5, 0.506142
4551.5, 0.502535
4555.5, 0.498807
4559.5, 0.494718
4563.52, 0.490750
4567.54, 0.486661
4571.56, 0.482332
4575.6, 0.478063
4579.64, 0.474035
4583.69, 0.470127
4587.75, 0.466639
4591.81, 0.463513
4595.88, 0.460747
4599.96, 0.458162
4604.04, 0.456057
4608.14, 0.454434
4612.24, 0.453351
4616.34, 0.452750
4620.46, 0.452630
4624.58, 0.453111
4628.71, 0.454073
4632.84, 0.455215
4636.99, 0.456478
4641.14, 0.457620
4645.3, 0.458763
4649.47, 0.459364
4653.64, 0.459725
4657.82, 0.459905
4662.01, 0.459605
4666.21, 0.459003
4670.41, 0.458101
4674.62, 0.457019
4678.84, 0.456238
4683.07, 0.455636
4687.3, 0.455396
4691.54, 0.455275
4695.79, 0.455396
4700.05, 0.455456
4704.31, 0.455516
4708.59, 0.455215
4712.87, 0.454674
4717.15, 0.453412
4721.45, 0.451668
4725.76, 0.449383
4730.07, 0.446557
4734.39, 0.442829
4738.72, 0.438621
4743.05, 0.433750
4747.39, 0.428519
4751.75, 0.422567
4756.1, 0.416193
4760.47, 0.409580
4764.85, 0.402906
4769.23, 0.396232
4773.62, 0.389918
4778.02, 0.383966
4782.43, 0.378494
4786.85, 0.373384
4791.27, 0.368874
4795.7, 0.364906
4800.14, 0.361298
4804.59, 0.357991
4809.05, 0.354925
4813.51, 0.351858
4817.99, 0.348732
4822.47, 0.345245
4826.96, 0.341637
4831.46, 0.337548
4835.96, 0.332919
4840.48, 0.327928
4845.0, 0.322637
4849.54, 0.316985
4854.08, 0.311754
4858.63, 0.306884
4863.18, 0.302856
4867.75, 0.299729
4872.33, 0.297504
4876.91, 0.295821
4881.5, 0.294678
4886.1, 0.293596
4890.71, 0.292394
4895.33, 0.290830
4899.96, 0.289027
4904.59, 0.286742
4909.24, 0.284397
4913.89, 0.282052
4918.55, 0.279767
4923.22, 0.277903
4927.9, 0.276701
4932.59, 0.275859
4937.29, 0.275739
4942.0, 0.276220
4946.71, 0.277362
4951.44, 0.279046
4956.17, 0.281210
4960.91, 0.283315
4965.67, 0.285479
4970.43, 0.287944
4975.2, 0.290530
4979.98, 0.293055
4984.76, 0.295640
4989.56, 0.297925
4994.37, 0.300090
4999.18, 0.301833
5004.01, 0.303156
5008.84, 0.304118
5013.69, 0.305080
5018.54, 0.306042
5023.4, 0.306463
5028.28, 0.306824
5033.16, 0.307485
5038.05, 0.307906
5042.95, 0.308447
5047.86, 0.308928
5052.78, 0.309530
5057.71, 0.310011
5062.65, 0.310552
5067.6, 0.311033
5072.56, 0.311694
5077.53, 0.312656
5082.5, 0.314159
5087.49, 0.315482
5092.49, 0.316745
5097.5, 0.318128
5102.51, 0.319330
5107.54, 0.320112
5112.58, 0.320713
5117.62, 0.320713
5122.68, 0.320473
5127.75, 0.319811
5132.82, 0.319090
5137.91, 0.318308
5143.01, 0.317406
5148.12, 0.316023
5153.23, 0.313558
5158.36, 0.311033
5163.5, 0.308808
5168.65, 0.306583
5173.81, 0.304359
5178.98, 0.302314
5184.15, 0.300631
5189.34, 0.299308
5194.54, 0.298526
5199.75, 0.297985
5204.98, 0.296843
5210.21, 0.296302
5215.45, 0.295220
5220.7, 0.292634
5225.96, 0.290470
5231.23, 0.288425
5236.52, 0.286261
5241.81, 0.283495
5247.12, 0.280789
5252.44, 0.278384
5257.76, 0.276220
5263.1, 0.274175
5268.45, 0.272372
5273.81, 0.270748
5279.18, 0.268944
5284.56, 0.267261
5289.95, 0.266419
5295.36, 0.264916
5300.77, 0.263232
5306.2, 0.261970
5311.63, 0.260827
5317.08, 0.259805
5322.54, 0.258903
5328.01, 0.257941
5333.49, 0.257160
5338.98, 0.256619
5344.49, 0.257280
5350.0, 0.258482
5355.53, 0.258422
5361.07, 0.258543
5366.62, 0.259986
5372.18, 0.262150
5377.75, 0.264916
5383.34, 0.267982
5388.93, 0.271289
5394.54, 0.275017
5400.16, 0.278745
5405.79, 0.282172
5411.44, 0.285479
5417.09, 0.289568
5422.76, 0.293175
5428.43, 0.292454
5434.12, 0.292093
5439.83, 0.292454
5445.54, 0.292153
5451.26, 0.291071
5457.0, 0.290169
5462.75, 0.289748
5468.52, 0.286862
5474.29, 0.283375
5480.08, 0.280368
5485.88, 0.275979
5491.69, 0.272131
5497.51, 0.268463
5503.35, 0.265036
5509.2, 0.261308
5515.06, 0.258001
5520.93, 0.254634
5526.82, 0.250786
5532.71, 0.246638
5538.63, 0.243030
5544.55, 0.240024
5550.49, 0.237438
5556.44, 0.234372
5562.4, 0.230945
5568.37, 0.228359
5574.36, 0.227638
5580.36, 0.226435
5586.37, 0.222888
5592.4, 0.220603
5598.44, 0.220062
5604.49, 0.219521
5610.56, 0.218919
5616.63, 0.218859
5622.73, 0.218679
5628.83, 0.219280
5634.95, 0.221385
5641.08, 0.224752
5647.23, 0.224932
5653.39, 0.224872
5659.56, 0.225413
5665.74, 0.225894
5671.94, 0.228299
5678.15, 0.229321
5684.38, 0.228961
5690.62, 0.229862
5696.87, 0.229923
5703.14, 0.230464
5709.42, 0.232688
5715.72, 0.232508
5722.03, 0.231366
5728.35, 0.230283
5734.69, 0.230043
5741.03, 0.230283
5747.4, 0.231005
5753.78, 0.229502
5760.17, 0.231185
5766.58, 0.234071
5773.0, 0.230283
5779.44, 0.227337
5785.88, 0.225894
5792.35, 0.224571
5798.83, 0.224030
5805.32, 0.223128
5811.83, 0.223128
5818.35, 0.225353
5824.89, 0.224631
5831.45, 0.220483
5838.01, 0.216815
5844.59, 0.213989
5851.19, 0.212366
5857.8, 0.211223
5864.43, 0.209600
5871.07, 0.207135
5877.73, 0.209299
5884.4, 0.207014
5891.09, 0.202565
5897.79, 0.200641
5904.5, 0.195109
5911.23, 0.192163
5917.98, 0.191081
5924.75, 0.190420
5931.53, 0.193125
5938.32, 0.195530
5945.13, 0.192464
5951.96, 0.191803
5958.8, 0.193366
5965.65, 0.197515
5972.53, 0.199920
5979.42, 0.201423
5986.32, 0.205571
5993.24, 0.207976
6000.18, 0.208217
6007.13, 0.210802
6014.1, 0.214230
6021.08, 0.215071
6028.09, 0.215973
6035.1, 0.218198
6042.14, 0.224872
6049.19, 0.232267
6056.25, 0.227217
6063.34, 0.225233
6070.44, 0.228900
6077.55, 0.228840
6084.69, 0.226375
6091.84, 0.226135
6099.0, 0.227157
6106.19, 0.230524
6113.39, 0.234192
6120.61, 0.231185
6127.84, 0.228299
6135.09, 0.228480
6142.36, 0.228900
6149.65, 0.228239
6156.95, 0.228359
6164.27, 0.226736
6171.61, 0.224090
6178.97, 0.225293
6186.34, 0.226435
6193.73, 0.223008
6201.14, 0.221445
6208.57, 0.222046
6216.01, 0.222888
6223.47, 0.223730
6230.95, 0.224812
6238.45, 0.226255
6245.97, 0.227638
6253.5, 0.229261
6261.06, 0.231185
6268.63, 0.233229
6276.21, 0.235214
6283.82, 0.237198
6291.45, 0.239182
6299.1, 0.241046
6306.76, 0.243090
6314.44, 0.245074
6322.14, 0.247059
6329.86, 0.248983
6337.6, 0.253612
6345.35, 0.257400
6353.13, 0.254695
6360.92, 0.254574
6368.74, 0.257761
6376.57, 0.257520
6384.43, 0.256859
6392.3, 0.257460
6400.19, 0.258903
6408.1, 0.266539
6416.03, 0.269786
6423.98, 0.262150
6431.95, 0.258001
6439.94, 0.255115
6447.95, 0.253071
6455.98, 0.251448
6464.03, 0.249884
6472.1, 0.250185
6480.19, 0.250786
6488.31, 0.252891
6496.44, 0.250185
6504.59, 0.241407
6512.76, 0.237198
6520.95, 0.235695
6529.16, 0.230945
6537.4, 0.228239
6545.65, 0.227758
6553.92, 0.227818
6562.22, 0.228239
6570.54, 0.230885
6578.88, 0.229862
6587.23, 0.228720
6595.61, 0.228480
6604.02, 0.227337
6612.44, 0.227818
6620.89, 0.228840
6629.35, 0.232929
6637.84, 0.236176
6646.35, 0.231005
6654.88, 0.226856
6663.44, 0.226555
6672.01, 0.227217
6680.61, 0.227337
6689.23, 0.224692
6697.88, 0.223008
6706.54, 0.224631
6715.23, 0.225353
6723.94, 0.224331
6732.67, 0.223068
6741.42, 0.222768
6750.2, 0.223249
6759.0, 0.223429
6767.82, 0.224631
6776.67, 0.226135
6785.54, 0.228239
6794.44, 0.227818
6803.35, 0.224511
6812.29, 0.223429
6821.26, 0.224692
6830.24, 0.224511
6839.25, 0.222467
6848.29, 0.223128
6857.35, 0.226676
6866.43, 0.226616
6875.54, 0.221385
6884.67, 0.218980
6893.82, 0.218078
6903.0, 0.217897
6912.2, 0.216514
6921.43, 0.214711
6930.69, 0.213388
6939.96, 0.212125
6949.27, 0.212185
6958.59, 0.213207
6967.95, 0.210261
6977.33, 0.207255
6986.73, 0.206293
6996.16, 0.204910
7005.61, 0.202745
7015.09, 0.201302
7024.6, 0.199739
7034.13, 0.198537
7043.69, 0.198837
7053.27, 0.196132
7062.88, 0.192825
7072.52, 0.191141
7082.18, 0.189999
7091.87, 0.188977
7101.58, 0.188015
7111.32, 0.187473
7121.09, 0.186451
7130.88, 0.184948
7140.71, 0.184407
7150.56, 0.183685
7160.43, 0.182663
7170.33, 0.182002
7180.27, 0.180198
7190.23, 0.178936
7200.21, 0.178755
7210.23, 0.178094
7220.27, 0.176049
7230.34, 0.174426
7240.44, 0.172803
7250.56, 0.170999
7260.72, 0.169315
7270.9, 0.168173
7281.12, 0.166489
7291.36, 0.164265
7301.63, 0.162701
7311.93, 0.161379
7322.25, 0.160357
7332.61, 0.159876
7343.0, 0.158974
7353.41, 0.157591
7363.86, 0.156388
7374.33, 0.155546
7384.83, 0.154464
7395.37, 0.153262
7405.93, 0.152240
7416.53, 0.151037
7427.15, 0.149834
7437.81, 0.148692
7448.5, 0.147670
7459.22, 0.146888
7469.96, 0.145746
7480.74, 0.144303
7491.55, 0.143100
7502.39, 0.141838
7513.27, 0.140695
7524.17, 0.139372
7535.11, 0.137869
7546.08, 0.136246
7557.08, 0.134562
7568.11, 0.132879
7579.17, 0.131376
7590.27, 0.129632
7601.4, 0.128009
7612.56, 0.126566
7623.76, 0.125243
7634.98, 0.123860
7646.24, 0.122597
7657.54, 0.121154
7668.87, 0.119651
7680.23, 0.118088
7691.62, 0.116464
7703.05, 0.114841
7714.51, 0.113398
7726.01, 0.112075
7737.54, 0.110752
7749.11, 0.109490
7760.71, 0.108107
7772.35, 0.106604
7784.02, 0.105161
7795.72, 0.103838
7807.46, 0.102635
7819.23, 0.101854
7831.04, 0.101553
7842.89, 0.101373
7854.77, 0.101553
7866.69, 0.101914
7878.65, 0.102455
7890.64, 0.103177
7902.67, 0.104199
7914.74, 0.105401
7926.84, 0.106724
7938.98, 0.108287
7951.16, 0.109911
7963.37, 0.111474
7975.62, 0.112917
7987.91, 0.114240
8000.24, 0.115382
8012.6, 0.116525
8025.01, 0.117727
8037.45, 0.119110
8049.93, 0.121034
8062.45, 0.122838
8075.01, 0.124822
8087.61, 0.127107
8100.24, 0.129512
8112.91, 0.132037
8125.63, 0.134562
8138.39, 0.137028
8151.18, 0.139252
8164.02, 0.140695
8176.9, 0.141297
8189.81, 0.141116
8202.77, 0.140395
8215.77, 0.139072
8228.82, 0.137328
8241.9, 0.135284
8255.02, 0.133300
8268.19, 0.131195
8281.39, 0.129211
8294.65, 0.127528
8307.94, 0.125844
8321.28, 0.124461
8334.66, 0.123379
8348.08, 0.122357
8361.54, 0.121575
8375.05, 0.121034
8388.6, 0.120673
8402.2, 0.120433
8415.84, 0.120433
8429.52, 0.120613
8443.25, 0.120854
8457.02, 0.121335
8470.84, 0.121876
8484.7, 0.122237
8498.61, 0.122718
8512.57, 0.123379
8526.57, 0.123980
8540.62, 0.124341
8554.71, 0.124341
8568.85, 0.123379
8583.04, 0.120974
8597.27, 0.116705
8611.55, 0.112496
8625.88, 0.112496
8640.26, 0.118930
8654.68, 0.129271
8669.16, 0.139372
8683.68, 0.147069
8698.25, 0.152781
8712.87, 0.156869
8727.53, 0.159996
8742.25, 0.162641
8757.02, 0.164806
8771.83, 0.166730
8786.7, 0.168474
8801.62, 0.170337
8816.59, 0.172021
8831.61, 0.173404
8846.68, 0.174426
8861.8, 0.175027
8876.97, 0.175508
8892.2, 0.175629
8907.48, 0.175629
8922.81, 0.175448
8938.2, 0.175087
8953.63, 0.174546
8969.13, 0.174005
8984.67, 0.173284
9000.27, 0.172382
9015.92, 0.171059
9031.63, 0.169436
9047.39, 0.167572
9063.21, 0.165588
9079.08, 0.163724
9095.01, 0.162160
9111.0, 0.160958
9127.04, 0.160296
9143.13, 0.160537
9159.28, 0.161258
9175.49, 0.161920
9191.76, 0.162461
9208.09, 0.163122
9224.47, 0.163844
9240.92, 0.164986
9257.42, 0.166550
9273.98, 0.168534
9290.6, 0.170698
9307.28, 0.172682
9324.02, 0.174246
9340.82, 0.175208
9357.68, 0.175208
9374.6, 0.174366
9391.58, 0.172442
9408.62, 0.169496
9425.73, 0.165828
9442.9, 0.161800
9460.13, 0.157711
9477.42, 0.153442
9494.78, 0.148812
9512.2, 0.143822
9529.69, 0.138831
9547.24, 0.133480
9564.86, 0.127949
9582.54, 0.122357
9600.28, 0.116344
9618.1, 0.109790
9635.97, 0.102335
9653.92, 0.0941580
9671.93, 0.0860410
9690.01, 0.0784050
9708.16, 0.0720910
9726.37, 0.0671010
9744.65, 0.0630720
9763.0, 0.0602460
9781.43, 0.0585630
9799.92, 0.0576610
9818.48, 0.0580820
9837.1, 0.0601860
9855.8, 0.0641550
9874.58, 0.0697460
9893.42, 0.0775030
9912.34, 0.0872430
9931.33, 0.0986070
9950.39, 0.110993
9969.52, 0.123499
9988.74, 0.135104
10008.0, 0.145265
10027.4, 0.153743
10046.8, 0.160477
10066.3, 0.165527
10085.9, 0.169616
10105.6, 0.172983
10125.3, 0.175508
10145.1, 0.177553
10165.0, 0.179296
10185.0, 0.181160
10205.0, 0.183565
10225.2, 0.186812
10245.4, 0.190961
10265.7, 0.195290
10286.0, 0.199439
10306.5, 0.203046
10327.0, 0.205632
10347.6, 0.207556
10368.3, 0.208638
10389.1, 0.209239
10409.9, 0.209359
10430.9, 0.208878
10451.9, 0.207556
10473.0, 0.205151
10494.2, 0.200882
10515.5, 0.194809
10536.9, 0.187594
10558.4, 0.179777
10579.9, 0.171720
10601.5, 0.163904
10623.3, 0.156629
10645.1, 0.149834
10667.0, 0.143221
10689.0, 0.136787
10711.1, 0.130474
10733.2, 0.124161
10755.5, 0.117907
10777.9, 0.112676
10800.3, 0.109309
10822.9, 0.108528
10845.5, 0.110452
10868.2, 0.114240
10891.1, 0.118509
10914.0, 0.121876
10937.0, 0.124401
10960.2, 0.126445
10983.4, 0.128790
11006.7, 0.132157
11030.1, 0.136126
11053.6, 0.140214
11077.3, 0.143822
11101.0, 0.147069
11124.8, 0.150315
11148.7, 0.153262
11172.7, 0.155186
11196.9, 0.155607
11221.1, 0.154344
11245.4, 0.151879
11269.9, 0.148452
11294.4, 0.144423
11319.1, 0.139553
11343.9, 0.133901
11368.8, 0.127588
11393.7, 0.120914
11418.8, 0.114120
11444.0, 0.108047
11469.4, 0.103297
11494.8, 0.100591
11520.3, 0.100531
11546.0, 0.101914
11571.8, 0.103838
11597.7, 0.105341
11623.7, 0.105521
11649.8, 0.104740
11676.0, 0.103537
11702.4, 0.101794
11728.9, 0.0999900
11755.5, 0.0984870
11782.2, 0.0979460
11809.0, 0.0977650
11836.0, 0.0979460
11863.0, 0.0981260
11890.3, 0.0979460
11917.6, 0.0975250
11945.0, 0.0968030
11972.6, 0.0959610
12000.4, 0.0952400
12028.2, 0.0943380
12056.2, 0.0933760
12084.3, 0.0928350
12112.5, 0.0922340
12140.9, 0.0917530
12169.4, 0.0911510
12198.0, 0.0904900
12226.8, 0.0895280
12255.7, 0.0885660
12284.7, 0.0879650
12313.9, 0.0880250
12343.2, 0.0894680
12372.7, 0.0923540
12402.3, 0.0954800
12432.0, 0.0978850
12461.9, 0.0992680
12491.9, 0.0996890
12522.1, 0.0993280
12552.4, 0.0980660
12582.9, 0.0959610
12613.5, 0.0940370
12644.3, 0.0936160
12675.2, 0.0946390
12706.3, 0.0967430
12737.5, 0.0986670
12768.9, 0.0998090
12800.4, 0.0999900
12832.1, 0.0989680
12863.9, 0.0966830
12895.9, 0.0940370
12928.1, 0.0914520
12960.4, 0.0891070
12992.9, 0.0873030
13025.5, 0.0860410
13058.3, 0.0848980
13091.3, 0.0839960
13124.4, 0.0834550
13157.8, 0.0826740
13191.2, 0.0814110
13224.9, 0.0799080
13258.7, 0.0784650
13292.7, 0.0771420
13326.9, 0.0758790
13361.2, 0.0738950
13395.7, 0.0719110
13430.4, 0.0701070
13465.3, 0.0679430
13500.4, 0.0658380
13535.7, 0.0638540
13571.1, 0.0623510
13606.7, 0.0612690
13642.5, 0.0606070
13678.5, 0.0598260
13714.7, 0.0597050
13751.1, 0.0598260
13787.6, 0.0599460
13824.4, 0.0599460
13861.4, 0.0601260
13898.5, 0.0600060
13935.9, 0.0601860
13973.5, 0.0606670
14011.2, 0.0612690
14049.2, 0.0618700
14087.4, 0.0625910
14125.8, 0.0627720
14164.3, 0.0627720
14203.2, 0.0630120
14242.2, 0.0627720
14281.4, 0.0630120
14320.9, 0.0646960
14360.5, 0.0683030
14400.4, 0.0724520
14440.5, 0.0758190
14480.9, 0.0779240
14521.4, 0.0791260
14562.2, 0.0800880
14603.3, 0.0812300
14644.5, 0.0821920
14686.0, 0.0833950
14727.7, 0.0862210
14769.7, 0.0902490
14811.9, 0.0953000
14854.3, 0.101192
14897.0, 0.107145
14939.9, 0.111714
14983.1, 0.114240
15026.5, 0.114781
15070.2, 0.114721
15114.2, 0.114781
15158.3, 0.115863
15202.8, 0.118148
15247.5, 0.120613
15292.5, 0.122297
15337.7, 0.122898
15383.2, 0.122176
15429.0, 0.120012
15475.1, 0.115863
15521.4, 0.111173
15568.0, 0.105942
15614.9, 0.100170
15662.1, 0.0944580
15709.6, 0.0894080
15757.3, 0.0845980
15805.4, 0.0803290
15853.7, 0.0769010
15902.3, 0.0734140
15951.2, 0.0693250
16000.5, 0.0660190
16050.0, 0.0633130
16099.8, 0.0610880
16150.0, 0.0597050
16200.5, 0.0593450
16251.3, 0.0601860
16302.4, 0.0618700
16353.8, 0.0642750
16405.5, 0.0666200
16457.6, 0.0688440
16510.0, 0.0701070
16562.8, 0.0703480
16615.9, 0.0711890
16669.3, 0.0720310
16723.1, 0.0723920
16777.2, 0.0730530
16831.7, 0.0747970
16886.5, 0.0786450
16941.7, 0.0855600
16997.2, 0.0957210
17053.1, 0.107927
17109.4, 0.119591
17166.1, 0.130053
17223.1, 0.138471
17280.5, 0.145024
17338.3, 0.149474
17396.5, 0.152841
17455.1, 0.154885
17514.0, 0.155787
17573.4, 0.155607
17633.2, 0.154645
17693.4, 0.152901
17754.0, 0.150977
17815.0, 0.149834
17876.4, 0.148933
17938.3, 0.147490
18000.5, 0.146047
18063.3, 0.145746
18126.4, 0.146407
18190.0, 0.146347
18254.1, 0.145445
18318.6, 0.144483
18383.5, 0.143160
18449.0, 0.141236
18514.9, 0.139793
18581.2, 0.140274
18648.0, 0.142379
18715.4, 0.145746
18783.2, 0.149534
18851.5, 0.153141
18920.3, 0.155727
18989.6, 0.158613
19059.4, 0.159996
19129.7, 0.159274
19200.6, 0.157050
19272.0, 0.154765
19343.9, 0.152360
19416.3, 0.149594
19489.3, 0.147670
19562.8, 0.146047
19637.0, 0.145265
19711.6, 0.147369
19786.8, 0.149113
19862.6, 0.148632
19939.0, 0.147971
20016.0, 0.146407
20093.6, 0.144543
20171.8, 0.142740
20250.6, 0.141297
20330.0, 0.140575
20410.0, 0.139553
20490.7, 0.137088
20572.0, 0.134502
20654.0, 0.132698
20736.6, 0.131556
20819.9, 0.132578
20903.8, 0.134322
20988.5, 0.135284
21073.8, 0.136907
21159.8, 0.136967
21246.5, 0.135585
21334.0, 0.134863
21422.1, 0.137088
21511.0, 0.141838
21600.7, 0.148391
21691.0, 0.155847
21782.1, 0.160537
21874.0, 0.163243
21966.7, 0.165347
22060.2, 0.168774
22154.5, 0.169736
22249.6, 0.168534
22345.5, 0.167031
22442.2, 0.167271
22539.8, 0.167812
22638.2, 0.167752
22737.5, 0.166850
22837.7, 0.165708
22938.7, 0.161078
23040.7, 0.156148
23143.5, 0.152901
23247.3, 0.151518
23352.1, 0.149714
23457.7, 0.147069
23564.4, 0.144363
23672.0, 0.143581
23780.5, 0.145806
23890.1, 0.152300
24000.7, 0.158553
24112.3, 0.164926
24225.0, 0.171420
