Database of Origin, USGS Spectral Database
Sample Description, See USGS database for additional info
Date Added,2017-07-03 06:06:54.322282

Data ID,USGS_oli04          
Sample ID, olivine_gds70.16298
Mineral Name, olivine
Material Class,Nesosilicate

Wavelength
1280.99, 0.175427
1281.3, 0.175427
1281.62, 0.175427
1281.94, 0.175427
1282.25, 0.175427
1282.57, 0.175427
1282.89, 0.175427
1283.21, 0.175427
1283.52, 0.175427
1283.84, 0.175427
1284.16, 0.175427
1284.48, 0.175427
1284.8, 0.175427
1285.11, 0.175427
1285.43, 0.175427
1285.75, 0.175427
1286.07, 0.175427
1286.39, 0.175427
1286.71, 0.175427
1287.03, 0.175427
1287.35, 0.175427
1287.67, 0.175427
1287.99, 0.175427
1288.31, 0.175427
1288.63, 0.175427
1288.95, 0.175427
1289.27, 0.175427
1289.59, 0.175427
1289.91, 0.175427
1290.23, 0.175427
1290.55, 0.175427
1290.88, 0.175427
1291.2, 0.175427
1291.52, 0.175427
1291.84, 0.175427
1292.16, 0.175427
1292.48, 0.175427
1292.81, 0.175427
1293.13, 0.175427
1293.45, 0.175427
1293.77, 0.175427
1294.1, 0.175427
1294.42, 0.175427
1294.74, 0.175427
1295.07, 0.175427
1295.39, 0.175427
1295.71, 0.175427
1296.04, 0.175427
1296.36, 0.175427
1296.69, 0.175427
1297.01, 0.175427
1297.34, 0.175427
1297.66, 0.175427
1297.98, 0.175427
1298.31, 0.175427
1298.64, 0.175427
1298.96, 0.175427
1299.29, 0.175427
1299.61, 0.175427
1299.94, 0.175427
1300.26, 0.175427
1300.59, 0.175427
1300.92, 0.175427
1301.24, 0.175427
1301.57, 0.175427
1301.9, 0.175427
1302.22, 0.175427
1302.55, 0.175427
1302.88, 0.175427
1303.21, 0.175427
1303.53, 0.175427
1303.86, 0.175427
1304.19, 0.175427
1304.52, 0.175427
1304.85, 0.175427
1305.17, 0.175427
1305.5, 0.175427
1305.83, 0.175427
1306.16, 0.175427
1306.49, 0.175427
1306.82, 0.175427
1307.15, 0.175427
1307.48, 0.175427
1307.81, 0.175427
1308.14, 0.175427
1308.47, 0.175427
1308.8, 0.175427
1309.13, 0.175427
1309.46, 0.175427
1309.79, 0.175427
1310.12, 0.175427
1310.45, 0.175427
1310.79, 0.175427
1311.12, 0.175427
1311.45, 0.175427
1311.78, 0.175427
1312.11, 0.175427
1312.44, 0.175427
1312.78, 0.175427
1313.11, 0.175427
1313.44, 0.175427
1313.77, 0.175427
1314.11, 0.175427
1314.44, 0.175427
1314.77, 0.175427
1315.11, 0.175427
1315.44, 0.175427
1315.78, 0.175427
1316.11, 0.175427
1316.44, 0.175427
1316.78, 0.175427
1317.11, 0.175427
1317.45, 0.175427
1317.78, 0.175427
1318.12, 0.175427
1318.45, 0.175427
1318.79, 0.175427
1319.12, 0.175427
1319.46, 0.175427
1319.8, 0.175427
1320.13, 0.175427
1320.47, 0.175427
1320.8, 0.175427
1321.14, 0.175427
1321.48, 0.175427
1321.81, 0.175427
1322.15, 0.175427
1322.49, 0.175427
1322.83, 0.175427
1323.16, 0.175427
1323.5, 0.175427
1323.84, 0.175427
1324.18, 0.175427
1324.52, 0.175427
1324.85, 0.175427
1325.19, 0.175427
1325.53, 0.175427
1325.87, 0.175427
1326.21, 0.175427
1326.55, 0.175427
1326.89, 0.175427
1327.23, 0.175427
1327.57, 0.175427
1327.91, 0.175427
1328.25, 0.175427
1328.59, 0.175427
1328.93, 0.175427
1329.27, 0.175427
1329.61, 0.175427
1329.95, 0.175427
1330.29, 0.175427
1330.64, 0.175427
1330.98, 0.175427
1331.32, 0.175427
1331.66, 0.175427
1332.0, 0.175427
1332.34, 0.175427
1332.69, 0.175427
1333.03, 0.175427
1333.37, 0.175427
1333.72, 0.175427
1334.06, 0.175427
1334.4, 0.175427
1334.75, 0.175427
1335.09, 0.175427
1335.43, 0.175427
1335.78, 0.175427
1336.12, 0.175427
1336.47, 0.175427
1336.81, 0.175427
1337.16, 0.175427
1337.5, 0.175427
1337.85, 0.175427
1338.19, 0.175427
1338.54, 0.175427
1338.88, 0.175427
1339.23, 0.175427
1339.58, 0.175427
1339.92, 0.175427
1340.27, 0.175427
1340.61, 0.175427
1340.96, 0.175427
1341.31, 0.175427
1341.66, 0.175427
1342.0, 0.175427
1342.35, 0.175427
1342.7, 0.175427
1343.05, 0.175427
1343.39, 0.175427
1343.74, 0.175427
1344.09, 0.175427
1344.44, 0.175427
1344.79, 0.175427
1345.14, 0.175427
1345.48, 0.175427
1345.83, 0.175427
1346.18, 0.175427
1346.53, 0.175427
1346.88, 0.175427
1347.23, 0.175427
1347.58, 0.175427
1347.93, 0.175427
1348.28, 0.175427
1348.64, 0.175427
1348.99, 0.175427
1349.34, 0.175427
1349.69, 0.175427
1350.04, 0.175427
1350.39, 0.175427
1350.74, 0.175427
1351.1, 0.175427
1351.45, 0.175427
1351.8, 0.175427
1352.15, 0.175427
1352.51, 0.175427
1352.86, 0.175427
1353.21, 0.175427
1353.56, 0.175427
1353.92, 0.175427
1354.27, 0.175427
1354.63, 0.175427
1354.98, 0.176126
1355.33, 0.178158
1355.69, 0.177250
1356.04, 0.174672
1356.4, 0.175277
1356.75, 0.176022
1357.11, 0.176311
1357.46, 0.180128
1357.82, 0.178465
1358.18, 0.172364
1358.53, 0.171858
1358.89, 0.171617
1359.24, 0.174568
1359.6, 0.179595
1359.96, 0.174427
1360.31, 0.172052
1360.67, 0.178398
1361.03, 0.182404
1361.39, 0.179401
1361.74, 0.179132
1362.1, 0.178609
1362.46, 0.178955
1362.82, 0.184978
1363.18, 0.187819
1363.53, 0.187336
1363.89, 0.187096
1364.25, 0.186362
1364.61, 0.182344
1364.97, 0.185907
1365.33, 0.188173
1365.69, 0.182128
1366.05, 0.176268
1366.41, 0.178284
1366.77, 0.185399
1367.13, 0.186437
1367.49, 0.186860
1367.85, 0.184854
1368.21, 0.183216
1368.57, 0.183674
1368.93, 0.185092
1369.3, 0.183347
1369.66, 0.180453
1370.02, 0.183144
1370.38, 0.185744
1370.74, 0.189779
1371.11, 0.193496
1371.47, 0.192714
1371.83, 0.194886
1372.19, 0.195589
1372.56, 0.193507
1372.92, 0.197599
1373.29, 0.197048
1373.65, 0.196499
1374.01, 0.199528
1374.38, 0.197651
1374.74, 0.194495
1375.11, 0.193602
1375.47, 0.189951
1375.84, 0.188394
1376.2, 0.191989
1376.57, 0.191759
1376.93, 0.191527
1377.3, 0.194661
1377.67, 0.199997
1378.03, 0.206246
1378.4, 0.204464
1378.76, 0.201770
1379.13, 0.201133
1379.5, 0.204198
1379.87, 0.209406
1380.23, 0.203131
1380.6, 0.195079
1380.97, 0.193493
1381.34, 0.194728
1381.7, 0.198910
1382.07, 0.201177
1382.44, 0.204531
1382.81, 0.206212
1383.18, 0.202912
1383.55, 0.202769
1383.92, 0.207280
1384.29, 0.210430
1384.66, 0.207648
1385.03, 0.203351
1385.4, 0.201031
1385.77, 0.198385
1386.14, 0.201627
1386.51, 0.207315
1386.88, 0.211570
1387.25, 0.207841
1387.62, 0.202634
1387.99, 0.205107
1388.36, 0.209469
1388.74, 0.212243
1389.11, 0.214971
1389.48, 0.210270
1389.85, 0.206496
1390.23, 0.210224
1390.6, 0.211293
1390.97, 0.211420
1391.35, 0.213965
1391.72, 0.212130
1392.09, 0.213615
1392.47, 0.216068
1392.84, 0.213405
1393.21, 0.213065
1393.59, 0.216888
1393.96, 0.217619
1394.34, 0.216497
1394.71, 0.218196
1395.09, 0.222343
1395.46, 0.223918
1395.84, 0.220561
1396.22, 0.220384
1396.59, 0.224186
1396.97, 0.223943
1397.35, 0.225082
1397.72, 0.227796
1398.1, 0.225837
1398.48, 0.226400
1398.85, 0.228710
1399.23, 0.225490
1399.61, 0.222702
1399.99, 0.224974
1400.37, 0.226403
1400.74, 0.224557
1401.12, 0.226902
1401.5, 0.228749
1401.88, 0.228501
1402.26, 0.227649
1402.64, 0.229055
1403.02, 0.233740
1403.4, 0.237691
1403.78, 0.239262
1404.16, 0.238820
1404.54, 0.235371
1404.92, 0.231160
1405.3, 0.232805
1405.68, 0.232918
1406.06, 0.233837
1406.44, 0.238643
1406.83, 0.240231
1407.21, 0.235752
1407.59, 0.234627
1407.97, 0.240179
1408.35, 0.243319
1408.74, 0.237377
1409.12, 0.231792
1409.5, 0.234250
1409.89, 0.239096
1410.27, 0.243391
1410.65, 0.244697
1411.04, 0.244220
1411.42, 0.248541
1411.81, 0.246543
1412.19, 0.243433
1412.58, 0.247496
1412.96, 0.247433
1413.35, 0.247910
1413.73, 0.248933
1414.12, 0.249567
1414.5, 0.249517
1414.89, 0.247857
1415.28, 0.251143
1415.66, 0.257351
1416.05, 0.257918
1416.44, 0.252418
1416.82, 0.250197
1417.21, 0.249690
1417.6, 0.252362
1417.98, 0.256948
1418.37, 0.257109
1418.76, 0.255832
1419.15, 0.256381
1419.54, 0.258048
1419.93, 0.254227
1420.32, 0.247912
1420.71, 0.250045
1421.09, 0.256940
1421.48, 0.261596
1421.88, 0.262927
1422.27, 0.263060
1422.66, 0.259353
1423.05, 0.258796
1423.44, 0.259231
1423.83, 0.262340
1424.22, 0.266610
1424.61, 0.269513
1425.0, 0.269543
1425.39, 0.266735
1425.78, 0.265120
1426.18, 0.266678
1426.57, 0.268316
1426.96, 0.270220
1427.36, 0.270581
1427.75, 0.269762
1428.14, 0.270171
1428.54, 0.270044
1428.93, 0.275594
1429.32, 0.278445
1429.72, 0.275258
1430.11, 0.273967
1430.51, 0.274512
1430.9, 0.276501
1431.3, 0.277336
1431.69, 0.274559
1432.09, 0.277790
1432.48, 0.278175
1432.88, 0.275524
1433.28, 0.274674
1433.67, 0.278426
1434.07, 0.280527
1434.46, 0.278253
1434.86, 0.277053
1435.26, 0.278441
1435.66, 0.283622
1436.05, 0.285778
1436.45, 0.282303
1436.85, 0.282433
1437.25, 0.282181
1437.65, 0.282703
1438.05, 0.286155
1438.44, 0.288705
1438.84, 0.288884
1439.24, 0.294477
1439.64, 0.294575
1440.04, 0.289597
1440.44, 0.291048
1440.84, 0.293661
1441.24, 0.288485
1441.65, 0.284984
1442.05, 0.290914
1442.45, 0.297307
1442.85, 0.295576
1443.25, 0.288400
1443.65, 0.288232
1444.05, 0.292702
1444.46, 0.297118
1444.86, 0.299329
1445.26, 0.296110
1445.67, 0.295496
1446.07, 0.300703
1446.47, 0.308088
1446.88, 0.308702
1447.28, 0.303111
1447.68, 0.300728
1448.09, 0.301762
1448.49, 0.302885
1448.9, 0.303461
1449.3, 0.302280
1449.71, 0.303183
1450.11, 0.305900
1450.52, 0.305871
1450.93, 0.304950
1451.33, 0.308699
1451.74, 0.312188
1452.14, 0.312257
1452.55, 0.308952
1452.96, 0.305478
1453.36, 0.308681
1453.77, 0.313209
1454.18, 0.315934
1454.59, 0.317954
1455.0, 0.317955
1455.41, 0.315230
1455.81, 0.318910
1456.22, 0.324591
1456.63, 0.322107
1457.04, 0.319700
1457.45, 0.318280
1457.86, 0.316649
1458.27, 0.316902
1458.68, 0.317385
1459.09, 0.320422
1459.5, 0.322312
1459.91, 0.319906
1460.32, 0.320679
1460.74, 0.321640
1461.15, 0.325520
1461.56, 0.330411
1461.97, 0.330357
1462.39, 0.328405
1462.8, 0.328385
1463.21, 0.328483
1463.62, 0.332906
1464.04, 0.335426
1464.45, 0.333760
1464.86, 0.331539
1465.28, 0.331006
1465.69, 0.332207
1466.11, 0.334916
1466.52, 0.333327
1466.94, 0.332305
1467.35, 0.336712
1467.77, 0.342466
1468.18, 0.344406
1468.6, 0.342741
1469.02, 0.342030
1469.43, 0.343266
1469.85, 0.344280
1470.27, 0.345407
1470.68, 0.343084
1471.1, 0.340682
1471.52, 0.342766
1471.94, 0.346936
1472.35, 0.348949
1472.77, 0.345732
1473.19, 0.342764
1473.61, 0.340714
1474.03, 0.341897
1474.45, 0.346935
1474.87, 0.352557
1475.29, 0.355810
1475.71, 0.354623
1476.13, 0.351811
1476.55, 0.352181
1476.97, 0.354177
1477.39, 0.356801
1477.81, 0.361665
1478.23, 0.361984
1478.65, 0.357517
1479.07, 0.356880
1479.5, 0.360356
1479.92, 0.363579
1480.34, 0.364795
1480.76, 0.362294
1481.19, 0.360449
1481.61, 0.363472
1482.03, 0.364745
1482.46, 0.363803
1482.88, 0.366481
1483.31, 0.367651
1483.73, 0.364794
1484.16, 0.361787
1484.58, 0.362836
1485.01, 0.366152
1485.43, 0.371062
1485.86, 0.375136
1486.28, 0.377560
1486.71, 0.375571
1487.14, 0.372839
1487.56, 0.372461
1487.99, 0.371844
1488.42, 0.373149
1488.84, 0.373660
1489.27, 0.370670
1489.7, 0.371505
1490.13, 0.373495
1490.56, 0.376279
1490.98, 0.376388
1491.41, 0.378524
1491.84, 0.381332
1492.27, 0.379033
1492.7, 0.378885
1493.13, 0.380135
1493.56, 0.378755
1493.99, 0.378235
1494.42, 0.382046
1494.85, 0.386932
1495.29, 0.388353
1495.72, 0.387174
1496.15, 0.391767
1496.58, 0.394574
1497.01, 0.392729
1497.44, 0.391755
1497.88, 0.388491
1498.31, 0.389587
1498.74, 0.392590
1499.18, 0.395377
1499.61, 0.396282
1500.04, 0.395048
1500.48, 0.396385
1500.91, 0.397319
1501.35, 0.396187
1501.78, 0.399064
1502.22, 0.402958
1502.65, 0.403740
1503.09, 0.401080
1503.53, 0.401498
1503.96, 0.403375
1504.4, 0.404605
1504.83, 0.402431
1505.27, 0.402816
1505.71, 0.406121
1506.15, 0.404675
1506.58, 0.401963
1507.02, 0.404531
1507.46, 0.408337
1507.9, 0.410266
1508.34, 0.407341
1508.78, 0.408790
1509.21, 0.412184
1509.66, 0.412307
1510.09, 0.412288
1510.53, 0.411537
1510.97, 0.408636
1511.42, 0.406238
1511.86, 0.409640
1512.3, 0.416135
1512.74, 0.418977
1513.18, 0.421326
1513.62, 0.420498
1514.06, 0.418327
1514.51, 0.418979
1514.95, 0.419049
1515.39, 0.418710
1515.83, 0.422985
1516.28, 0.425234
1516.72, 0.421585
1517.16, 0.418793
1517.61, 0.424633
1518.05, 0.428898
1518.5, 0.428331
1518.94, 0.426227
1519.39, 0.430202
1519.83, 0.433368
1520.28, 0.430117
1520.73, 0.428382
1521.17, 0.430918
1521.62, 0.432454
1522.07, 0.434518
1522.51, 0.432133
1522.96, 0.429776
1523.41, 0.430541
1523.85, 0.435744
1524.3, 0.440073
1524.75, 0.439258
1525.2, 0.440693
1525.65, 0.446081
1526.1, 0.447341
1526.55, 0.444555
1527.0, 0.443281
1527.45, 0.443051
1527.9, 0.443129
1528.35, 0.441773
1528.8, 0.440804
1529.25, 0.442258
1529.7, 0.445139
1530.15, 0.446241
1530.6, 0.448280
1531.05, 0.453102
1531.51, 0.456246
1531.96, 0.455499
1532.41, 0.453012
1532.87, 0.450489
1533.32, 0.449379
1533.77, 0.455531
1534.23, 0.458586
1534.68, 0.456033
1535.14, 0.454291
1535.59, 0.453657
1536.05, 0.456380
1536.5, 0.462597
1536.96, 0.461765
1537.41, 0.458124
1537.87, 0.460320
1538.32, 0.463095
1538.78, 0.464454
1539.24, 0.464569
1539.7, 0.468203
1540.15, 0.467538
1540.61, 0.462956
1541.07, 0.465627
1541.53, 0.466756
1541.98, 0.465265
1542.44, 0.468416
1542.9, 0.471106
1543.36, 0.469924
1543.82, 0.468120
1544.28, 0.469725
1544.74, 0.471751
1545.2, 0.469488
1545.66, 0.469151
1546.12, 0.472109
1546.59, 0.475248
1547.05, 0.472120
1547.51, 0.471047
1547.97, 0.473705
1548.43, 0.476848
1548.9, 0.477587
1549.36, 0.476321
1549.82, 0.477365
1550.29, 0.480272
1550.75, 0.481188
1551.21, 0.479752
1551.68, 0.478478
1552.14, 0.481472
1552.61, 0.482636
1553.07, 0.483432
1553.54, 0.485537
1554.0, 0.483296
1554.47, 0.480246
1554.93, 0.483300
1555.4, 0.486513
1555.87, 0.486144
1556.34, 0.483770
1556.8, 0.488360
1557.27, 0.496479
1557.74, 0.499032
1558.21, 0.499254
1558.68, 0.498616
1559.14, 0.497181
1559.61, 0.495823
1560.08, 0.496673
1560.55, 0.496248
1561.02, 0.493721
1561.49, 0.493999
1561.96, 0.496408
1562.43, 0.497977
1562.9, 0.496954
1563.38, 0.498022
1563.85, 0.502600
1564.32, 0.504346
1564.79, 0.501539
1565.26, 0.499396
1565.74, 0.501695
1566.21, 0.503301
1566.68, 0.505806
1567.16, 0.506688
1567.63, 0.504367
1568.1, 0.505102
1568.58, 0.508841
1569.05, 0.510932
1569.53, 0.512857
1570.0, 0.513530
1570.48, 0.512560
1570.96, 0.513856
1571.43, 0.513115
1571.91, 0.511129
1572.39, 0.512557
1572.86, 0.514335
1573.34, 0.514425
1573.82, 0.516784
1574.3, 0.520000
1574.77, 0.520208
1575.25, 0.515721
1575.73, 0.514406
1576.21, 0.517508
1576.69, 0.519486
1577.17, 0.522761
1577.65, 0.524281
1578.13, 0.522545
1578.61, 0.523709
1579.09, 0.526789
1579.57, 0.526890
1580.05, 0.525216
1580.54, 0.523987
1581.02, 0.525468
1581.5, 0.525710
1581.98, 0.528394
1582.47, 0.532814
1582.95, 0.533334
1583.43, 0.530530
1583.92, 0.531008
1584.4, 0.530685
1584.88, 0.527977
1585.37, 0.532245
1585.85, 0.532738
1586.34, 0.529842
1586.82, 0.533843
1587.31, 0.536537
1587.8, 0.532916
1588.28, 0.532891
1588.77, 0.538216
1589.26, 0.540173
1589.74, 0.535846
1590.23, 0.535662
1590.72, 0.537048
1591.21, 0.536419
1591.7, 0.537893
1592.19, 0.541851
1592.67, 0.542558
1593.16, 0.541710
1593.65, 0.544296
1594.14, 0.544914
1594.63, 0.542324
1595.12, 0.542664
1595.61, 0.544284
1596.11, 0.544949
1596.6, 0.545871
1597.09, 0.546165
1597.58, 0.547511
1598.08, 0.546916
1598.57, 0.544418
1599.06, 0.547136
1599.55, 0.551035
1600.05, 0.552504
1600.54, 0.553156
1601.04, 0.555721
1601.53, 0.557222
1602.03, 0.555792
1602.52, 0.554313
1603.02, 0.555654
1603.51, 0.557729
1604.01, 0.555280
1604.5, 0.552810
1605.0, 0.559203
1605.5, 0.561556
1606.0, 0.557500
1606.49, 0.559169
1606.99, 0.562349
1607.49, 0.561682
1607.99, 0.564890
1608.49, 0.566095
1608.99, 0.563306
1609.49, 0.564375
1609.99, 0.564100
1610.49, 0.561685
1610.99, 0.562296
1611.49, 0.565584
1611.99, 0.567896
1612.49, 0.569592
1612.99, 0.568689
1613.49, 0.564953
1614.0, 0.565127
1614.5, 0.567116
1615.0, 0.568675
1615.51, 0.568457
1616.01, 0.569692
1616.51, 0.571097
1617.02, 0.570161
1617.52, 0.571157
1618.03, 0.574829
1618.53, 0.574024
1619.04, 0.572259
1619.54, 0.571393
1620.05, 0.571099
1620.55, 0.573713
1621.06, 0.576332
1621.57, 0.578081
1622.08, 0.575444
1622.58, 0.570986
1623.09, 0.571646
1623.6, 0.574916
1624.11, 0.577475
1624.62, 0.577265
1625.13, 0.579672
1625.64, 0.581876
1626.15, 0.581602
1626.66, 0.580863
1627.17, 0.579813
1627.68, 0.579888
1628.19, 0.580528
1628.7, 0.581292
1629.21, 0.583954
1629.72, 0.584547
1630.24, 0.582752
1630.75, 0.583651
1631.26, 0.588973
1631.78, 0.592118
1632.29, 0.588174
1632.8, 0.582213
1633.32, 0.585257
1633.83, 0.591086
1634.35, 0.589696
1634.86, 0.587887
1635.38, 0.590740
1635.9, 0.590558
1636.41, 0.590096
1636.93, 0.588803
1637.45, 0.588738
1637.96, 0.591797
1638.48, 0.594757
1639.0, 0.593429
1639.52, 0.591041
1640.04, 0.593224
1640.56, 0.593508
1641.08, 0.589984
1641.59, 0.592186
1642.11, 0.599218
1642.63, 0.599545
1643.16, 0.597226
1643.68, 0.598788
1644.2, 0.599497
1644.72, 0.599778
1645.24, 0.599593
1645.76, 0.598615
1646.29, 0.599642
1646.81, 0.602159
1647.33, 0.601878
1647.86, 0.602069
1648.38, 0.604062
1648.9, 0.604888
1649.43, 0.601958
1649.95, 0.603147
1650.48, 0.605083
1651.0, 0.603519
1651.53, 0.602658
1652.06, 0.604851
1652.58, 0.606967
1653.11, 0.607759
1653.64, 0.606970
1654.17, 0.607369
1654.69, 0.608022
1655.22, 0.609451
1655.75, 0.608365
1656.28, 0.606094
1656.81, 0.606132
1657.34, 0.609486
1657.87, 0.613524
1658.4, 0.615265
1658.93, 0.616100
1659.46, 0.615058
1659.99, 0.612503
1660.52, 0.611702
1661.05, 0.613068
1661.59, 0.614733
1662.12, 0.612497
1662.65, 0.609780
1663.19, 0.612022
1663.72, 0.615693
1664.26, 0.614614
1664.79, 0.612465
1665.32, 0.614538
1665.86, 0.617472
1666.39, 0.616938
1666.93, 0.616816
1667.47, 0.616953
1668.0, 0.615279
1668.54, 0.615672
1669.08, 0.619203
1669.61, 0.618566
1670.15, 0.616188
1670.69, 0.617700
1671.23, 0.618903
1671.77, 0.618409
1672.31, 0.621706
1672.85, 0.622452
1673.39, 0.620528
1673.93, 0.622285
1674.47, 0.623058
1675.01, 0.623428
1675.55, 0.622904
1676.09, 0.621343
1676.64, 0.621576
1677.18, 0.623289
1677.72, 0.625975
1678.26, 0.627517
1678.81, 0.624467
1679.35, 0.622514
1679.89, 0.623827
1680.44, 0.626454
1680.98, 0.626622
1681.53, 0.626828
1682.07, 0.627558
1682.62, 0.627664
1683.17, 0.627471
1683.71, 0.626500
1684.26, 0.626764
1684.81, 0.627468
1685.36, 0.628234
1685.9, 0.630912
1686.45, 0.632456
1687.0, 0.631805
1687.55, 0.632883
1688.1, 0.633015
1688.65, 0.632408
1689.2, 0.631871
1689.75, 0.631736
1690.3, 0.631753
1690.85, 0.631799
1691.41, 0.631137
1691.96, 0.631016
1692.51, 0.631975
1693.06, 0.633143
1693.61, 0.633940
1694.17, 0.632651
1694.72, 0.630937
1695.28, 0.632250
1695.83, 0.633197
1696.39, 0.633807
1696.94, 0.634977
1697.5, 0.635451
1698.05, 0.636723
1698.61, 0.634638
1699.17, 0.633226
1699.72, 0.636878
1700.28, 0.640634
1700.84, 0.637971
1701.4, 0.636050
1701.95, 0.637185
1702.51, 0.636651
1703.07, 0.637843
1703.63, 0.639523
1704.19, 0.636920
1704.75, 0.635325
1705.31, 0.637554
1705.88, 0.638893
1706.44, 0.641239
1707.0, 0.644184
1707.56, 0.642901
1708.12, 0.641464
1708.69, 0.640923
1709.25, 0.640432
1709.81, 0.640123
1710.38, 0.639801
1710.94, 0.640159
1711.51, 0.639258
1712.07, 0.640733
1712.64, 0.641382
1713.2, 0.639419
1713.77, 0.642362
1714.34, 0.646828
1714.9, 0.646257
1715.47, 0.644135
1716.04, 0.644123
1716.61, 0.645185
1717.18, 0.645396
1717.74, 0.645781
1718.31, 0.645767
1718.88, 0.644075
1719.45, 0.642210
1720.02, 0.643156
1720.59, 0.644736
1721.17, 0.645494
1721.74, 0.646791
1722.31, 0.647517
1722.88, 0.647875
1723.45, 0.649200
1724.03, 0.650932
1724.6, 0.647347
1725.18, 0.643730
1725.75, 0.645838
1726.33, 0.648080
1726.9, 0.649736
1727.48, 0.650090
1728.05, 0.646916
1728.63, 0.644934
1729.2, 0.644870
1729.78, 0.647411
1730.36, 0.650484
1730.94, 0.649800
1731.51, 0.650346
1732.09, 0.649928
1732.67, 0.648181
1733.25, 0.648987
1733.83, 0.651404
1734.41, 0.650393
1734.99, 0.649806
1735.57, 0.651807
1736.15, 0.652452
1736.73, 0.651429
1737.32, 0.651980
1737.9, 0.654058
1738.48, 0.657295
1739.07, 0.658422
1739.65, 0.656804
1740.23, 0.655020
1740.82, 0.652617
1741.4, 0.653633
1741.99, 0.655350
1742.57, 0.655077
1743.16, 0.656750
1743.74, 0.657674
1744.33, 0.655747
1744.92, 0.654944
1745.51, 0.655339
1746.09, 0.654343
1746.68, 0.653941
1747.27, 0.654231
1747.86, 0.652169
1748.45, 0.651703
1749.04, 0.653752
1749.63, 0.656087
1750.22, 0.657425
1750.81, 0.657601
1751.4, 0.656038
1751.99, 0.654359
1752.59, 0.655913
1753.18, 0.659306
1753.77, 0.659295
1754.37, 0.656238
1754.96, 0.656707
1755.56, 0.657943
1756.15, 0.657175
1756.74, 0.656415
1757.34, 0.657468
1757.94, 0.660490
1758.53, 0.661472
1759.13, 0.658521
1759.73, 0.658166
1760.32, 0.657940
1760.92, 0.657189
1761.52, 0.658182
1762.12, 0.659061
1762.72, 0.659309
1763.32, 0.659917
1763.92, 0.660149
1764.52, 0.659135
1765.12, 0.659624
1765.72, 0.660517
1766.32, 0.661002
1766.92, 0.662651
1767.53, 0.662386
1768.13, 0.661713
1768.73, 0.661853
1769.34, 0.661243
1769.94, 0.661896
1770.55, 0.662700
1771.15, 0.662776
1771.76, 0.663458
1772.36, 0.661785
1772.97, 0.659693
1773.57, 0.661425
1774.18, 0.662727
1774.79, 0.660951
1775.4, 0.660140
1776.0, 0.661185
1776.61, 0.662724
1777.22, 0.663457
1777.83, 0.662249
1778.44, 0.660900
1779.05, 0.662706
1779.66, 0.665003
1780.27, 0.665564
1780.88, 0.665552
1781.5, 0.665806
1782.11, 0.665027
1782.72, 0.664088
1783.33, 0.663532
1783.95, 0.664526
1784.56, 0.666763
1785.18, 0.665341
1785.79, 0.663338
1786.41, 0.665604
1787.02, 0.667480
1787.64, 0.666990
1788.26, 0.665844
1788.87, 0.664732
1789.49, 0.664266
1790.11, 0.666170
1790.73, 0.665725
1791.35, 0.664525
1791.96, 0.666048
1792.58, 0.667140
1793.21, 0.666321
1793.83, 0.665918
1794.45, 0.666292
1795.07, 0.665794
1795.69, 0.665024
1796.31, 0.665321
1796.93, 0.664986
1797.56, 0.665828
1798.18, 0.666693
1798.8, 0.665911
1799.43, 0.665503
1800.05, 0.665550
1800.68, 0.666690
1801.3, 0.666780
1801.93, 0.665981
1802.56, 0.666257
1803.18, 0.666653
1803.81, 0.667202
1804.44, 0.667023
1805.07, 0.666666
1805.7, 0.667146
1806.33, 0.667682
1806.95, 0.669401
1807.58, 0.668643
1808.22, 0.665321
1808.85, 0.666068
1809.48, 0.669266
1810.11, 0.670812
1810.74, 0.669661
1811.38, 0.668052
1812.01, 0.668248
1812.64, 0.668240
1813.28, 0.667533
1813.91, 0.669828
1814.55, 0.670950
1815.18, 0.668190
1815.82, 0.667296
1816.45, 0.668528
1817.09, 0.668164
1817.73, 0.667905
1818.36, 0.669246
1819.0, 0.670587
1819.64, 0.668287
1820.28, 0.666155
1820.92, 0.667212
1821.56, 0.667974
1822.2, 0.666477
1822.84, 0.665208
1823.48, 0.666482
1824.12, 0.668514
1824.76, 0.670716
1825.41, 0.670402
1826.05, 0.668543
1826.69, 0.667557
1827.34, 0.668142
1827.98, 0.669659
1828.63, 0.669802
1829.27, 0.669317
1829.92, 0.668718
1830.56, 0.669012
1831.21, 0.671838
1831.86, 0.672732
1832.5, 0.670593
1833.15, 0.670101
1833.8, 0.670589
1834.45, 0.670448
1835.1, 0.669680
1835.75, 0.668862
1836.4, 0.670857
1837.05, 0.673223
1837.7, 0.671549
1838.35, 0.670535
1839.01, 0.671092
1839.66, 0.671119
1840.31, 0.671161
1840.96, 0.672767
1841.62, 0.672468
1842.27, 0.670411
1842.93, 0.670564
1843.58, 0.671498
1844.24, 0.672615
1844.9, 0.673567
1845.55, 0.673668
1846.21, 0.674102
1846.87, 0.673465
1847.53, 0.671306
1848.18, 0.670832
1848.84, 0.671661
1849.5, 0.671117
1850.16, 0.670881
1850.82, 0.670542
1851.48, 0.670265
1852.14, 0.669556
1852.81, 0.668865
1853.47, 0.669080
1854.13, 0.670777
1854.8, 0.673646
1855.46, 0.672911
1856.12, 0.671025
1856.79, 0.671684
1857.45, 0.672353
1858.12, 0.671715
1858.79, 0.672152
1859.45, 0.673972
1860.12, 0.675213
1860.79, 0.674709
1861.46, 0.673739
1862.12, 0.672826
1862.79, 0.672776
1863.46, 0.673422
1864.13, 0.673635
1864.8, 0.672257
1865.48, 0.670678
1866.15, 0.671264
1866.82, 0.672008
1867.49, 0.672778
1868.16, 0.673319
1868.84, 0.673094
1869.51, 0.673170
1870.19, 0.674435
1870.86, 0.675240
1871.54, 0.674179
1872.21, 0.672493
1872.89, 0.671070
1873.56, 0.670484
1874.24, 0.670872
1874.92, 0.673190
1875.6, 0.674338
1876.28, 0.672482
1876.96, 0.671500
1877.64, 0.670925
1878.32, 0.669748
1879.0, 0.669902
1879.68, 0.671273
1880.36, 0.672280
1881.04, 0.671989
1881.73, 0.671218
1882.41, 0.670517
1883.09, 0.670095
1883.78, 0.671002
1884.46, 0.673054
1885.15, 0.673495
1885.83, 0.672894
1886.52, 0.672884
1887.21, 0.673743
1887.89, 0.674157
1888.58, 0.673030
1889.27, 0.672447
1889.96, 0.673322
1890.65, 0.672778
1891.34, 0.673377
1892.03, 0.674198
1892.72, 0.673501
1893.41, 0.673433
1894.1, 0.674179
1894.79, 0.674299
1895.49, 0.673193
1896.18, 0.673620
1896.87, 0.674602
1897.57, 0.673804
1898.26, 0.673399
1898.96, 0.671751
1899.65, 0.669927
1900.35, 0.671003
1901.05, 0.672322
1901.74, 0.672689
1902.44, 0.673380
1903.14, 0.672958
1903.84, 0.671337
1904.54, 0.671570
1905.24, 0.672231
1905.94, 0.671773
1906.64, 0.671776
1907.34, 0.672506
1908.04, 0.673290
1908.75, 0.674053
1909.45, 0.673520
1910.15, 0.672079
1910.86, 0.672117
1911.56, 0.673218
1912.27, 0.674104
1912.97, 0.673964
1913.68, 0.674310
1914.39, 0.674561
1915.09, 0.674810
1915.8, 0.673405
1916.51, 0.671551
1917.22, 0.672786
1917.93, 0.672492
1918.64, 0.670871
1919.35, 0.671290
1920.06, 0.671763
1920.77, 0.671901
1921.48, 0.671896
1922.19, 0.671590
1922.91, 0.672414
1923.62, 0.673858
1924.33, 0.673462
1925.05, 0.672735
1925.76, 0.672310
1926.48, 0.672074
1927.19, 0.672319
1927.91, 0.672505
1928.63, 0.672523
1929.35, 0.671970
1930.07, 0.671758
1930.78, 0.672451
1931.5, 0.673104
1932.22, 0.672770
1932.94, 0.671578
1933.66, 0.671028
1934.39, 0.671151
1935.11, 0.671720
1935.83, 0.673000
1936.55, 0.673751
1937.28, 0.673559
1938.0, 0.672971
1938.73, 0.674424
1939.45, 0.674935
1940.18, 0.673286
1940.9, 0.671449
1941.63, 0.671118
1942.36, 0.671670
1943.09, 0.671561
1943.81, 0.672254
1944.54, 0.673384
1945.27, 0.672665
1946.0, 0.671666
1946.73, 0.671773
1947.47, 0.672907
1948.2, 0.674624
1948.93, 0.674605
1949.66, 0.673636
1950.4, 0.673170
1951.13, 0.672889
1951.86, 0.673363
1952.6, 0.672953
1953.34, 0.673234
1954.07, 0.673428
1954.81, 0.671992
1955.55, 0.671744
1956.29, 0.672202
1957.02, 0.671857
1957.76, 0.673018
1958.5, 0.674279
1959.24, 0.673974
1959.98, 0.673728
1960.72, 0.673899
1961.47, 0.673377
1962.21, 0.671865
1962.95, 0.671037
1963.7, 0.672526
1964.44, 0.673354
1965.18, 0.672893
1965.93, 0.671952
1966.67, 0.671001
1967.42, 0.672352
1968.17, 0.673801
1968.92, 0.673247
1969.66, 0.673796
1970.41, 0.674409
1971.16, 0.673999
1971.91, 0.673938
1972.66, 0.673889
1973.41, 0.674028
1974.16, 0.674571
1974.92, 0.675411
1975.67, 0.675060
1976.42, 0.674648
1977.18, 0.674890
1977.93, 0.675148
1978.69, 0.674989
1979.44, 0.673923
1980.2, 0.672919
1980.95, 0.673103
1981.71, 0.674459
1982.47, 0.674033
1983.23, 0.672746
1983.99, 0.673842
1984.74, 0.675475
1985.51, 0.674373
1986.27, 0.671903
1987.03, 0.671641
1987.79, 0.672417
1988.55, 0.673744
1989.32, 0.675408
1990.08, 0.674452
1990.84, 0.674009
1991.61, 0.675363
1992.37, 0.675503
1993.14, 0.674158
1993.9, 0.673205
1994.67, 0.674044
1995.44, 0.673802
1996.21, 0.672392
1996.98, 0.671988
1997.75, 0.672425
1998.52, 0.673231
1999.29, 0.674089
2000.06, 0.673893
2000.83, 0.672972
2001.6, 0.672371
2002.38, 0.672275
2003.15, 0.673887
2003.93, 0.675197
2004.7, 0.674289
2005.48, 0.673618
2006.25, 0.673548
2007.03, 0.672588
2007.81, 0.672909
2008.58, 0.674243
2009.36, 0.674277
2010.14, 0.673644
2010.92, 0.674335
2011.7, 0.675263
2012.48, 0.674194
2013.26, 0.673263
2014.05, 0.673251
2014.83, 0.674457
2015.61, 0.675695
2016.4, 0.676130
2017.18, 0.674984
2017.97, 0.674742
2018.75, 0.675917
2019.54, 0.675261
2020.32, 0.674036
2021.11, 0.674354
2021.9, 0.674769
2022.69, 0.673595
2023.48, 0.674149
2024.27, 0.676362
2025.06, 0.676912
2025.85, 0.675861
2026.64, 0.675550
2027.44, 0.675918
2028.23, 0.675636
2029.02, 0.675396
2029.82, 0.674973
2030.61, 0.674530
2031.41, 0.674710
2032.2, 0.674950
2033.0, 0.675400
2033.8, 0.675302
2034.6, 0.674390
2035.4, 0.673238
2036.2, 0.672714
2037.0, 0.673190
2037.8, 0.673203
2038.6, 0.673492
2039.4, 0.674174
2040.2, 0.674616
2041.01, 0.674333
2041.81, 0.673749
2042.61, 0.674101
2043.42, 0.674534
2044.22, 0.674130
2045.03, 0.673529
2045.84, 0.673073
2046.65, 0.673492
2047.46, 0.675256
2048.26, 0.676899
2049.07, 0.677215
2049.88, 0.677110
2050.69, 0.676241
2051.51, 0.674600
2052.32, 0.673811
2053.13, 0.673422
2053.94, 0.673419
2054.76, 0.674117
2055.57, 0.674031
2056.39, 0.674667
2057.2, 0.674926
2058.02, 0.673291
2058.84, 0.672177
2059.66, 0.673305
2060.48, 0.674569
2061.29, 0.674444
2062.11, 0.674840
2062.94, 0.675810
2063.76, 0.675173
2064.58, 0.674236
2065.4, 0.674840
2066.22, 0.675561
2067.05, 0.674201
2067.87, 0.674247
2068.7, 0.674875
2069.52, 0.674609
2070.35, 0.674880
2071.18, 0.674730
2072.0, 0.674945
2072.83, 0.674760
2073.66, 0.674864
2074.49, 0.675925
2075.32, 0.676315
2076.15, 0.674640
2076.98, 0.673455
2077.82, 0.674514
2078.65, 0.675290
2079.48, 0.674616
2080.32, 0.673961
2081.15, 0.674776
2081.99, 0.676006
2082.83, 0.675603
2083.66, 0.674493
2084.5, 0.673899
2085.34, 0.673999
2086.18, 0.674245
2087.02, 0.674585
2087.86, 0.674743
2088.7, 0.674180
2089.54, 0.674375
2090.39, 0.675952
2091.23, 0.675782
2092.07, 0.674604
2092.92, 0.675129
2093.76, 0.675640
2094.61, 0.675628
2095.45, 0.675228
2096.3, 0.674661
2097.15, 0.675007
2098.0, 0.675908
2098.85, 0.676492
2099.7, 0.676257
2100.55, 0.675537
2101.4, 0.675463
2102.25, 0.675430
2103.1, 0.675333
2103.96, 0.676788
2104.81, 0.677146
2105.67, 0.675945
2106.52, 0.676127
2107.38, 0.676708
2108.24, 0.675880
2109.09, 0.675148
2109.95, 0.675958
2110.81, 0.676007
2111.67, 0.675887
2112.53, 0.676677
2113.39, 0.676032
2114.25, 0.674956
2115.12, 0.674151
2115.98, 0.674082
2116.84, 0.675133
2117.71, 0.675001
2118.58, 0.674466
2119.44, 0.675412
2120.31, 0.676444
2121.18, 0.676236
2122.04, 0.676203
2122.91, 0.676831
2123.78, 0.676396
2124.65, 0.676223
2125.52, 0.676999
2126.4, 0.676953
2127.27, 0.676365
2128.14, 0.676653
2129.02, 0.676779
2129.89, 0.676548
2130.77, 0.676423
2131.64, 0.676033
2132.52, 0.675586
2133.4, 0.675480
2134.27, 0.676495
2135.15, 0.677009
2136.03, 0.675350
2136.91, 0.674031
2137.79, 0.674218
2138.68, 0.675253
2139.56, 0.676005
2140.44, 0.676059
2141.33, 0.676258
2142.21, 0.675599
2143.1, 0.674077
2143.99, 0.673897
2144.87, 0.675287
2145.76, 0.676197
2146.65, 0.676221
2147.54, 0.676024
2148.43, 0.676386
2149.32, 0.676574
2150.21, 0.675954
2151.1, 0.675157
2151.99, 0.674769
2152.89, 0.674480
2153.78, 0.675644
2154.68, 0.676025
2155.57, 0.675299
2156.47, 0.675203
2157.37, 0.674950
2158.27, 0.674868
2159.16, 0.674962
2160.06, 0.675244
2160.96, 0.675237
2161.86, 0.674446
2162.77, 0.674312
2163.67, 0.676122
2164.57, 0.677540
2165.48, 0.676597
2166.38, 0.675745
2167.29, 0.675189
2168.2, 0.675013
2169.1, 0.675690
2170.01, 0.676016
2170.92, 0.676239
2171.83, 0.675978
2172.74, 0.675353
2173.65, 0.675341
2174.56, 0.675451
2175.47, 0.675940
2176.39, 0.676746
2177.3, 0.677156
2178.22, 0.676210
2179.13, 0.675155
2180.05, 0.675435
2180.96, 0.675878
2181.88, 0.676295
2182.8, 0.676028
2183.72, 0.675551
2184.64, 0.674920
2185.56, 0.674298
2186.48, 0.674740
2187.41, 0.675572
2188.33, 0.674884
2189.25, 0.674929
2190.18, 0.676085
2191.1, 0.675961
2192.03, 0.675075
2192.96, 0.674094
2193.89, 0.674146
2194.82, 0.674703
2195.74, 0.674858
2196.68, 0.675098
2197.61, 0.675349
2198.54, 0.675362
2199.47, 0.675408
2200.4, 0.676315
2201.34, 0.676919
2202.28, 0.676175
2203.21, 0.675754
2204.15, 0.675105
2205.08, 0.674666
2206.02, 0.675138
2206.96, 0.674850
2207.9, 0.674525
2208.84, 0.675027
2209.78, 0.675131
2210.73, 0.674702
2211.67, 0.674173
2212.61, 0.675309
2213.56, 0.676148
2214.5, 0.676395
2215.45, 0.676525
2216.4, 0.674895
2217.35, 0.674501
2218.3, 0.675866
2219.24, 0.675957
2220.2, 0.674884
2221.15, 0.674524
2222.1, 0.675581
2223.05, 0.676521
2224.0, 0.675645
2224.96, 0.674615
2225.91, 0.675417
2226.87, 0.676270
2227.83, 0.676249
2228.79, 0.676480
2229.74, 0.676664
2230.7, 0.676482
2231.66, 0.675615
2232.63, 0.674711
2233.59, 0.674270
2234.55, 0.674423
2235.51, 0.674938
2236.48, 0.675531
2237.44, 0.675832
2238.41, 0.675184
2239.38, 0.674553
2240.34, 0.675250
2241.31, 0.675613
2242.28, 0.674883
2243.25, 0.674246
2244.22, 0.674238
2245.19, 0.675232
2246.17, 0.675894
2247.14, 0.675879
2248.12, 0.675431
2249.09, 0.674761
2250.07, 0.675163
2251.04, 0.675970
2252.02, 0.675528
2253.0, 0.674155
2253.98, 0.673471
2254.96, 0.673501
2255.94, 0.674325
2256.92, 0.675238
2257.91, 0.674822
2258.89, 0.674524
2259.88, 0.674574
2260.86, 0.674154
2261.85, 0.674243
2262.83, 0.675018
2263.82, 0.674942
2264.81, 0.674445
2265.8, 0.674586
2266.79, 0.674356
2267.78, 0.674323
2268.78, 0.675004
2269.77, 0.674887
2270.76, 0.674414
2271.76, 0.674516
2272.75, 0.674518
2273.75, 0.673710
2274.75, 0.673512
2275.75, 0.673873
2276.75, 0.673316
2277.75, 0.673005
2278.75, 0.673740
2279.75, 0.674677
2280.75, 0.674964
2281.76, 0.674718
2282.76, 0.674217
2283.77, 0.673338
2284.77, 0.673030
2285.78, 0.673339
2286.79, 0.673874
2287.8, 0.674200
2288.81, 0.673932
2289.82, 0.674389
2290.83, 0.674187
2291.84, 0.673848
2292.86, 0.674965
2293.87, 0.674959
2294.89, 0.674204
2295.91, 0.673928
2296.92, 0.673501
2297.94, 0.673063
2298.96, 0.673174
2299.98, 0.673908
2301.0, 0.674347
2302.02, 0.674115
2303.04, 0.673836
2304.07, 0.674230
2305.09, 0.673726
2306.12, 0.672508
2307.15, 0.672832
2308.17, 0.673839
2309.2, 0.674214
2310.23, 0.674003
2311.26, 0.673677
2312.29, 0.673579
2313.32, 0.673626
2314.35, 0.673536
2315.39, 0.673364
2316.42, 0.673556
2317.46, 0.673893
2318.5, 0.673393
2319.53, 0.673915
2320.57, 0.674963
2321.61, 0.674741
2322.65, 0.674558
2323.69, 0.674450
2324.73, 0.674626
2325.78, 0.674551
2326.82, 0.673892
2327.86, 0.674110
2328.91, 0.674551
2329.96, 0.674720
2331.01, 0.674539
2332.05, 0.674047
2333.1, 0.673732
2334.15, 0.673381
2335.21, 0.673837
2336.26, 0.674204
2337.31, 0.673307
2338.36, 0.673729
2339.42, 0.675218
2340.48, 0.675400
2341.53, 0.674704
2342.59, 0.674163
2343.65, 0.674033
2344.71, 0.673930
2345.77, 0.673348
2346.83, 0.672864
2347.9, 0.673508
2348.96, 0.673959
2350.02, 0.673371
2351.09, 0.672599
2352.16, 0.672140
2353.23, 0.672699
2354.29, 0.672845
2355.36, 0.672184
2356.43, 0.672624
2357.51, 0.673308
2358.58, 0.672879
2359.65, 0.672790
2360.73, 0.673929
2361.8, 0.674247
2362.88, 0.673320
2363.96, 0.672840
2365.03, 0.673303
2366.11, 0.673632
2367.19, 0.673828
2368.27, 0.674205
2369.36, 0.673863
2370.44, 0.673562
2371.53, 0.673542
2372.61, 0.673152
2373.7, 0.673286
2374.78, 0.674313
2375.87, 0.674256
2376.96, 0.673380
2378.05, 0.673532
2379.14, 0.673668
2380.24, 0.673611
2381.33, 0.673779
2382.42, 0.673116
2383.52, 0.672527
2384.61, 0.672289
2385.71, 0.672081
2386.81, 0.671921
2387.91, 0.672720
2389.01, 0.673346
2390.11, 0.672297
2391.22, 0.672643
2392.32, 0.673664
2393.42, 0.674183
2394.53, 0.674021
2395.64, 0.673013
2396.74, 0.673311
2397.85, 0.673808
2398.96, 0.673573
2400.07, 0.673494
2401.18, 0.673356
2402.3, 0.673321
2403.41, 0.673558
2404.52, 0.673074
2405.64, 0.672242
2406.76, 0.671958
2407.88, 0.672651
2408.99, 0.673540
2410.11, 0.673088
2411.23, 0.671865
2412.36, 0.671639
2413.48, 0.671421
2414.6, 0.671873
2415.73, 0.672669
2416.85, 0.672464
2417.98, 0.672566
2419.11, 0.672763
2420.24, 0.672552
2421.37, 0.672176
2422.5, 0.671901
2423.64, 0.671945
2424.77, 0.672050
2425.9, 0.672125
2427.04, 0.672399
2428.18, 0.672944
2429.31, 0.673072
2430.45, 0.672927
2431.59, 0.673117
2432.73, 0.673387
2433.88, 0.673330
2435.02, 0.672534
2436.16, 0.671601
2437.31, 0.671570
2438.45, 0.672297
2439.6, 0.672490
2440.75, 0.672603
2441.9, 0.672464
2443.05, 0.671663
2444.2, 0.671597
2445.35, 0.671878
2446.51, 0.671978
2447.67, 0.672553
2448.82, 0.672375
2449.98, 0.672220
2451.14, 0.673292
2452.3, 0.673684
2453.46, 0.672904
2454.62, 0.671950
2455.78, 0.671483
2456.94, 0.671283
2458.11, 0.671514
2459.28, 0.672119
2460.44, 0.671563
2461.61, 0.671474
2462.78, 0.672014
2463.95, 0.671173
2465.12, 0.670415
2466.3, 0.670394
2467.47, 0.670948
2468.65, 0.671234
2469.82, 0.670584
2471.0, 0.670098
2472.18, 0.670466
2473.36, 0.671049
2474.54, 0.671098
2475.72, 0.670901
2476.9, 0.671157
2478.08, 0.670991
2479.27, 0.670757
2480.46, 0.670749
2481.64, 0.670572
2482.83, 0.670522
2484.02, 0.669834
2485.21, 0.669597
2486.4, 0.670635
2487.6, 0.670654
2488.79, 0.669673
2489.99, 0.669103
2491.18, 0.669309
2492.38, 0.670383
2493.58, 0.671227
2494.78, 0.671152
2495.98, 0.670766
2497.18, 0.670118
2498.39, 0.669177
2499.59, 0.669357
2500.8, 0.669826
2502.01, 0.669580
2503.21, 0.669799
2504.42, 0.670613
2505.63, 0.670650
2506.84, 0.669746
2508.06, 0.668803
2509.27, 0.668741
2510.49, 0.669619
2511.7, 0.670329
2512.92, 0.670384
2514.14, 0.669931
2515.36, 0.669107
2516.58, 0.668709
2517.8, 0.668628
2519.03, 0.669003
2520.25, 0.669266
2521.48, 0.668638
2522.7, 0.668111
2523.93, 0.668477
2525.16, 0.669126
2526.39, 0.669560
2527.62, 0.669613
2528.86, 0.669108
2530.09, 0.668899
2531.33, 0.668933
2532.56, 0.668895
2533.8, 0.669072
2535.04, 0.669267
2536.28, 0.668807
2537.52, 0.668201
2538.76, 0.667944
2540.01, 0.667917
2541.25, 0.668322
2542.5, 0.669098
2543.75, 0.669199
2544.99, 0.668999
2546.24, 0.669274
2547.49, 0.669107
2548.75, 0.668259
2550.0, 0.667856
2551.26, 0.668556
2552.51, 0.668863
2553.77, 0.667980
2555.03, 0.667238
2556.29, 0.667257
2557.55, 0.667709
2558.81, 0.667848
2560.08, 0.667785
2561.34, 0.668726
2562.61, 0.669358
2563.88, 0.668692
2565.14, 0.667534
2566.41, 0.666505
2567.68, 0.666094
2568.96, 0.666266
2570.23, 0.666779
2571.51, 0.666449
2572.78, 0.666272
2574.06, 0.666762
2575.34, 0.667336
2576.62, 0.667886
2577.9, 0.667407
2579.18, 0.667123
2580.47, 0.667471
2581.75, 0.667106
2583.04, 0.667362
2584.32, 0.667650
2585.61, 0.666152
2586.9, 0.665961
2588.2, 0.666843
2589.49, 0.666287
2590.78, 0.665346
2592.08, 0.664883
2593.37, 0.666977
2594.67, 0.671690
2595.97, 0.671181
2597.27, 0.667039
2598.57, 0.665130
2599.88, 0.664248
2601.18, 0.664585
2602.49, 0.664913
2603.79, 0.665333
2605.1, 0.666124
2606.41, 0.665844
2607.72, 0.665385
2609.03, 0.665543
2610.35, 0.664676
2611.66, 0.663403
2612.98, 0.663514
2614.3, 0.663616
2615.62, 0.663936
2616.94, 0.664720
2618.26, 0.663528
2619.58, 0.663149
2620.91, 0.663953
2622.23, 0.662872
2623.56, 0.662205
2624.89, 0.662098
2626.22, 0.662253
2627.55, 0.661621
2628.88, 0.661112
2630.21, 0.663559
2631.55, 0.664298
2632.89, 0.662745
2634.22, 0.661804
2635.56, 0.661045
2636.9, 0.660759
2638.25, 0.660495
2639.59, 0.659951
2640.93, 0.659711
2642.28, 0.659800
2643.63, 0.659770
2644.98, 0.660253
2646.33, 0.660039
2647.68, 0.658460
2649.03, 0.657815
2650.39, 0.658100
2651.74, 0.658478
2653.1, 0.658520
2654.46, 0.657726
2655.82, 0.657208
2657.18, 0.657377
2658.54, 0.657965
2659.9, 0.658745
2661.27, 0.658769
2662.64, 0.657389
2664.01, 0.657395
2665.38, 0.659847
2666.74, 0.660301
2668.12, 0.657989
2669.49, 0.658413
2670.87, 0.659998
2672.24, 0.656893
2673.62, 0.654080
2675.0, 0.654828
2676.38, 0.656755
2677.76, 0.657051
2679.15, 0.655330
2680.54, 0.652818
2681.92, 0.651067
2683.31, 0.650983
2684.7, 0.650417
2686.09, 0.648902
2687.48, 0.647017
2688.88, 0.644591
2690.27, 0.641992
2691.67, 0.640327
2693.07, 0.639771
2694.47, 0.638695
2695.87, 0.635208
2697.27, 0.630539
2698.67, 0.626747
2700.08, 0.624536
2701.49, 0.622148
2702.9, 0.618957
2704.31, 0.616483
2705.72, 0.613988
2707.13, 0.611352
2708.54, 0.609790
2709.96, 0.608661
2711.38, 0.606973
2712.8, 0.603822
2714.22, 0.600806
2715.64, 0.599590
2717.06, 0.599325
2718.49, 0.599130
2719.91, 0.600296
2721.34, 0.599552
2722.77, 0.596834
2724.2, 0.596755
2725.63, 0.596231
2727.07, 0.594092
2728.5, 0.591861
2729.94, 0.589698
2731.38, 0.588389
2732.82, 0.587190
2734.26, 0.586098
2735.7, 0.585054
2737.15, 0.583635
2738.59, 0.583486
2740.04, 0.583379
2741.49, 0.580588
2742.94, 0.576601
2744.39, 0.573999
2745.84, 0.572426
2747.3, 0.571198
2748.76, 0.569658
2750.21, 0.567713
2751.67, 0.566541
2753.14, 0.565444
2754.6, 0.565208
2756.06, 0.563869
2757.53, 0.560402
2759.0, 0.557375
2760.46, 0.554951
2761.94, 0.554150
2763.41, 0.553511
2764.88, 0.551949
2766.36, 0.550837
2767.83, 0.549584
2769.31, 0.547699
2770.79, 0.545453
2772.27, 0.542933
2773.76, 0.540742
2775.24, 0.539681
2776.73, 0.539152
2778.22, 0.538603
2779.71, 0.537501
2781.2, 0.536285
2782.69, 0.535708
2784.18, 0.535515
2785.68, 0.535248
2787.18, 0.534646
2788.68, 0.532729
2790.18, 0.530239
2791.68, 0.529085
2793.19, 0.528613
2794.69, 0.527940
2796.2, 0.526655
2797.71, 0.525107
2799.22, 0.524381
2800.73, 0.523830
2802.24, 0.523701
2803.76, 0.523944
2805.28, 0.522813
2806.8, 0.521081
2808.32, 0.520426
2809.84, 0.520125
2811.36, 0.519491
2812.89, 0.518984
2814.42, 0.518861
2815.94, 0.518674
2817.48, 0.517755
2819.01, 0.516869
2820.54, 0.517066
2822.08, 0.516862
2823.61, 0.516278
2825.15, 0.516668
2826.69, 0.516373
2828.23, 0.514737
2829.78, 0.513636
2831.32, 0.513158
2832.87, 0.513033
2834.42, 0.512523
2835.97, 0.511513
2837.52, 0.511055
2839.08, 0.510511
2840.63, 0.509953
2842.19, 0.509641
2843.75, 0.509169
2845.31, 0.508783
2846.87, 0.508243
2848.44, 0.507646
2850.0, 0.507627
2851.57, 0.507342
2853.14, 0.506577
2854.71, 0.506140
2856.28, 0.505161
2857.86, 0.503896
2859.43, 0.503875
2861.01, 0.504052
2862.59, 0.503385
2864.17, 0.502593
2865.76, 0.502243
2867.34, 0.502112
2868.93, 0.501047
2870.52, 0.500189
2872.11, 0.500184
2873.7, 0.499741
2875.29, 0.499138
2876.89, 0.498960
2878.49, 0.499094
2880.08, 0.499244
2881.69, 0.498462
2883.29, 0.497168
2884.89, 0.496448
2886.5, 0.496458
2888.11, 0.496655
2889.72, 0.496487
2891.33, 0.495508
2892.94, 0.494666
2894.56, 0.494254
2896.17, 0.493514
2897.79, 0.492876
2899.42, 0.492936
2901.04, 0.492822
2902.66, 0.492116
2904.29, 0.491947
2905.92, 0.492293
2907.55, 0.492151
2909.18, 0.491653
2910.81, 0.491145
2912.45, 0.490854
2914.08, 0.490185
2915.72, 0.489137
2917.36, 0.488868
2919.01, 0.489020
2920.65, 0.489145
2922.3, 0.488927
2923.94, 0.488100
2925.59, 0.488004
2927.25, 0.488425
2928.9, 0.487799
2930.56, 0.487032
2932.21, 0.487127
2933.87, 0.486770
2935.53, 0.486373
2937.2, 0.486542
2938.86, 0.486752
2940.53, 0.487191
2942.2, 0.487255
2943.87, 0.486952
2945.54, 0.486696
2947.22, 0.486738
2948.89, 0.486972
2950.57, 0.486925
2952.25, 0.486641
2953.93, 0.485773
2955.62, 0.485502
2957.3, 0.486061
2958.99, 0.486014
2960.68, 0.485726
2962.37, 0.485686
2964.07, 0.485517
2965.76, 0.485733
2967.46, 0.485934
2969.16, 0.485535
2970.86, 0.484860
2972.56, 0.484111
2974.27, 0.483759
2975.98, 0.484138
2977.69, 0.484184
2979.4, 0.483844
2981.11, 0.484065
2982.83, 0.484507
2984.54, 0.484202
2986.26, 0.483858
2987.98, 0.484433
2989.71, 0.484724
2991.43, 0.484599
2993.16, 0.484735
2994.89, 0.484758
2996.62, 0.484662
2998.35, 0.484347
3000.09, 0.484221
3001.83, 0.484377
3003.57, 0.484157
3005.31, 0.484102
3007.05, 0.484382
3008.79, 0.484075
3010.54, 0.483693
3012.29, 0.483996
3014.04, 0.484083
3015.8, 0.483771
3017.55, 0.483819
3019.31, 0.484310
3021.07, 0.484734
3022.83, 0.484643
3024.59, 0.484325
3026.36, 0.484116
3028.13, 0.484365
3029.9, 0.484183
3031.67, 0.484049
3033.44, 0.484466
3035.22, 0.484533
3037.0, 0.484623
3038.78, 0.484613
3040.56, 0.484415
3042.34, 0.484644
3044.13, 0.484596
3045.92, 0.484270
3047.71, 0.484009
3049.5, 0.483699
3051.3, 0.483442
3053.09, 0.483558
3054.89, 0.484106
3056.69, 0.484126
3058.5, 0.483633
3060.3, 0.483847
3062.11, 0.483912
3063.92, 0.483650
3065.73, 0.483353
3067.55, 0.483455
3069.36, 0.483546
3071.18, 0.483297
3073.0, 0.483558
3074.82, 0.483835
3076.65, 0.483794
3078.48, 0.483792
3080.31, 0.483854
3082.14, 0.483925
3083.97, 0.484159
3085.8, 0.484092
3087.64, 0.483699
3089.48, 0.483173
3091.33, 0.482788
3093.17, 0.483004
3095.02, 0.483035
3096.87, 0.482942
3098.72, 0.482776
3100.57, 0.482835
3102.43, 0.483171
3104.28, 0.483522
3106.14, 0.483755
3108.01, 0.483634
3109.87, 0.483530
3111.74, 0.483508
3113.61, 0.483228
3115.48, 0.483133
3117.35, 0.483784
3119.23, 0.484121
3121.1, 0.483717
3122.98, 0.483891
3124.87, 0.484187
3126.75, 0.483925
3128.64, 0.484077
3130.53, 0.484541
3132.42, 0.484443
3134.31, 0.484471
3136.21, 0.484708
3138.11, 0.484280
3140.01, 0.484405
3141.91, 0.484921
3143.82, 0.484613
3145.73, 0.484763
3147.64, 0.484998
3149.55, 0.484291
3151.46, 0.483699
3153.38, 0.484025
3155.3, 0.484702
3157.22, 0.485134
3159.14, 0.485129
3161.07, 0.484804
3163.0, 0.484560
3164.93, 0.484567
3166.86, 0.484538
3168.8, 0.484371
3170.74, 0.484421
3172.68, 0.484771
3174.62, 0.484889
3176.56, 0.485058
3178.51, 0.484894
3180.46, 0.484897
3182.42, 0.485080
3184.37, 0.484626
3186.33, 0.484328
3188.29, 0.484244
3190.25, 0.484501
3192.21, 0.484909
3194.18, 0.484891
3196.15, 0.485050
3198.12, 0.484562
3200.09, 0.484106
3202.07, 0.484580
3204.05, 0.484849
3206.03, 0.484664
3208.02, 0.484364
3210.0, 0.483825
3211.99, 0.483741
3213.98, 0.483802
3215.98, 0.483457
3217.97, 0.483212
3219.97, 0.483389
3221.97, 0.483305
3223.98, 0.483235
3225.98, 0.483535
3227.99, 0.483324
3230.0, 0.482960
3232.02, 0.483019
3234.03, 0.482873
3236.05, 0.482614
3238.07, 0.482565
3240.1, 0.482689
3242.12, 0.482593
3244.15, 0.482336
3246.18, 0.482182
3248.22, 0.482105
3250.25, 0.481534
3252.29, 0.481162
3254.33, 0.481433
3256.38, 0.481574
3258.43, 0.481366
3260.47, 0.480983
3262.53, 0.480428
3264.58, 0.480155
3266.64, 0.479787
3268.7, 0.479537
3270.76, 0.479592
3272.82, 0.479436
3274.89, 0.479398
3276.96, 0.479419
3279.04, 0.478949
3281.11, 0.478400
3283.19, 0.478354
3285.27, 0.478109
3287.35, 0.477181
3289.44, 0.476611
3291.53, 0.476355
3293.62, 0.475984
3295.71, 0.475474
3297.81, 0.475228
3299.91, 0.474924
3302.01, 0.474391
3304.11, 0.474035
3306.22, 0.473459
3308.33, 0.473010
3310.44, 0.472797
3312.56, 0.472101
3314.68, 0.471204
3316.8, 0.470361
3318.92, 0.469638
3321.05, 0.469126
3323.18, 0.468829
3325.31, 0.468297
3327.44, 0.467699
3329.58, 0.466931
3331.72, 0.466253
3333.86, 0.465704
3336.01, 0.464820
3338.16, 0.463775
3340.31, 0.462920
3342.46, 0.462024
3344.61, 0.461430
3346.77, 0.461065
3348.94, 0.460552
3351.1, 0.459662
3353.27, 0.458677
3355.44, 0.457980
3357.61, 0.457711
3359.79, 0.456898
3361.97, 0.455684
3364.15, 0.454909
3366.33, 0.454444
3368.52, 0.453478
3370.71, 0.452374
3372.9, 0.451238
3375.1, 0.450316
3377.3, 0.450025
3379.5, 0.450034
3381.71, 0.450198
3383.91, 0.450227
3386.12, 0.449677
3388.34, 0.448984
3390.55, 0.448891
3392.77, 0.449368
3394.99, 0.449328
3397.22, 0.448253
3399.45, 0.446769
3401.68, 0.445691
3403.91, 0.444852
3406.15, 0.443818
3408.39, 0.442421
3410.63, 0.440983
3412.87, 0.439587
3415.12, 0.438262
3417.37, 0.437251
3419.63, 0.436649
3421.88, 0.436207
3424.14, 0.436151
3426.41, 0.436254
3428.67, 0.436541
3430.94, 0.437486
3433.21, 0.439615
3435.49, 0.441747
3437.77, 0.442542
3440.05, 0.442597
3442.33, 0.442756
3444.62, 0.442979
3446.91, 0.442725
3449.2, 0.442054
3451.5, 0.441652
3453.8, 0.441813
3456.1, 0.441732
3458.41, 0.441265
3460.72, 0.441133
3463.03, 0.440540
3465.34, 0.439559
3467.66, 0.438993
3469.98, 0.438504
3472.31, 0.437660
3474.63, 0.436718
3476.96, 0.436005
3479.3, 0.435818
3481.64, 0.435250
3483.97, 0.434347
3486.32, 0.433847
3488.66, 0.433299
3491.01, 0.432189
3493.36, 0.431092
3495.72, 0.430021
3498.08, 0.428687
3500.44, 0.427366
3502.81, 0.426628
3505.18, 0.425821
3507.55, 0.424752
3509.92, 0.424092
3512.3, 0.424744
3514.68, 0.426510
3517.06, 0.427781
3519.45, 0.427779
3521.84, 0.427272
3524.24, 0.426860
3526.64, 0.426787
3529.04, 0.426675
3531.44, 0.426474
3533.85, 0.426013
3536.26, 0.425422
3538.67, 0.425010
3541.09, 0.424704
3543.51, 0.424062
3545.93, 0.423275
3548.36, 0.422891
3550.79, 0.422593
3553.22, 0.421296
3555.66, 0.420259
3558.1, 0.420358
3560.54, 0.420286
3562.99, 0.419593
3565.44, 0.418951
3567.9, 0.418280
3570.35, 0.417534
3572.81, 0.417002
3575.28, 0.416917
3577.75, 0.416465
3580.22, 0.415740
3582.69, 0.415083
3585.17, 0.414495
3587.65, 0.413837
3590.14, 0.413123
3592.62, 0.412310
3595.11, 0.411431
3597.61, 0.410511
3600.11, 0.409744
3602.61, 0.409193
3605.11, 0.408454
3607.62, 0.407404
3610.14, 0.406773
3612.65, 0.406100
3615.17, 0.405064
3617.69, 0.404061
3620.22, 0.403361
3622.75, 0.402532
3625.28, 0.401663
3627.82, 0.401096
3630.36, 0.400588
3632.9, 0.399554
3635.45, 0.398521
3638.0, 0.397760
3640.56, 0.396889
3643.12, 0.396134
3645.68, 0.395283
3648.24, 0.394579
3650.81, 0.393826
3653.39, 0.392826
3655.96, 0.392027
3658.54, 0.391074
3661.13, 0.390305
3663.71, 0.389560
3666.3, 0.388923
3668.9, 0.388434
3671.5, 0.387886
3674.1, 0.387087
3676.7, 0.386130
3679.31, 0.385015
3681.93, 0.384082
3684.54, 0.383447
3687.17, 0.382734
3689.79, 0.381626
3692.42, 0.380808
3695.05, 0.379957
3697.69, 0.378971
3700.32, 0.377988
3702.97, 0.377113
3705.61, 0.376360
3708.27, 0.375300
3710.92, 0.374286
3713.58, 0.374040
3716.24, 0.373668
3718.91, 0.372742
3721.58, 0.371426
3724.25, 0.369962
3726.93, 0.368775
3729.61, 0.367964
3732.29, 0.367164
3734.98, 0.366569
3737.67, 0.365859
3740.37, 0.364933
3743.07, 0.363982
3745.78, 0.363180
3748.49, 0.362276
3751.2, 0.361569
3753.91, 0.360731
3756.63, 0.359494
3759.36, 0.358359
3762.09, 0.357366
3764.82, 0.356390
3767.55, 0.355867
3770.29, 0.355116
3773.04, 0.354010
3775.78, 0.352729
3778.54, 0.351937
3781.29, 0.351400
3784.05, 0.350604
3786.82, 0.349344
3789.59, 0.348205
3792.36, 0.347517
3795.13, 0.346811
3797.92, 0.345694
3800.7, 0.344934
3803.49, 0.344351
3806.28, 0.343486
3809.08, 0.342731
3811.88, 0.342096
3814.68, 0.341254
3817.49, 0.340730
3820.31, 0.340037
3823.12, 0.339090
3825.94, 0.338155
3828.77, 0.337565
3831.6, 0.337142
3834.43, 0.336716
3837.27, 0.336096
3840.11, 0.335540
3842.96, 0.334886
3845.81, 0.334416
3848.67, 0.334164
3851.53, 0.333606
3854.39, 0.332896
3857.26, 0.332443
3860.13, 0.331978
3863.01, 0.331622
3865.89, 0.331533
3868.77, 0.331217
3871.66, 0.330476
3874.55, 0.329970
3877.45, 0.329606
3880.35, 0.328995
3883.26, 0.328373
3886.17, 0.327928
3889.09, 0.327352
3892.01, 0.326844
3894.93, 0.326313
3897.86, 0.325825
3900.79, 0.325317
3903.73, 0.324999
3906.67, 0.324604
3909.62, 0.323946
3912.57, 0.323271
3915.52, 0.322915
3918.48, 0.322206
3921.45, 0.321334
3924.42, 0.320421
3927.39, 0.319785
3930.37, 0.319371
3933.35, 0.318923
3936.34, 0.318238
3939.33, 0.317456
3942.32, 0.316899
3945.32, 0.316382
3948.33, 0.315548
3951.34, 0.314797
3954.35, 0.313990
3957.37, 0.313046
3960.39, 0.312224
3963.42, 0.311472
3966.45, 0.310501
3969.49, 0.309412
3972.53, 0.308057
3975.58, 0.306932
3978.63, 0.305951
3981.68, 0.304825
3984.75, 0.303672
3987.81, 0.302463
3990.88, 0.301250
3993.95, 0.300136
3997.03, 0.298696
4000.12, 0.297231
4003.21, 0.295952
4006.3, 0.295164
4009.4, 0.294426
4012.5, 0.293751
4015.61, 0.293296
4018.72, 0.292897
4021.84, 0.292512
4024.96, 0.292137
4028.09, 0.292016
4031.22, 0.292173
4034.36, 0.292222
4037.5, 0.292427
4040.65, 0.292458
4043.8, 0.292513
4046.96, 0.292551
4050.12, 0.292695
4053.29, 0.292932
4056.46, 0.292894
4059.64, 0.292524
4062.82, 0.291951
4066.0, 0.291740
4069.19, 0.291651
4072.39, 0.291203
4075.59, 0.290727
4078.8, 0.290158
4082.01, 0.289530
4085.23, 0.288946
4088.45, 0.288471
4091.68, 0.287775
4094.91, 0.286835
4098.15, 0.286095
4101.39, 0.285597
4104.63, 0.284918
4107.89, 0.284156
4111.14, 0.283348
4114.41, 0.282672
4117.67, 0.282088
4120.95, 0.281484
4124.23, 0.280587
4127.51, 0.279770
4130.8, 0.279118
4134.09, 0.278574
4137.39, 0.277587
4140.7, 0.276483
4144.01, 0.275572
4147.32, 0.274916
4150.64, 0.274254
4153.97, 0.273623
4157.3, 0.272834
4160.64, 0.271902
4163.98, 0.271041
4167.33, 0.270456
4170.68, 0.269565
4174.04, 0.268450
4177.4, 0.267562
4180.77, 0.266836
4184.14, 0.266028
4187.52, 0.265178
4190.91, 0.264386
4194.3, 0.263655
4197.69, 0.263077
4201.1, 0.262776
4204.5, 0.262332
4207.92, 0.261925
4211.34, 0.261630
4214.76, 0.261403
4218.19, 0.260906
4221.62, 0.260527
4225.06, 0.260477
4228.51, 0.260429
4231.96, 0.259844
4235.42, 0.258922
4238.88, 0.257919
4242.35, 0.256777
4245.83, 0.255486
4249.31, 0.253948
4252.79, 0.252245
4256.28, 0.250986
4259.78, 0.250413
4263.29, 0.250487
4266.79, 0.250242
4270.31, 0.249713
4273.83, 0.248978
4277.35, 0.248306
4280.89, 0.247811
4284.42, 0.246611
4287.97, 0.245302
4291.52, 0.244525
4295.07, 0.243592
4298.63, 0.242787
4302.2, 0.241923
4305.78, 0.240854
4309.35, 0.239930
4312.94, 0.238921
4316.53, 0.237753
4320.13, 0.236762
4323.73, 0.235636
4327.34, 0.234615
4330.96, 0.233828
4334.58, 0.233047
4338.21, 0.232235
4341.84, 0.231239
4345.48, 0.230129
4349.12, 0.229213
4352.77, 0.228416
4356.43, 0.227698
4360.1, 0.227041
4363.76, 0.226146
4367.44, 0.224984
4371.12, 0.224137
4374.81, 0.223478
4378.51, 0.222743
4382.21, 0.221768
4385.92, 0.220759
4389.63, 0.220075
4393.35, 0.219396
4397.08, 0.218683
4400.81, 0.218220
4404.55, 0.217713
4408.29, 0.216851
4412.04, 0.215904
4415.8, 0.215325
4419.57, 0.214588
4423.34, 0.213653
4427.12, 0.212933
4430.9, 0.212317
4434.69, 0.211619
4438.49, 0.210954
4442.29, 0.210189
4446.1, 0.209191
4449.92, 0.208207
4453.74, 0.207615
4457.57, 0.207080
4461.41, 0.206415
4465.25, 0.205699
4469.1, 0.205050
4472.95, 0.204223
4476.82, 0.203406
4480.69, 0.202706
4484.56, 0.201915
4488.44, 0.200960
4492.33, 0.200195
4496.23, 0.199542
4500.13, 0.199102
4504.04, 0.198385
4507.96, 0.197561
4511.88, 0.196805
4515.81, 0.195790
4519.75, 0.194979
4523.69, 0.194436
4527.65, 0.193667
4531.6, 0.192884
4535.57, 0.192204
4539.54, 0.191569
4543.52, 0.190715
4547.5, 0.190290
4551.5, 0.189575
4555.5, 0.188330
4559.5, 0.187398
4563.52, 0.186865
4567.54, 0.186083
4571.56, 0.185268
4575.6, 0.184531
4579.64, 0.183800
4583.69, 0.183120
4587.75, 0.182398
4591.81, 0.181694
4595.88, 0.180850
4599.96, 0.179975
4604.04, 0.179457
4608.14, 0.178849
4612.24, 0.178002
4616.34, 0.177131
4620.46, 0.176423
4624.58, 0.175980
4628.71, 0.175502
4632.84, 0.174788
4636.99, 0.174173
4641.14, 0.173604
4645.3, 0.172817
4649.47, 0.172144
4653.64, 0.171928
4657.82, 0.171376
4662.01, 0.170758
4666.21, 0.170140
4670.41, 0.169184
4674.62, 0.168394
4678.84, 0.168043
4683.07, 0.167516
4687.3, 0.166772
4691.54, 0.165958
4695.79, 0.165360
4700.05, 0.164701
4704.31, 0.163928
4708.59, 0.163343
4712.87, 0.162913
4717.15, 0.162260
4721.45, 0.161436
4725.76, 0.160444
4730.07, 0.159694
4734.39, 0.159044
4738.72, 0.158350
4743.05, 0.157555
4747.39, 0.156720
4751.75, 0.155970
4756.1, 0.155436
4760.47, 0.154630
4764.85, 0.153816
4769.23, 0.152892
4773.62, 0.151585
4778.02, 0.150337
4782.43, 0.149447
4786.85, 0.148460
4791.27, 0.147299
4795.7, 0.145846
4800.14, 0.144635
4804.59, 0.143413
4809.05, 0.142047
4813.51, 0.140571
4817.99, 0.139173
4822.47, 0.137783
4826.96, 0.136131
4831.46, 0.134186
4835.96, 0.132238
4840.48, 0.130039
4845.0, 0.127536
4849.54, 0.124852
4854.08, 0.121871
4858.63, 0.118734
4863.18, 0.115224
4867.75, 0.110932
4872.33, 0.106480
4876.91, 0.102046
4881.5, 0.0974370
4886.1, 0.0931050
4890.71, 0.0892190
4895.33, 0.0855050
4899.96, 0.0820720
4904.59, 0.0792840
4909.24, 0.0767820
4913.89, 0.0744420
4918.55, 0.0723610
4923.22, 0.0702060
4927.9, 0.0683050
4932.59, 0.0667940
4937.29, 0.0653850
4942.0, 0.0641730
4946.71, 0.0633250
4951.44, 0.0631290
4956.17, 0.0634770
4960.91, 0.0639080
4965.67, 0.0644280
4970.43, 0.0650860
4975.2, 0.0659560
4979.98, 0.0665760
4984.76, 0.0671430
4989.56, 0.0676950
4994.37, 0.0680630
4999.18, 0.0682830
5004.01, 0.0687680
5008.84, 0.0693910
5013.69, 0.0700380
5018.54, 0.0707190
5023.4, 0.0710720
5028.28, 0.0711110
5033.16, 0.0712410
5038.05, 0.0712560
5042.95, 0.0713350
5047.86, 0.0714060
5052.78, 0.0713480
5057.71, 0.0711480
5062.65, 0.0707830
5067.6, 0.0702220
5072.56, 0.0698520
5077.53, 0.0692840
5082.5, 0.0685380
5087.49, 0.0681540
5092.49, 0.0677510
5097.5, 0.0669150
5102.51, 0.0658430
5107.54, 0.0649220
5112.58, 0.0643170
5117.62, 0.0635160
5122.68, 0.0622800
5127.75, 0.0612060
5132.82, 0.0602540
5137.91, 0.0589670
5143.01, 0.0577190
5148.12, 0.0566680
5153.23, 0.0557500
5158.36, 0.0546780
5163.5, 0.0536670
5168.65, 0.0529380
5173.81, 0.0519610
5178.98, 0.0509510
5184.15, 0.0500980
5189.34, 0.0489880
5194.54, 0.0478680
5199.75, 0.0471910
5204.98, 0.0465680
5210.21, 0.0459070
5215.45, 0.0453430
5220.7, 0.0448570
5225.96, 0.0444550
5231.23, 0.0440650
5236.52, 0.0439890
5241.81, 0.0440720
5247.12, 0.0440090
5252.44, 0.0438360
5257.76, 0.0440690
5263.1, 0.0442440
5268.45, 0.0441100
5273.81, 0.0439030
5279.18, 0.0438690
5284.56, 0.0438230
5289.95, 0.0438380
5295.36, 0.0437470
5300.77, 0.0433370
5306.2, 0.0431590
5311.63, 0.0431250
5317.08, 0.0429100
5322.54, 0.0425460
5328.01, 0.0422690
5333.49, 0.0419800
5338.98, 0.0416270
5344.49, 0.0410990
5350.0, 0.0405850
5355.53, 0.0398210
5361.07, 0.0389610
5366.62, 0.0383820
5372.18, 0.0379320
5377.75, 0.0375040
5383.34, 0.0370200
5388.93, 0.0365510
5394.54, 0.0359510
5400.16, 0.0351440
5405.79, 0.0343590
5411.44, 0.0338680
5417.09, 0.0335800
5422.76, 0.0332730
5428.43, 0.0328390
5434.12, 0.0323390
5439.83, 0.0318910
5445.54, 0.0315580
5451.26, 0.0312370
5457.0, 0.0308810
5462.75, 0.0308490
5468.52, 0.0310590
5474.29, 0.0312100
5480.08, 0.0312150
5485.88, 0.0310790
5491.69, 0.0310730
5497.51, 0.0311710
5503.35, 0.0311040
5509.2, 0.0309910
5515.06, 0.0309150
5520.93, 0.0307420
5526.82, 0.0305490
5532.71, 0.0301870
5538.63, 0.0295570
5544.55, 0.0289920
5550.49, 0.0284720
5556.44, 0.0279320
5562.4, 0.0272020
5568.37, 0.0261790
5574.36, 0.0252220
5580.36, 0.0243620
5586.37, 0.0233810
5592.4, 0.0227800
5598.44, 0.0223220
5604.49, 0.0220070
5610.56, 0.0220150
5616.63, 0.0220420
5622.73, 0.0220120
5628.83, 0.0221460
5634.95, 0.0221460
5641.08, 0.0224570
5647.23, 0.0229500
5653.39, 0.0234320
5659.56, 0.0240010
5665.74, 0.0245790
5671.94, 0.0252160
5678.15, 0.0259100
5684.38, 0.0264500
5690.62, 0.0269520
5696.87, 0.0274490
5703.14, 0.0281900
5709.42, 0.0290810
5715.72, 0.0299770
5722.03, 0.0305300
5728.35, 0.0310520
5734.69, 0.0314960
5741.03, 0.0319760
5747.4, 0.0324260
5753.78, 0.0327220
5760.17, 0.0328690
5766.58, 0.0328750
5773.0, 0.0327520
5779.44, 0.0327350
5785.88, 0.0324950
5792.35, 0.0319370
5798.83, 0.0315490
5805.32, 0.0315000
5811.83, 0.0314520
5818.35, 0.0312420
5824.89, 0.0308440
5831.45, 0.0308370
5838.01, 0.0306400
5844.59, 0.0301390
5851.19, 0.0300120
5857.8, 0.0299060
5864.43, 0.0298060
5871.07, 0.0298320
5877.73, 0.0298280
5884.4, 0.0299220
5891.09, 0.0301080
5897.79, 0.0303070
5904.5, 0.0300890
5911.23, 0.0300760
5917.98, 0.0303790
5924.75, 0.0304470
5931.53, 0.0302280
5938.32, 0.0301010
5945.13, 0.0297980
5951.96, 0.0292880
5958.8, 0.0286700
5965.65, 0.0284070
5972.53, 0.0285560
5979.42, 0.0286160
5986.32, 0.0284980
5993.24, 0.0284030
6000.18, 0.0287130
6007.13, 0.0294800
6014.1, 0.0303930
6021.08, 0.0316830
6028.09, 0.0331280
6035.1, 0.0349600
6042.14, 0.0369830
6049.19, 0.0400300
6056.25, 0.0430250
6063.34, 0.0455470
6070.44, 0.0486070
6077.55, 0.0515390
6084.69, 0.0536450
6091.84, 0.0558440
6099.0, 0.0581890
6106.19, 0.0600090
6113.39, 0.0618430
6120.61, 0.0636100
6127.84, 0.0646480
6135.09, 0.0654660
6142.36, 0.0660400
6149.65, 0.0667330
6156.95, 0.0673570
6164.27, 0.0676090
6171.61, 0.0677820
6178.97, 0.0681300
6186.34, 0.0682880
6193.73, 0.0682880
6201.14, 0.0678860
6208.57, 0.0676350
6216.01, 0.0674630
6223.47, 0.0670760
6230.95, 0.0666910
6238.45, 0.0663040
6245.97, 0.0660670
6253.5, 0.0658210
6261.06, 0.0652970
6268.63, 0.0650780
6276.21, 0.0652310
6283.82, 0.0655040
6291.45, 0.0657480
6299.1, 0.0660780
6306.76, 0.0665580
6314.44, 0.0671760
6322.14, 0.0677500
6329.86, 0.0681920
6337.6, 0.0687050
6345.35, 0.0694020
6353.13, 0.0694800
6360.92, 0.0692890
6368.74, 0.0692970
6376.57, 0.0688910
6384.43, 0.0685970
6392.3, 0.0684640
6400.19, 0.0683940
6408.1, 0.0688350
6416.03, 0.0688410
6423.98, 0.0681950
6431.95, 0.0680070
6439.94, 0.0680350
6447.95, 0.0679170
6455.98, 0.0675900
6464.03, 0.0675440
6472.1, 0.0677610
6480.19, 0.0675930
6488.31, 0.0674140
6496.44, 0.0674470
6504.59, 0.0671450
6512.76, 0.0667810
6520.95, 0.0663980
6529.16, 0.0660160
6537.4, 0.0660390
6545.65, 0.0662860
6553.92, 0.0664580
6562.22, 0.0666190
6570.54, 0.0668620
6578.88, 0.0669570
6587.23, 0.0669710
6595.61, 0.0669360
6604.02, 0.0665760
6612.44, 0.0661730
6620.89, 0.0657970
6629.35, 0.0656500
6637.84, 0.0651110
6646.35, 0.0641420
6654.88, 0.0632700
6663.44, 0.0626430
6672.01, 0.0620930
6680.61, 0.0613180
6689.23, 0.0600120
6697.88, 0.0590840
6706.54, 0.0581710
6715.23, 0.0568750
6723.94, 0.0557230
6732.67, 0.0547220
6741.42, 0.0534380
6750.2, 0.0521790
6759.0, 0.0509230
6767.82, 0.0498170
6776.67, 0.0489450
6785.54, 0.0485810
6794.44, 0.0481100
6803.35, 0.0473670
6812.29, 0.0471760
6821.26, 0.0472900
6830.24, 0.0473430
6839.25, 0.0472280
6848.29, 0.0471210
6857.35, 0.0473830
6866.43, 0.0474920
6875.54, 0.0473280
6884.67, 0.0470550
6893.82, 0.0465880
6903.0, 0.0460740
6912.2, 0.0453390
6921.43, 0.0444780
6930.69, 0.0437740
6939.96, 0.0428610
6949.27, 0.0420130
6958.59, 0.0414430
6967.95, 0.0404930
6977.33, 0.0392620
6986.73, 0.0380380
6996.16, 0.0371760
7005.61, 0.0365630
7015.09, 0.0354690
7024.6, 0.0343370
7034.13, 0.0335860
7043.69, 0.0332740
7053.27, 0.0326770
7062.88, 0.0321990
7072.52, 0.0320950
7082.18, 0.0320010
7091.87, 0.0319440
7101.58, 0.0321240
7111.32, 0.0322020
7121.09, 0.0319240
7130.88, 0.0314370
7140.71, 0.0309400
7150.56, 0.0305150
7160.43, 0.0301210
7170.33, 0.0296270
7180.27, 0.0293730
7190.23, 0.0289850
7200.21, 0.0285150
7210.23, 0.0281790
7220.27, 0.0279710
7230.34, 0.0278140
7240.44, 0.0275670
7250.56, 0.0273880
7260.72, 0.0274040
7270.9, 0.0273460
7281.12, 0.0271880
7291.36, 0.0268840
7301.63, 0.0266280
7311.93, 0.0262070
7322.25, 0.0255450
7332.61, 0.0249400
7343.0, 0.0246040
7353.41, 0.0241770
7363.86, 0.0236490
7374.33, 0.0231090
7384.83, 0.0227150
7395.37, 0.0223060
7405.93, 0.0221160
7416.53, 0.0216960
7427.15, 0.0211760
7437.81, 0.0207960
7448.5, 0.0204980
7459.22, 0.0201020
7469.96, 0.0194700
7480.74, 0.0189140
7491.55, 0.0188300
7502.39, 0.0184390
7513.27, 0.0182680
7524.17, 0.0179320
7535.11, 0.0176470
7546.08, 0.0175420
7557.08, 0.0173130
7568.11, 0.0168530
7579.17, 0.0169040
7590.27, 0.0170760
7601.4, 0.0173000
7612.56, 0.0173450
7623.76, 0.0173480
7634.98, 0.0169890
7646.24, 0.0168330
7657.54, 0.0168880
7668.87, 0.0169650
7680.23, 0.0169980
7691.62, 0.0169350
7703.05, 0.0167230
7714.51, 0.0164000
7726.01, 0.0162480
7737.54, 0.0163210
7749.11, 0.0163630
7760.71, 0.0161650
7772.35, 0.0158800
7784.02, 0.0158660
7795.72, 0.0156670
7807.46, 0.0155570
7819.23, 0.0155040
7831.04, 0.0152460
7842.89, 0.0148350
7854.77, 0.0148720
7866.69, 0.0146530
7878.65, 0.0145220
7890.64, 0.0146910
7902.67, 0.0148890
7914.74, 0.0147440
7926.84, 0.0144120
7938.98, 0.0141260
7951.16, 0.0139960
7963.37, 0.0137510
7975.62, 0.0136510
7987.91, 0.0136510
8000.24, 0.0135130
8012.6, 0.0128560
8025.01, 0.0125360
8037.45, 0.0123050
8049.93, 0.0118140
8062.45, 0.0115210
8075.01, 0.0115900
8087.61, 0.0113280
8100.24, 0.0109890
8112.91, 0.0110220
8125.63, 0.0107710
8138.39, 0.0104750
8151.18, 0.0104200
8164.02, 0.00996000
8176.9, 0.00917700
8189.81, 0.00893000
8202.77, 0.00934200
8215.77, 0.00943100
8228.82, 0.00902900
8241.9, 0.00855600
8255.02, 0.00855400
8268.19, 0.00832200
8281.39, 0.00827200
8294.65, 0.00795600
8307.94, 0.00751900
8321.28, 0.00745500
8334.66, 0.00772000
8348.08, 0.00710900
8361.54, 0.00677100
8375.05, 0.00682500
8388.6, 0.00694200
8402.2, 0.00671700
8415.84, 0.00616700
8429.52, 0.00598200
8443.25, 0.00603900
8457.02, 0.00604800
8470.84, 0.00595400
8484.7, 0.00613300
8498.61, 0.00612400
8512.57, 0.00582700
8526.57, 0.00574200
8540.62, 0.00521400
8554.71, 0.00468000
8568.85, 0.00461800
8583.04, 0.00468400
8597.27, 0.00458500
8611.55, 0.00462000
8625.88, 0.00429600
8640.26, 0.00410900
8654.68, 0.00373500
8669.16, 0.00381400
8683.68, 0.00406800
8698.25, 0.00414200
8712.87, 0.00367400
8727.53, 0.00347000
8742.25, 0.00363200
8757.02, 0.00340100
8771.83, 0.00298600
8786.7, 0.00296300
8801.62, 0.00271500
8816.59, 0.00236800
8831.61, 0.00270500
8846.68, 0.00288600
8861.8, 0.00257900
8876.97, 0.00256700
8892.2, 0.00229700
8907.48, 0.00215300
8922.81, 0.00207500
8938.2, 0.00195000
8953.63, 0.00242600
8969.13, 0.00295600
8984.67, 0.00294200
9000.27, 0.00286600
9015.92, 0.00292500
9031.63, 0.00337000
9047.39, 0.00356300
9063.21, 0.00422100
9079.08, 0.00481300
9095.01, 0.00573200
9111.0, 0.00670800
9127.04, 0.00743700
9143.13, 0.00857300
9159.28, 0.0101110
9175.49, 0.0120270
9191.76, 0.0147300
9208.09, 0.0180360
9224.47, 0.0216600
9240.92, 0.0256980
9257.42, 0.0311960
9273.98, 0.0384330
9290.6, 0.0474240
9307.28, 0.0584040
9324.02, 0.0708570
9340.82, 0.0834870
9357.68, 0.0940490
9374.6, 0.101118
9391.58, 0.105686
9408.62, 0.108812
9425.73, 0.110567
9442.9, 0.111505
9460.13, 0.112320
9477.42, 0.113399
9494.78, 0.114184
9512.2, 0.114746
9529.69, 0.115038
9547.24, 0.114559
9564.86, 0.113685
9582.54, 0.112575
9600.28, 0.111932
9618.1, 0.111511
9635.97, 0.110921
9653.92, 0.109765
9671.93, 0.108487
9690.01, 0.106884
9708.16, 0.105022
9726.37, 0.103580
9744.65, 0.101970
9763.0, 0.100421
9781.43, 0.0988260
9799.92, 0.0968650
9818.48, 0.0947420
9837.1, 0.0927280
9855.8, 0.0904460
9874.58, 0.0879870
9893.42, 0.0858360
9912.34, 0.0836570
9931.33, 0.0817310
9950.39, 0.0801940
9969.52, 0.0789210
9988.74, 0.0781670
10008.0, 0.0786320
10027.4, 0.0802950
10046.8, 0.0836850
10066.3, 0.0888360
10085.9, 0.0968220
10105.6, 0.108530
10125.3, 0.122483
10145.1, 0.135378
10165.0, 0.143279
10185.0, 0.145017
10205.0, 0.142358
10225.2, 0.137762
10245.4, 0.132135
10265.7, 0.127435
10286.0, 0.124157
10306.5, 0.121702
10327.0, 0.119807
10347.6, 0.118624
10368.3, 0.118474
10389.1, 0.118930
10409.9, 0.122343
10430.9, 0.134604
10451.9, 0.157873
10473.0, 0.184244
10494.2, 0.205158
10515.5, 0.218945
10536.9, 0.226635
10558.4, 0.230100
10579.9, 0.231369
10601.5, 0.230850
10623.3, 0.229048
10645.1, 0.227306
10667.0, 0.225577
10689.0, 0.222971
10711.1, 0.219352
10733.2, 0.215962
10755.5, 0.212110
10777.9, 0.208533
10800.3, 0.204933
10822.9, 0.201184
10845.5, 0.197517
10868.2, 0.193582
10891.1, 0.189525
10914.0, 0.185969
10937.0, 0.182630
10960.2, 0.179401
10983.4, 0.175678
11006.7, 0.172756
11030.1, 0.170266
11053.6, 0.167247
11077.3, 0.164129
11101.0, 0.161487
11124.8, 0.159491
11148.7, 0.157065
11172.7, 0.154550
11196.9, 0.151912
11221.1, 0.148478
11245.4, 0.145490
11269.9, 0.143007
11294.4, 0.139710
11319.1, 0.136471
11343.9, 0.133166
11368.8, 0.128891
11393.7, 0.123356
11418.8, 0.117364
11444.0, 0.110875
11469.4, 0.102682
11494.8, 0.0936400
11520.3, 0.0849080
11546.0, 0.0772720
11571.8, 0.0710600
11597.7, 0.0660480
11623.7, 0.0616870
11649.8, 0.0578790
11676.0, 0.0552390
11702.4, 0.0525710
11728.9, 0.0496090
11755.5, 0.0466240
11782.2, 0.0444840
11809.0, 0.0427380
11836.0, 0.0422980
11863.0, 0.0437060
11890.3, 0.0460000
11917.6, 0.0482910
11945.0, 0.0488260
11972.6, 0.0473990
12000.4, 0.0457900
12028.2, 0.0438970
12056.2, 0.0419610
12084.3, 0.0399660
12112.5, 0.0385800
12140.9, 0.0377140
12169.4, 0.0367930
12198.0, 0.0354750
12226.8, 0.0339660
12255.7, 0.0325460
12284.7, 0.0316880
12313.9, 0.0310420
12343.2, 0.0303890
12372.7, 0.0293740
12402.3, 0.0286600
12432.0, 0.0280420
12461.9, 0.0274580
12491.9, 0.0267990
12522.1, 0.0263380
12552.4, 0.0258330
12582.9, 0.0250000
12613.5, 0.0243450
12644.3, 0.0237540
12675.2, 0.0231600
12706.3, 0.0230050
12737.5, 0.0224950
12768.9, 0.0219490
12800.4, 0.0215460
12832.1, 0.0211950
12863.9, 0.0207140
12895.9, 0.0201070
12928.1, 0.0192780
12960.4, 0.0189130
12992.9, 0.0183690
13025.5, 0.0182210
13058.3, 0.0182210
13091.3, 0.0179030
13124.4, 0.0175870
13157.8, 0.0172750
13191.2, 0.0169910
13224.9, 0.0167150
13258.7, 0.0164440
13292.7, 0.0161880
13326.9, 0.0159300
13361.2, 0.0156680
13395.7, 0.0153980
13430.4, 0.0151360
13465.3, 0.0148740
13500.4, 0.0146310
13535.7, 0.0143800
13571.1, 0.0141210
13606.7, 0.0138460
13642.5, 0.0135800
13678.5, 0.0133230
13714.7, 0.0130520
13751.1, 0.0127870
13787.6, 0.0125170
13824.4, 0.0122460
13861.4, 0.0119820
13898.5, 0.0117090
13935.9, 0.0114430
13973.5, 0.0111810
14011.2, 0.0109300
14049.2, 0.0106840
14087.4, 0.0104300
14125.8, 0.0101740
14164.3, 0.00992000
14203.2, 0.00967100
14242.2, 0.00944500
14281.4, 0.00920000
14320.9, 0.00895400
14360.5, 0.00873000
14400.4, 0.00852600
14440.5, 0.00830500
14480.9, 0.00808500
14521.4, 0.00786900
14562.2, 0.00767100
14603.3, 0.00753500
14644.5, 0.00742800
14686.0, 0.00720700
14727.7, 0.00697700
14769.7, 0.00681200
14811.9, 0.00663100
14854.3, 0.00653000
14897.0, 0.00653900
14939.9, 0.00658300
14983.1, 0.00657900
15026.5, 0.00662800
15070.2, 0.00691500
15114.2, 0.00733300
15158.3, 0.00788700
15202.8, 0.00868500
15247.5, 0.00975400
15292.5, 0.0110560
15337.7, 0.0126220
15383.2, 0.0144330
15429.0, 0.0164830
15475.1, 0.0186810
15521.4, 0.0210900
15568.0, 0.0234640
15614.9, 0.0256610
15662.1, 0.0276250
15709.6, 0.0293300
15757.3, 0.0306470
15805.4, 0.0316240
15853.7, 0.0323280
15902.3, 0.0329870
15951.2, 0.0336160
16000.5, 0.0340090
16050.0, 0.0340390
16099.8, 0.0337110
16150.0, 0.0330220
16200.5, 0.0321690
16251.3, 0.0311820
16302.4, 0.0299920
16353.8, 0.0287890
16405.5, 0.0275550
16457.6, 0.0261590
16510.0, 0.0247670
16562.8, 0.0234120
16615.9, 0.0219510
16669.3, 0.0204570
16723.1, 0.0191010
16777.2, 0.0178270
16831.7, 0.0167150
16886.5, 0.0160020
16941.7, 0.0157210
16997.2, 0.0158670
17053.1, 0.0165210
17109.4, 0.0176410
17166.1, 0.0192890
17223.1, 0.0215170
17280.5, 0.0242320
17338.3, 0.0273890
17396.5, 0.0309960
17455.1, 0.0350610
17514.0, 0.0394660
17573.4, 0.0440500
17633.2, 0.0487150
17693.4, 0.0531160
17754.0, 0.0569230
17815.0, 0.0600920
17876.4, 0.0628390
17938.3, 0.0651540
18000.5, 0.0672630
18063.3, 0.0695400
18126.4, 0.0723410
18190.0, 0.0753630
18254.1, 0.0778250
18318.6, 0.0790190
18383.5, 0.0789830
18449.0, 0.0783870
18514.9, 0.0780240
18581.2, 0.0785480
18648.0, 0.0805420
18715.4, 0.0843150
18783.2, 0.0892750
18851.5, 0.0940070
18920.3, 0.0971840
18989.6, 0.0979340
19059.4, 0.0964130
19129.7, 0.0936490
19200.6, 0.0904640
19272.0, 0.0871870
19343.9, 0.0840000
19416.3, 0.0808730
19489.3, 0.0777550
19562.8, 0.0748850
19637.0, 0.0728580
19711.6, 0.0721230
19786.8, 0.0723590
19862.6, 0.0720820
19939.0, 0.0699290
20016.0, 0.0656640
20093.6, 0.0601650
20171.8, 0.0542770
20250.6, 0.0485360
20330.0, 0.0431390
20410.0, 0.0381940
20490.7, 0.0338520
20572.0, 0.0302840
20654.0, 0.0278680
20736.6, 0.0271030
20819.9, 0.0282060
20903.8, 0.0307990
20988.5, 0.0340710
21073.8, 0.0371690
21159.8, 0.0399200
21246.5, 0.0420280
21334.0, 0.0430760
21422.1, 0.0427700
21511.0, 0.0413490
21600.7, 0.0393660
21691.0, 0.0376590
21782.1, 0.0371540
21874.0, 0.0387100
21966.7, 0.0425200
22060.2, 0.0481040
22154.5, 0.0549620
22249.6, 0.0626200
22345.5, 0.0700490
22442.2, 0.0759160
22539.8, 0.0796740
22638.2, 0.0818740
22737.5, 0.0835100
22837.7, 0.0855580
22938.7, 0.0893460
23040.7, 0.0956230
23143.5, 0.103514
23247.3, 0.111446
23352.1, 0.118230
23457.7, 0.123422
23564.4, 0.127057
23672.0, 0.129470
23780.5, 0.130871
23890.1, 0.131500
24000.7, 0.131069
24112.3, 0.128753
24225.0, 0.123889
24338.7, 0.116654
24453.5, 0.108086
24569.4, 0.0998650
24686.4, 0.0933220
24804.5, 0.0888430
24923.8, 0.0863050
25044.2, 0.0851530
25165.8, 0.0840280
25288.6, 0.0816170
25412.5, 0.0777790
25537.7, 0.0728390
25664.1, 0.0674300
25791.8, 0.0620320
25920.8, 0.0574960
26051.1, 0.0545710
26182.6, 0.0538290
26315.5, 0.0545960
26449.8, 0.0556830
26585.4, 0.0558680
26722.5, 0.0556280
26860.9, 0.0559250
27000.8, 0.0573770
27142.1, 0.0600340
27285.0, 0.0630480
27429.4, 0.0656690
27575.3, 0.0676100
27722.7, 0.0687680
27871.8, 0.0692490
28022.4, 0.0690910
28174.7, 0.0683330
28328.7, 0.0670400
28484.4, 0.0654410
28641.7, 0.0635920
28800.9, 0.0616700
28961.8, 0.0596990
29124.5, 0.0578060
29289.0, 0.0558710
29455.4, 0.0540180
29623.8, 0.0520840
29794.0, 0.0501650
29966.3, 0.0482040
30140.5, 0.0463900
30316.7, 0.0445240
30495.1, 0.0426490
30675.5, 0.0408220
30858.1, 0.0391420
31042.8, 0.0374730
31229.8, 0.0360010
31419.1, 0.0346490
31610.7, 0.0336350
31804.6, 0.0330490
32000.9, 0.0328720
32199.7, 0.0331650
32400.9, 0.0344150
32604.8, 0.0368870
32811.1, 0.0406100
33020.1, 0.0460570
33231.8, 0.0518330
33446.2, 0.0562950
33663.4, 0.0598580
33883.4, 0.0625220
34106.3, 0.0644970
34332.1, 0.0657000
34561.0, 0.0661200
34792.9, 0.0656180
35028.0, 0.0642490
35266.3, 0.0623450
35507.8, 0.0603300
35752.7, 0.0584970
36001.0, 0.0568250
36252.8, 0.0555240
36508.1, 0.0546010
36767.0, 0.0537610
37029.7, 0.0529740
37296.1, 0.0521670
37566.3, 0.0511000
37840.5, 0.0500240
38118.8, 0.0490150
38401.2, 0.0481730
38687.8, 0.0473510
38978.6, 0.0466760
39273.9, 0.0459130
39573.7, 0.0452040
39878.1, 0.0445800
40187.3, 0.0440070
40501.2, 0.0433650
40820.0, 0.0427400
41144.0, 0.0422200
41473.2, 0.0417230
41807.6, 0.0411970
42147.5, 0.0406990
42493.0, 0.0403380
42844.2, 0.0399120
43201.2, 0.0395000
43564.3, 0.0390660
43933.5, 0.0385890
44309.0, 0.0381360
44691.0, 0.0378490
45079.6, 0.0374450
45475.0, 0.0371100
45877.5, 0.0367770
46287.1, 0.0363790
46704.2, 0.0359980
47128.7, 0.0356830
47561.1, 0.0355420
48001.5, 0.0352190
48450.1, 0.0348400
48907.2, 0.0345650
49373.0, 0.0340640
49847.7, 0.0335750
50331.5, 0.0333650
50825.0, 0.0331660
51328.2, 0.0329710
51841.5, 0.0328150
52365.1, 0.0327420
52899.4, 0.0326150
53444.8, 0.0324560
54001.5, 0.0323060
54570.1, 0.0318970
55150.6, 0.0315360
55743.6, 0.0312940
56349.5, 0.0311510
56968.7, 0.0309470
57601.7, 0.0306710
58248.9, 0.0304650
58910.9, 0.0302260
59588.1, 0.0299500
60281.0, 0.0298530
60990.2, 0.0294990
61716.3, 0.0293390
62459.8, 0.0295030
63221.6, 0.0294280
64002.1, 0.0290230
64802.1, 0.0287580
65622.1, 0.0287920
66463.4, 0.0289310
67326.6, 0.0285570
68212.4, 0.0287940
69121.9, 0.0292520
70056.0, 0.0290220
71015.7, 0.0289400
72002.0, 0.0289970
73016.3, 0.0289410
74059.4, 0.0298060
75132.7, 0.0306420
76237.6, 0.0305060
77375.5, 0.0307320
78547.9, 0.0316610
79756.3, 0.0317600
81002.5, 0.0314600
82288.5, 0.0323910
83615.7, 0.0337690
84986.5, 0.0340270
86402.9, 0.0344120
87867.4, 0.0352680
89382.4, 0.0352390
90950.5, 0.0353310
92574.6, 0.0361470
94257.2, 0.0360180
96002.7, 0.0358670
97814.1, 0.0362710
99695.1, 0.0367140
101650.0, 0.0366490
103683.0, 0.0368430
105799.0, 0.0384080
108003.0, 0.0392030
110301.0, 0.0381450
112699.0, 0.0385950
115204.0, 0.0387720
117822.0, 0.0380810
120562.0, 0.0393380
123433.0, 0.0390510
126443.0, 0.0376410
129604.0, 0.0381270
132926.0, 0.0366250
136424.0, 0.0345350
140111.0, 0.0339570
144003.0, 0.0339100
148118.0, 0.0296600
152474.0, 0.0292440
157095.0, 0.0292530
162004.0, 0.0292530
167231.0, 0.0292530
172805.0, 0.0292530
178764.0, 0.0292530
185148.0, 0.0292530
192005.0, 0.0292530
199390.0, 0.0292530
207366.0, 0.0292530
216006.0, 0.0292530
