Database of Origin, USGS Spectral Database
Sample Description, See USGS database for additional info
Date Added,2016-08-10 05:05:48.586214

Data ID,USGS_mar04          
Sample ID, marialite_nmnh126018.13413
Mineral Name, marialite
Material Class,Tectosilicate

Wavelength
1359.96, 0.778098
1360.31, 0.778436
1360.67, 0.779044
1361.03, 0.779788
1361.39, 0.780330
1361.74, 0.780194
1362.1, 0.780194
1362.46, 0.781344
1362.82, 0.782967
1363.18, 0.783914
1363.53, 0.784252
1363.89, 0.783779
1364.25, 0.784523
1364.61, 0.785132
1364.97, 0.785740
1365.33, 0.786417
1365.69, 0.787364
1366.05, 0.787634
1366.41, 0.787837
1366.77, 0.787973
1367.13, 0.788514
1367.49, 0.788581
1367.85, 0.789325
1368.21, 0.789461
1368.57, 0.789461
1368.93, 0.790543
1369.3, 0.791828
1369.66, 0.792234
1370.02, 0.791895
1370.38, 0.792437
1370.74, 0.792707
1371.11, 0.792978
1371.47, 0.793316
1371.83, 0.793992
1372.19, 0.794736
1372.56, 0.794533
1372.92, 0.794466
1373.29, 0.795074
1373.65, 0.795683
1374.01, 0.795074
1374.38, 0.795142
1374.74, 0.795818
1375.11, 0.796427
1375.47, 0.796765
1375.84, 0.796765
1376.2, 0.796901
1376.57, 0.797509
1376.93, 0.797509
1377.3, 0.798050
1377.67, 0.798186
1378.03, 0.798186
1378.4, 0.798050
1378.76, 0.798389
1379.13, 0.798592
1379.5, 0.798659
1379.87, 0.798389
1380.23, 0.798321
1380.6, 0.797983
1380.97, 0.798050
1381.34, 0.798050
1381.7, 0.797509
1382.07, 0.796833
1382.44, 0.795480
1382.81, 0.795007
1383.18, 0.794330
1383.55, 0.793654
1383.92, 0.793045
1384.29, 0.791828
1384.66, 0.790543
1385.03, 0.789258
1385.4, 0.787973
1385.77, 0.786620
1386.14, 0.785267
1386.51, 0.783779
1386.88, 0.782088
1387.25, 0.780059
1387.62, 0.779044
1387.99, 0.777827
1388.36, 0.776745
1388.74, 0.775933
1389.11, 0.775257
1389.48, 0.774851
1389.85, 0.774107
1390.23, 0.773769
1390.6, 0.773904
1390.97, 0.773633
1391.35, 0.774175
1391.72, 0.773633
1392.09, 0.772619
1392.47, 0.773295
1392.84, 0.775527
1393.21, 0.778436
1393.59, 0.780127
1393.96, 0.781479
1394.34, 0.782088
1394.71, 0.782832
1395.09, 0.784252
1395.46, 0.785470
1395.84, 0.785808
1396.22, 0.785267
1396.59, 0.785199
1396.97, 0.785402
1397.35, 0.784929
1397.72, 0.784861
1398.1, 0.785335
1398.48, 0.785267
1398.85, 0.784861
1399.23, 0.784455
1399.61, 0.784658
1399.99, 0.784726
1400.37, 0.784861
1400.74, 0.784320
1401.12, 0.783779
1401.5, 0.783711
1401.88, 0.783914
1402.26, 0.783441
1402.64, 0.782832
1403.02, 0.782223
1403.4, 0.782088
1403.78, 0.782088
1404.16, 0.781953
1404.54, 0.781682
1404.92, 0.781615
1405.3, 0.781074
1405.68, 0.781344
1406.06, 0.781276
1406.44, 0.780194
1406.83, 0.779788
1407.21, 0.780330
1407.59, 0.779924
1407.97, 0.780127
1408.35, 0.779653
1408.74, 0.779315
1409.12, 0.779247
1409.5, 0.778639
1409.89, 0.778774
1410.27, 0.778909
1410.65, 0.778233
1411.04, 0.778774
1411.42, 0.778977
1411.81, 0.778436
1412.19, 0.777895
1412.58, 0.778098
1412.96, 0.778300
1413.35, 0.778030
1413.73, 0.778233
1414.12, 0.778300
1414.5, 0.778639
1414.89, 0.778977
1415.28, 0.778841
1415.66, 0.778639
1416.05, 0.778774
1416.44, 0.779450
1416.82, 0.779653
1417.21, 0.779991
1417.6, 0.780262
1417.98, 0.780803
1418.37, 0.780803
1418.76, 0.780938
1419.15, 0.781006
1419.54, 0.781276
1419.93, 0.781479
1420.32, 0.781547
1420.71, 0.781953
1421.09, 0.782494
1421.48, 0.783306
1421.88, 0.783847
1422.27, 0.784185
1422.66, 0.784658
1423.05, 0.785064
1423.44, 0.785402
1423.83, 0.785605
1424.22, 0.785943
1424.61, 0.786755
1425.0, 0.787229
1425.39, 0.787364
1425.78, 0.787837
1426.18, 0.788446
1426.57, 0.789325
1426.96, 0.789461
1427.36, 0.789528
1427.75, 0.790002
1428.14, 0.790340
1428.54, 0.790813
1428.93, 0.791084
1429.32, 0.791422
1429.72, 0.791693
1430.11, 0.791895
1430.51, 0.792301
1430.9, 0.792301
1431.3, 0.792910
1431.69, 0.793316
1432.09, 0.793451
1432.48, 0.793722
1432.88, 0.793992
1433.28, 0.794195
1433.67, 0.794533
1434.07, 0.795007
1434.46, 0.795277
1434.86, 0.795277
1435.26, 0.795142
1435.66, 0.795548
1436.05, 0.795954
1436.45, 0.796021
1436.85, 0.796089
1437.25, 0.796021
1437.65, 0.796562
1438.05, 0.796698
1438.44, 0.796630
1438.84, 0.796630
1439.24, 0.796765
1439.64, 0.796765
1440.04, 0.797171
1440.44, 0.797442
1440.84, 0.797239
1441.24, 0.797712
1441.65, 0.797848
1442.05, 0.797509
1442.45, 0.797848
1442.85, 0.798321
1443.25, 0.797983
1443.65, 0.797848
1444.05, 0.797983
1444.46, 0.798253
1444.86, 0.798389
1445.26, 0.798050
1445.67, 0.798253
1446.07, 0.798389
1446.47, 0.798456
1446.88, 0.798050
1447.28, 0.798456
1447.68, 0.798524
1448.09, 0.799065
1448.49, 0.799133
1448.9, 0.798524
1449.3, 0.798253
1449.71, 0.798321
1450.11, 0.798524
1450.52, 0.798524
1450.93, 0.798118
1451.33, 0.798050
1451.74, 0.798389
1452.14, 0.798118
1452.55, 0.797983
1452.96, 0.798050
1453.36, 0.798118
1453.77, 0.798727
1454.18, 0.798659
1454.59, 0.797983
1455.0, 0.797442
1455.41, 0.797239
1455.81, 0.797509
1456.22, 0.797577
1456.63, 0.797780
1457.04, 0.798253
1457.45, 0.797983
1457.86, 0.797848
1458.27, 0.798186
1458.68, 0.798253
1459.09, 0.797983
1459.5, 0.797577
1459.91, 0.797442
1460.32, 0.797374
1460.74, 0.797239
1461.15, 0.797712
1461.56, 0.797577
1461.97, 0.797171
1462.39, 0.797171
1462.8, 0.797442
1463.21, 0.796968
1463.62, 0.796630
1464.04, 0.796562
1464.45, 0.796698
1464.86, 0.796765
1465.28, 0.796495
1465.69, 0.796495
1466.11, 0.796360
1466.52, 0.795886
1466.94, 0.795954
1467.35, 0.796021
1467.77, 0.796292
1468.18, 0.796089
1468.6, 0.796157
1469.02, 0.796224
1469.43, 0.796224
1469.85, 0.796224
1470.27, 0.795886
1470.68, 0.795751
1471.1, 0.796157
1471.52, 0.796021
1471.94, 0.795480
1472.35, 0.795818
1472.77, 0.796089
1473.19, 0.796292
1473.61, 0.796089
1474.03, 0.796224
1474.45, 0.796562
1474.87, 0.796292
1475.29, 0.796495
1475.71, 0.796698
1476.13, 0.796833
1476.55, 0.796765
1476.97, 0.796901
1477.39, 0.796495
1477.81, 0.796562
1478.23, 0.796765
1478.65, 0.796901
1479.07, 0.796630
1479.5, 0.796901
1479.92, 0.796698
1480.34, 0.796562
1480.76, 0.796698
1481.19, 0.796630
1481.61, 0.796630
1482.03, 0.796495
1482.46, 0.796495
1482.88, 0.797036
1483.31, 0.797374
1483.73, 0.797374
1484.16, 0.797036
1484.58, 0.797374
1485.01, 0.797306
1485.43, 0.797239
1485.86, 0.797239
1486.28, 0.797306
1486.71, 0.797374
1487.14, 0.797442
1487.56, 0.797239
1487.99, 0.797577
1488.42, 0.797848
1488.84, 0.797915
1489.27, 0.797780
1489.7, 0.797645
1490.13, 0.797509
1490.56, 0.797577
1490.98, 0.797645
1491.41, 0.797848
1491.84, 0.797712
1492.27, 0.797645
1492.7, 0.797848
1493.13, 0.797983
1493.56, 0.798050
1493.99, 0.798118
1494.42, 0.797983
1494.85, 0.797848
1495.29, 0.797577
1495.72, 0.797915
1496.15, 0.797780
1496.58, 0.798118
1497.01, 0.798050
1497.44, 0.798050
1497.88, 0.797983
1498.31, 0.798253
1498.74, 0.798186
1499.18, 0.798321
1499.61, 0.798321
1500.04, 0.798389
1500.48, 0.798389
1500.91, 0.798659
1501.35, 0.798862
1501.78, 0.798930
1502.22, 0.798456
1502.65, 0.798321
1503.09, 0.798524
1503.53, 0.798659
1503.96, 0.799065
1504.4, 0.799403
1504.83, 0.798997
1505.27, 0.798997
1505.71, 0.799065
1506.15, 0.799200
1506.58, 0.799268
1507.02, 0.799538
1507.46, 0.799200
1507.9, 0.798727
1508.34, 0.798659
1508.78, 0.798862
1509.21, 0.798794
1509.66, 0.799336
1510.09, 0.799471
1510.53, 0.799403
1510.97, 0.799065
1511.42, 0.799471
1511.86, 0.799538
1512.3, 0.799336
1512.74, 0.798930
1513.18, 0.798930
1513.62, 0.799065
1514.06, 0.799403
1514.51, 0.799606
1514.95, 0.799674
1515.39, 0.799403
1515.83, 0.799200
1516.28, 0.798930
1516.72, 0.799065
1517.16, 0.798997
1517.61, 0.798997
1518.05, 0.799133
1518.5, 0.799200
1518.94, 0.799471
1519.39, 0.799538
1519.83, 0.799674
1520.28, 0.799674
1520.73, 0.799200
1521.17, 0.798862
1521.62, 0.798997
1522.07, 0.799336
1522.51, 0.798862
1522.96, 0.799065
1523.41, 0.799268
1523.85, 0.799403
1524.3, 0.799336
1524.75, 0.799606
1525.2, 0.799809
1525.65, 0.799741
1526.1, 0.799471
1526.55, 0.799403
1527.0, 0.799606
1527.45, 0.799877
1527.9, 0.799538
1528.35, 0.799268
1528.8, 0.799336
1529.25, 0.799674
1529.7, 0.799471
1530.15, 0.799471
1530.6, 0.799538
1531.05, 0.799606
1531.51, 0.799336
1531.96, 0.799403
1532.41, 0.799471
1532.87, 0.799944
1533.32, 0.800012
1533.77, 0.799606
1534.23, 0.799674
1534.68, 0.800147
1535.14, 0.800553
1535.59, 0.800350
1536.05, 0.800215
1536.5, 0.800147
1536.96, 0.800080
1537.41, 0.800215
1537.87, 0.800350
1538.32, 0.800621
1538.78, 0.800688
1539.24, 0.800688
1539.7, 0.800418
1540.15, 0.800215
1540.61, 0.800350
1541.07, 0.800621
1541.53, 0.800824
1541.98, 0.801094
1542.44, 0.800959
1542.9, 0.800824
1543.36, 0.800959
1543.82, 0.801094
1544.28, 0.801229
1544.74, 0.801906
1545.2, 0.801703
1545.66, 0.801635
1546.12, 0.801568
1546.59, 0.801432
1547.05, 0.801365
1547.51, 0.801297
1547.97, 0.801297
1548.43, 0.801500
1548.9, 0.802109
1549.36, 0.802109
1549.82, 0.801770
1550.29, 0.801770
1550.75, 0.802041
1551.21, 0.802244
1551.68, 0.802244
1552.14, 0.802447
1552.61, 0.802312
1553.07, 0.802379
1553.54, 0.802447
1554.0, 0.802650
1554.47, 0.802853
1554.93, 0.802920
1555.4, 0.802785
1555.87, 0.802785
1556.34, 0.803191
1556.8, 0.803258
1557.27, 0.803191
1557.74, 0.803056
1558.21, 0.803191
1558.68, 0.803191
1559.14, 0.803123
1559.61, 0.803258
1560.08, 0.803529
1560.55, 0.803867
1561.02, 0.804070
1561.49, 0.804273
1561.96, 0.804002
1562.43, 0.803664
1562.9, 0.803732
1563.38, 0.804002
1563.85, 0.804205
1564.32, 0.804408
1564.79, 0.804341
1565.26, 0.804476
1565.74, 0.804341
1566.21, 0.804544
1566.68, 0.804814
1567.16, 0.805017
1567.63, 0.805085
1568.1, 0.805220
1568.58, 0.805085
1569.05, 0.804611
1569.53, 0.804408
1570.0, 0.804882
1570.48, 0.805085
1570.96, 0.804814
1571.43, 0.804747
1571.91, 0.805017
1572.39, 0.805355
1572.86, 0.805423
1573.34, 0.805491
1573.82, 0.805558
1574.3, 0.805423
1574.77, 0.805288
1575.25, 0.805491
1575.73, 0.806235
1576.21, 0.806235
1576.69, 0.805896
1577.17, 0.805896
1577.65, 0.805964
1578.13, 0.806235
1578.61, 0.806302
1579.09, 0.806505
1579.57, 0.806302
1580.05, 0.806437
1580.54, 0.806437
1581.02, 0.806505
1581.5, 0.806505
1581.98, 0.806235
1582.47, 0.806370
1582.95, 0.806979
1583.43, 0.807114
1583.92, 0.807046
1584.4, 0.806911
1584.88, 0.806911
1585.37, 0.807046
1585.85, 0.807114
1586.34, 0.807384
1586.82, 0.807317
1587.31, 0.807587
1587.8, 0.807384
1588.28, 0.806776
1588.77, 0.806640
1589.26, 0.807249
1589.74, 0.807520
1590.23, 0.807587
1590.72, 0.807181
1591.21, 0.807114
1591.7, 0.807384
1592.19, 0.807520
1592.67, 0.807317
1593.16, 0.807655
1593.65, 0.807723
1594.14, 0.807655
1594.63, 0.807790
1595.12, 0.808061
1595.61, 0.808196
1596.11, 0.808264
1596.6, 0.808467
1597.09, 0.808264
1597.58, 0.808196
1598.08, 0.808467
1598.57, 0.808670
1599.06, 0.808670
1599.55, 0.808534
1600.05, 0.808670
1600.54, 0.808737
1601.04, 0.808872
1601.53, 0.808872
1602.03, 0.809143
1602.52, 0.809211
1603.02, 0.809346
1603.51, 0.809413
1604.01, 0.809346
1604.5, 0.809413
1605.0, 0.809819
1605.5, 0.810090
1606.0, 0.810360
1606.49, 0.810157
1606.99, 0.810090
1607.49, 0.810225
1607.99, 0.810428
1608.49, 0.810428
1608.99, 0.810631
1609.49, 0.810360
1609.99, 0.810563
1610.49, 0.810428
1610.99, 0.810699
1611.49, 0.810969
1611.99, 0.811037
1612.49, 0.811037
1612.99, 0.811104
1613.49, 0.811104
1614.0, 0.811307
1614.5, 0.811510
1615.0, 0.811578
1615.51, 0.811713
1616.01, 0.811781
1616.51, 0.811848
1617.02, 0.812187
1617.52, 0.812389
1618.03, 0.812457
1618.53, 0.812457
1619.04, 0.812728
1619.54, 0.812525
1620.05, 0.812525
1620.55, 0.812457
1621.06, 0.812660
1621.57, 0.812795
1622.08, 0.812728
1622.58, 0.812931
1623.09, 0.813133
1623.6, 0.813269
1624.11, 0.813404
1624.62, 0.813607
1625.13, 0.813742
1625.64, 0.813607
1626.15, 0.813742
1626.66, 0.813945
1627.17, 0.814080
1627.68, 0.814013
1628.19, 0.814013
1628.7, 0.814013
1629.21, 0.814351
1629.72, 0.814689
1630.24, 0.814622
1630.75, 0.814554
1631.26, 0.814622
1631.78, 0.814419
1632.29, 0.814757
1632.8, 0.814892
1633.32, 0.814960
1633.83, 0.814824
1634.35, 0.814960
1634.86, 0.815433
1635.38, 0.815636
1635.9, 0.815704
1636.41, 0.815704
1636.93, 0.815771
1637.45, 0.816042
1637.96, 0.815974
1638.48, 0.815636
1639.0, 0.815907
1639.52, 0.816177
1640.04, 0.816245
1640.56, 0.816515
1641.08, 0.816448
1641.59, 0.816042
1642.11, 0.816042
1642.63, 0.816245
1643.16, 0.816380
1643.68, 0.816718
1644.2, 0.816718
1644.72, 0.816786
1645.24, 0.816718
1645.76, 0.816651
1646.29, 0.816786
1646.81, 0.816921
1647.33, 0.816786
1647.86, 0.816786
1648.38, 0.816854
1648.9, 0.816854
1649.43, 0.816921
1649.95, 0.817124
1650.48, 0.817259
1651.0, 0.817327
1651.53, 0.817598
1652.06, 0.817462
1652.58, 0.817395
1653.11, 0.817665
1653.64, 0.817530
1654.17, 0.817733
1654.69, 0.817733
1655.22, 0.817665
1655.75, 0.817733
1656.28, 0.818071
1656.81, 0.817868
1657.34, 0.817800
1657.87, 0.818139
1658.4, 0.818071
1658.93, 0.817936
1659.46, 0.818139
1659.99, 0.818545
1660.52, 0.818612
1661.05, 0.818409
1661.59, 0.818342
1662.12, 0.818545
1662.65, 0.818342
1663.19, 0.818409
1663.72, 0.818545
1664.26, 0.818883
1664.79, 0.819153
1665.32, 0.819086
1665.86, 0.819288
1666.39, 0.819153
1666.93, 0.819424
1667.47, 0.819288
1668.0, 0.819221
1668.54, 0.819086
1669.08, 0.819491
1669.61, 0.819694
1670.15, 0.819627
1670.69, 0.819694
1671.23, 0.820033
1671.77, 0.820235
1672.31, 0.820168
1672.85, 0.820100
1673.39, 0.820303
1673.93, 0.820303
1674.47, 0.820438
1675.01, 0.820371
1675.55, 0.820371
1676.09, 0.820371
1676.64, 0.820574
1677.18, 0.820912
1677.72, 0.821115
1678.26, 0.821047
1678.81, 0.821182
1679.35, 0.821115
1679.89, 0.821047
1680.44, 0.821047
1680.98, 0.821385
1681.53, 0.821453
1682.07, 0.821318
1682.62, 0.821521
1683.17, 0.821791
1683.71, 0.821791
1684.26, 0.821859
1684.81, 0.821926
1685.36, 0.822332
1685.9, 0.822265
1686.45, 0.822062
1687.0, 0.822265
1687.55, 0.822265
1688.1, 0.822400
1688.65, 0.822603
1689.2, 0.822603
1689.75, 0.822467
1690.3, 0.822806
1690.85, 0.822941
1691.41, 0.823076
1691.96, 0.823211
1692.51, 0.823482
1693.06, 0.823482
1693.61, 0.823550
1694.17, 0.823820
1694.72, 0.823753
1695.28, 0.823550
1695.83, 0.823753
1696.39, 0.824091
1696.94, 0.824294
1697.5, 0.824226
1698.05, 0.824226
1698.61, 0.824158
1699.17, 0.824294
1699.72, 0.824226
1700.28, 0.824158
1700.84, 0.824361
1701.4, 0.824632
1701.95, 0.824632
1702.51, 0.824767
1703.07, 0.824970
1703.63, 0.824835
1704.19, 0.824767
1704.75, 0.824970
1705.31, 0.825038
1705.88, 0.825376
1706.44, 0.825376
1707.0, 0.825308
1707.56, 0.825308
1708.12, 0.825308
1708.69, 0.825714
1709.25, 0.825646
1709.81, 0.825782
1710.38, 0.825714
1710.94, 0.825849
1711.51, 0.825376
1712.07, 0.825308
1712.64, 0.825511
1713.2, 0.825849
1713.77, 0.826052
1714.34, 0.825849
1714.9, 0.825782
1715.47, 0.825985
1716.04, 0.826052
1716.61, 0.825985
1717.18, 0.826052
1717.74, 0.826187
1718.31, 0.826255
1718.88, 0.826255
1719.45, 0.826052
1720.02, 0.826120
1720.59, 0.826323
1721.17, 0.826458
1721.74, 0.826458
1722.31, 0.826661
1722.88, 0.826593
1723.45, 0.826593
1724.03, 0.826458
1724.6, 0.826526
1725.18, 0.826593
1725.75, 0.826796
1726.33, 0.826864
1726.9, 0.827067
1727.48, 0.826999
1728.05, 0.826864
1728.63, 0.826796
1729.2, 0.826796
1729.78, 0.826931
1730.36, 0.827134
1730.94, 0.827270
1731.51, 0.827270
1732.09, 0.827405
1732.67, 0.827608
1733.25, 0.827405
1733.83, 0.827337
1734.41, 0.827337
1734.99, 0.827473
1735.57, 0.827337
1736.15, 0.827405
1736.73, 0.827405
1737.32, 0.827473
1737.9, 0.827473
1738.48, 0.827811
1739.07, 0.827811
1739.65, 0.827473
1740.23, 0.827405
1740.82, 0.827743
1741.4, 0.827811
1741.99, 0.827946
1742.57, 0.827946
1743.16, 0.827946
1743.74, 0.828014
1744.33, 0.828217
1744.92, 0.828352
1745.51, 0.828420
1746.09, 0.828217
1746.68, 0.828487
1747.27, 0.828352
1747.86, 0.828622
1748.45, 0.828690
1749.04, 0.828622
1749.63, 0.828893
1750.22, 0.829096
1750.81, 0.829096
1751.4, 0.829096
1751.99, 0.829164
1752.59, 0.829231
1753.18, 0.828893
1753.77, 0.829028
1754.37, 0.829164
1754.96, 0.829366
1755.56, 0.829299
1756.15, 0.829434
1756.74, 0.829502
1757.34, 0.829569
1757.94, 0.829569
1758.53, 0.829772
1759.13, 0.829908
1759.73, 0.830178
1760.32, 0.829908
1760.92, 0.829975
1761.52, 0.830043
1762.12, 0.830110
1762.72, 0.829975
1763.32, 0.830110
1763.92, 0.830110
1764.52, 0.830381
1765.12, 0.830178
1765.72, 0.830178
1766.32, 0.830246
1766.92, 0.830584
1767.53, 0.830584
1768.13, 0.830652
1768.73, 0.830854
1769.34, 0.830990
1769.94, 0.831057
1770.55, 0.830990
1771.15, 0.830854
1771.76, 0.830990
1772.36, 0.831193
1772.97, 0.831125
1773.57, 0.831193
1774.18, 0.831531
1774.79, 0.831598
1775.4, 0.831801
1776.0, 0.831801
1776.61, 0.831801
1777.22, 0.831801
1777.83, 0.831869
1778.44, 0.831869
1779.05, 0.831937
1779.66, 0.831734
1780.27, 0.831734
1780.88, 0.831666
1781.5, 0.831801
1782.11, 0.831801
1782.72, 0.831801
1783.33, 0.831937
1783.95, 0.832275
1784.56, 0.832140
1785.18, 0.831801
1785.79, 0.831734
1786.41, 0.831869
1787.02, 0.832004
1787.64, 0.832275
1788.26, 0.832342
1788.87, 0.832140
1789.49, 0.832004
1790.11, 0.831801
1790.73, 0.831734
1791.35, 0.831801
1791.96, 0.832140
1792.58, 0.832275
1793.21, 0.832207
1793.83, 0.832410
1794.45, 0.832410
1795.07, 0.832410
1795.69, 0.832275
1796.31, 0.832342
1796.93, 0.832748
1797.56, 0.832613
1798.18, 0.832681
1798.8, 0.832748
1799.43, 0.832884
1800.05, 0.832884
1800.68, 0.832613
1801.3, 0.832275
1801.93, 0.832275
1802.56, 0.832342
1803.18, 0.832342
1803.81, 0.832275
1804.44, 0.832342
1805.07, 0.832410
1805.7, 0.832681
1806.33, 0.832748
1806.95, 0.832545
1807.58, 0.832410
1808.22, 0.832410
1808.85, 0.832478
1809.48, 0.832342
1810.11, 0.832342
1810.74, 0.832140
1811.38, 0.832207
1812.01, 0.832207
1812.64, 0.832207
1813.28, 0.832275
1813.91, 0.832342
1814.55, 0.832275
1815.18, 0.832478
1815.82, 0.832478
1816.45, 0.832748
1817.09, 0.832816
1817.73, 0.832816
1818.36, 0.832951
1819.0, 0.832681
1819.64, 0.832478
1820.28, 0.832342
1820.92, 0.832207
1821.56, 0.832275
1822.2, 0.832613
1822.84, 0.832884
1823.48, 0.832748
1824.12, 0.832613
1824.76, 0.832681
1825.41, 0.832748
1826.05, 0.832816
1826.69, 0.832884
1827.34, 0.832951
1827.98, 0.833019
1828.63, 0.832884
1829.27, 0.832816
1829.92, 0.832951
1830.56, 0.832884
1831.21, 0.833019
1831.86, 0.833222
1832.5, 0.832884
1833.15, 0.832816
1833.8, 0.832816
1834.45, 0.832748
1835.1, 0.832681
1835.75, 0.832545
1836.4, 0.832613
1837.05, 0.832681
1837.7, 0.832545
1838.35, 0.832613
1839.01, 0.832748
1839.66, 0.832613
1840.31, 0.832748
1840.96, 0.832816
1841.62, 0.832816
1842.27, 0.832613
1842.93, 0.832951
1843.58, 0.833154
1844.24, 0.832884
1844.9, 0.832884
1845.55, 0.832748
1846.21, 0.832545
1846.87, 0.832410
1847.53, 0.832410
1848.18, 0.832478
1848.84, 0.832748
1849.5, 0.832816
1850.16, 0.832884
1850.82, 0.832748
1851.48, 0.832681
1852.14, 0.832478
1852.81, 0.832342
1853.47, 0.832613
1854.13, 0.832613
1854.8, 0.832545
1855.46, 0.832545
1856.12, 0.832004
1856.79, 0.832140
1857.45, 0.832478
1858.12, 0.832410
1858.79, 0.831937
1859.45, 0.831801
1860.12, 0.831937
1860.79, 0.832004
1861.46, 0.831801
1862.12, 0.831598
1862.79, 0.831666
1863.46, 0.831598
1864.13, 0.831328
1864.8, 0.831057
1865.48, 0.830922
1866.15, 0.831057
1866.82, 0.830719
1867.49, 0.830178
1868.16, 0.830043
1868.84, 0.830043
1869.51, 0.829705
1870.19, 0.829164
1870.86, 0.828758
1871.54, 0.828555
1872.21, 0.828487
1872.89, 0.828081
1873.56, 0.827608
1874.24, 0.827473
1874.92, 0.827134
1875.6, 0.826526
1876.28, 0.826187
1876.96, 0.825849
1877.64, 0.825308
1878.32, 0.824767
1879.0, 0.824091
1879.68, 0.823482
1880.36, 0.822806
1881.04, 0.821994
1881.73, 0.821318
1882.41, 0.820777
1883.09, 0.819830
1883.78, 0.818950
1884.46, 0.818139
1885.15, 0.817192
1885.83, 0.815907
1886.52, 0.814486
1887.21, 0.813404
1887.89, 0.812389
1888.58, 0.811172
1889.27, 0.809549
1889.96, 0.807925
1890.65, 0.806235
1891.34, 0.804273
1892.03, 0.802244
1892.72, 0.800350
1893.41, 0.798321
1894.1, 0.796360
1894.79, 0.794330
1895.49, 0.792234
1896.18, 0.789934
1896.87, 0.787634
1897.57, 0.785470
1898.26, 0.783170
1898.96, 0.781344
1899.65, 0.779247
1900.35, 0.777556
1901.05, 0.776204
1901.74, 0.774580
1902.44, 0.772687
1903.14, 0.771537
1903.84, 0.770252
1904.54, 0.769034
1905.24, 0.768087
1905.94, 0.767478
1906.64, 0.767140
1907.34, 0.766802
1908.04, 0.766532
1908.75, 0.766261
1909.45, 0.766058
1910.15, 0.766193
1910.86, 0.766464
1911.56, 0.766937
1912.27, 0.767276
1912.97, 0.767614
1913.68, 0.768358
1914.39, 0.769169
1915.09, 0.769981
1915.8, 0.770725
1916.51, 0.771266
1917.22, 0.772010
1917.93, 0.773025
1918.64, 0.773972
1919.35, 0.774445
1920.06, 0.775121
1920.77, 0.776204
1921.48, 0.777286
1922.19, 0.778098
1922.91, 0.778841
1923.62, 0.779788
1924.33, 0.780803
1925.05, 0.781547
1925.76, 0.782291
1926.48, 0.782832
1927.19, 0.783847
1927.91, 0.784591
1928.63, 0.785470
1929.35, 0.786146
1930.07, 0.786620
1930.78, 0.787431
1931.5, 0.788243
1932.22, 0.788852
1932.94, 0.789461
1933.66, 0.790002
1934.39, 0.790610
1935.11, 0.791219
1935.83, 0.791963
1936.55, 0.792437
1937.28, 0.792910
1938.0, 0.793451
1938.73, 0.794060
1939.45, 0.794533
1940.18, 0.795074
1940.9, 0.795480
1941.63, 0.796021
1942.36, 0.796360
1943.09, 0.796630
1943.81, 0.797104
1944.54, 0.797509
1945.27, 0.797848
1946.0, 0.798389
1946.73, 0.798456
1947.47, 0.798659
1948.2, 0.798862
1948.93, 0.799268
1949.66, 0.799877
1950.4, 0.800215
1951.13, 0.800350
1951.86, 0.800553
1952.6, 0.800688
1953.34, 0.800959
1954.07, 0.801297
1954.81, 0.801838
1955.55, 0.801973
1956.29, 0.801906
1957.02, 0.802041
1957.76, 0.802312
1958.5, 0.802447
1959.24, 0.802650
1959.98, 0.802920
1960.72, 0.803191
1961.47, 0.803461
1962.21, 0.803664
1962.95, 0.803732
1963.7, 0.803732
1964.44, 0.803867
1965.18, 0.804273
1965.93, 0.804408
1966.67, 0.804476
1967.42, 0.804679
1968.17, 0.804814
1968.92, 0.804882
1969.66, 0.805220
1970.41, 0.805423
1971.16, 0.805491
1971.91, 0.805491
1972.66, 0.805761
1973.41, 0.805896
1974.16, 0.806167
1974.92, 0.806235
1975.67, 0.806235
1976.42, 0.806370
1977.18, 0.806911
1977.93, 0.807046
1978.69, 0.807046
1979.44, 0.807046
1980.2, 0.807046
1980.95, 0.807046
1981.71, 0.807384
1982.47, 0.807655
1983.23, 0.807858
1983.99, 0.808061
1984.74, 0.808467
1985.51, 0.808670
1986.27, 0.808805
1987.03, 0.808940
1987.79, 0.809008
1988.55, 0.809008
1989.32, 0.809413
1990.08, 0.809413
1990.84, 0.809549
1991.61, 0.809752
1992.37, 0.810022
1993.14, 0.810360
1993.9, 0.810631
1994.67, 0.810631
1995.44, 0.810766
1996.21, 0.810969
1996.98, 0.811172
1997.75, 0.811307
1998.52, 0.811713
1999.29, 0.812051
2000.06, 0.812254
2000.83, 0.812254
2001.6, 0.812254
2002.38, 0.812660
2003.15, 0.812863
2003.93, 0.813201
2004.7, 0.813607
2005.48, 0.814080
2006.25, 0.814486
2007.03, 0.814486
2007.81, 0.814216
2008.58, 0.814486
2009.36, 0.814892
2010.14, 0.815027
2010.92, 0.815230
2011.7, 0.815771
2012.48, 0.816042
2013.26, 0.815974
2014.05, 0.816177
2014.83, 0.816651
2015.61, 0.816989
2016.4, 0.816989
2017.18, 0.817327
2017.97, 0.817800
2018.75, 0.817936
2019.54, 0.817868
2020.32, 0.818071
2021.11, 0.818206
2021.9, 0.818477
2022.69, 0.818747
2023.48, 0.819018
2024.27, 0.819356
2025.06, 0.819762
2025.85, 0.819965
2026.64, 0.820033
2027.44, 0.820100
2028.23, 0.820168
2029.02, 0.820438
2029.82, 0.820641
2030.61, 0.820844
2031.41, 0.821250
2032.2, 0.821318
2033.0, 0.821453
2033.8, 0.821588
2034.6, 0.821926
2035.4, 0.822062
2036.2, 0.822265
2037.0, 0.822603
2037.8, 0.822670
2038.6, 0.822941
2039.4, 0.823279
2040.2, 0.823347
2041.01, 0.823550
2041.81, 0.823753
2042.61, 0.823955
2043.42, 0.824091
2044.22, 0.824158
2045.03, 0.824091
2045.84, 0.824158
2046.65, 0.824429
2047.46, 0.824767
2048.26, 0.824767
2049.07, 0.824835
2049.88, 0.824970
2050.69, 0.825173
2051.51, 0.825376
2052.32, 0.825376
2053.13, 0.825579
2053.94, 0.825579
2054.76, 0.825579
2055.57, 0.825511
2056.39, 0.825714
2057.2, 0.825917
2058.02, 0.825985
2058.84, 0.826052
2059.66, 0.825985
2060.48, 0.826187
2061.29, 0.826187
2062.11, 0.826187
2062.94, 0.825849
2063.76, 0.826052
2064.58, 0.826120
2065.4, 0.826458
2066.22, 0.826526
2067.05, 0.826458
2067.87, 0.826323
2068.7, 0.826255
2069.52, 0.826390
2070.35, 0.826120
2071.18, 0.826052
2072.0, 0.825985
2072.83, 0.826120
2073.66, 0.826187
2074.49, 0.826187
2075.32, 0.826187
2076.15, 0.826323
2076.98, 0.826187
2077.82, 0.825917
2078.65, 0.825917
2079.48, 0.825782
2080.32, 0.825579
2081.15, 0.825376
2081.99, 0.825443
2082.83, 0.825376
2083.66, 0.825241
2084.5, 0.825241
2085.34, 0.825308
2086.18, 0.824970
2087.02, 0.824970
2087.86, 0.825105
2088.7, 0.825038
2089.54, 0.824632
2090.39, 0.824361
2091.23, 0.824158
2092.07, 0.824091
2092.92, 0.823888
2093.76, 0.823617
2094.61, 0.823550
2095.45, 0.823753
2096.3, 0.823550
2097.15, 0.823414
2098.0, 0.823550
2098.85, 0.823347
2099.7, 0.823076
2100.55, 0.823144
2101.4, 0.823009
2102.25, 0.822873
2103.1, 0.822670
2103.96, 0.822400
2104.81, 0.822129
2105.67, 0.822062
2106.52, 0.821723
2107.38, 0.821588
2108.24, 0.821588
2109.09, 0.821723
2109.95, 0.821656
2110.81, 0.821521
2111.67, 0.821385
2112.53, 0.821453
2113.39, 0.821318
2114.25, 0.821521
2115.12, 0.821723
2115.98, 0.821656
2116.84, 0.821453
2117.71, 0.821318
2118.58, 0.821318
2119.44, 0.821318
2120.31, 0.821453
2121.18, 0.821385
2122.04, 0.821521
2122.91, 0.821521
2123.78, 0.821453
2124.65, 0.821521
2125.52, 0.821521
2126.4, 0.821588
2127.27, 0.821453
2128.14, 0.821588
2129.02, 0.821656
2129.89, 0.821723
2130.77, 0.821791
2131.64, 0.821791
2132.52, 0.821656
2133.4, 0.821791
2134.27, 0.821926
2135.15, 0.821791
2136.03, 0.821791
2136.91, 0.821791
2137.79, 0.821994
2138.68, 0.821926
2139.56, 0.821791
2140.44, 0.822062
2141.33, 0.821649
2142.21, 0.821374
2143.1, 0.821443
2143.99, 0.821512
2144.87, 0.820962
2145.76, 0.820687
2146.65, 0.820618
2147.54, 0.820412
2148.43, 0.820824
2149.32, 0.821237
2150.21, 0.821168
2151.1, 0.820687
2151.99, 0.819656
2152.89, 0.819725
2153.78, 0.819518
2154.68, 0.819106
2155.57, 0.818968
2156.47, 0.818968
2157.37, 0.819450
2158.27, 0.819725
2159.16, 0.819793
2160.06, 0.819175
2160.96, 0.818487
2161.86, 0.818143
2162.77, 0.817662
2163.67, 0.817594
2164.57, 0.817319
2165.48, 0.816906
2166.38, 0.816219
2167.29, 0.815325
2168.2, 0.814981
2169.1, 0.815050
2170.01, 0.814913
2170.92, 0.813950
2171.83, 0.813538
2172.74, 0.813125
2173.65, 0.812438
2174.56, 0.812232
2175.47, 0.811613
2176.39, 0.810651
2177.3, 0.809895
2178.22, 0.809482
2179.13, 0.809001
2180.05, 0.808520
2180.96, 0.807832
2181.88, 0.807145
2182.8, 0.806045
2183.72, 0.805770
2184.64, 0.804877
2185.56, 0.804052
2186.48, 0.803227
2187.41, 0.802608
2188.33, 0.801783
2189.25, 0.800752
2190.18, 0.799652
2191.1, 0.799034
2192.03, 0.798415
2192.96, 0.797865
2193.89, 0.796903
2194.82, 0.795322
2195.74, 0.794084
2196.68, 0.793535
2197.61, 0.792847
2198.54, 0.792229
2199.47, 0.790991
2200.4, 0.790235
2201.34, 0.789685
2202.28, 0.788860
2203.21, 0.787760
2204.15, 0.787210
2205.08, 0.786592
2206.02, 0.785973
2206.96, 0.785080
2207.9, 0.784392
2208.84, 0.783773
2209.78, 0.783292
2210.73, 0.782330
2211.67, 0.782124
2212.61, 0.781986
2213.56, 0.781917
2214.5, 0.781368
2215.45, 0.781161
2216.4, 0.780749
2217.35, 0.781161
2218.3, 0.781574
2219.24, 0.781574
2220.2, 0.781024
2221.15, 0.780749
2222.1, 0.780886
2223.05, 0.780955
2224.0, 0.780886
2224.96, 0.781299
2225.91, 0.781642
2226.87, 0.781299
2227.83, 0.780680
2228.79, 0.780268
2229.74, 0.780268
2230.7, 0.780199
2231.66, 0.780061
2232.63, 0.779512
2233.59, 0.779374
2234.55, 0.779718
2235.51, 0.779099
2236.48, 0.779305
2237.44, 0.779305
2238.41, 0.779787
2239.38, 0.779580
2240.34, 0.779237
2241.31, 0.779030
2242.28, 0.779099
2243.25, 0.778824
2244.22, 0.779237
2245.19, 0.779924
2246.17, 0.780130
2247.14, 0.779924
2248.12, 0.780474
2249.09, 0.781024
2250.07, 0.781436
2251.04, 0.781986
2252.02, 0.782467
2253.0, 0.782742
2253.98, 0.783155
2254.96, 0.783430
2255.94, 0.783705
2256.92, 0.784255
2257.91, 0.784736
2258.89, 0.785286
2259.88, 0.786386
2260.86, 0.786592
2261.85, 0.786729
2262.83, 0.786867
2263.82, 0.787348
2264.81, 0.786729
2265.8, 0.786798
2266.79, 0.786867
2267.78, 0.786867
2268.78, 0.786867
2269.77, 0.786729
2270.76, 0.786317
2271.76, 0.786386
2272.75, 0.785698
2273.75, 0.784942
2274.75, 0.784048
2275.75, 0.783155
2276.75, 0.783155
2277.75, 0.782399
2278.75, 0.781299
2279.75, 0.780611
2280.75, 0.779580
2281.76, 0.778480
2282.76, 0.776968
2283.77, 0.775456
2284.77, 0.773944
2285.78, 0.772981
2286.79, 0.771263
2287.8, 0.769269
2288.81, 0.767963
2289.82, 0.767070
2290.83, 0.765489
2291.84, 0.764595
2292.86, 0.763976
2293.87, 0.763289
2294.89, 0.761845
2295.91, 0.761433
2296.92, 0.761021
2297.94, 0.760952
2298.96, 0.761089
2299.98, 0.760608
2301.0, 0.759852
2302.02, 0.759165
2303.04, 0.758958
2304.07, 0.758546
2305.09, 0.756965
2306.12, 0.755865
2307.15, 0.754490
2308.17, 0.752909
2309.2, 0.751122
2310.23, 0.749541
2311.26, 0.747685
2312.29, 0.746035
2313.32, 0.743973
2314.35, 0.742530
2315.39, 0.741430
2316.42, 0.741155
2317.46, 0.740811
2318.5, 0.740880
2319.53, 0.740536
2320.57, 0.739986
2321.61, 0.740055
2322.65, 0.740880
2323.69, 0.741980
2324.73, 0.743286
2325.78, 0.743767
2326.82, 0.744317
2327.86, 0.744798
2328.91, 0.746035
2329.96, 0.747066
2331.01, 0.747410
2332.05, 0.747891
2333.1, 0.748647
2334.15, 0.748922
2335.21, 0.749610
2336.26, 0.750366
2337.31, 0.751122
2338.36, 0.751053
2339.42, 0.751534
2340.48, 0.751534
2341.53, 0.751878
2342.59, 0.752497
2343.65, 0.752909
2344.71, 0.753253
2345.77, 0.753872
2346.83, 0.753940
2347.9, 0.753734
2348.96, 0.753940
2350.02, 0.754559
2351.09, 0.754903
2352.16, 0.755040
2353.23, 0.754971
2354.29, 0.755453
2355.36, 0.755315
2356.43, 0.755109
2357.51, 0.755109
2358.58, 0.755178
2359.65, 0.755315
2360.73, 0.755246
2361.8, 0.755246
2362.88, 0.755659
2363.96, 0.755590
2365.03, 0.755590
2366.11, 0.755590
2367.19, 0.755590
2368.27, 0.755521
2369.36, 0.755246
2370.44, 0.754765
2371.53, 0.754834
2372.61, 0.753940
2373.7, 0.753253
2374.78, 0.752772
2375.87, 0.752016
2376.96, 0.751122
2378.05, 0.750228
2379.14, 0.749678
2380.24, 0.749129
2381.33, 0.748510
2382.42, 0.747410
2383.52, 0.746585
2384.61, 0.746448
2385.71, 0.745898
2386.81, 0.745210
2387.91, 0.744935
2389.01, 0.744935
2390.11, 0.744592
2391.22, 0.744729
2392.32, 0.744592
2393.42, 0.744454
2394.53, 0.744179
2395.64, 0.744111
2396.74, 0.744592
2397.85, 0.745073
2398.96, 0.745348
2400.07, 0.745760
2401.18, 0.745829
2402.3, 0.746173
2403.41, 0.746379
2404.52, 0.746516
2405.64, 0.746310
2406.76, 0.746585
2407.88, 0.746173
2408.99, 0.745760
2410.11, 0.745210
2411.23, 0.744729
2412.36, 0.744248
2413.48, 0.743698
2414.6, 0.742598
2415.73, 0.742254
2416.85, 0.741498
2417.98, 0.740536
2419.11, 0.739574
2420.24, 0.738955
2421.37, 0.738405
2422.5, 0.737580
2423.64, 0.736962
2424.77, 0.736549
2425.9, 0.735862
2427.04, 0.735380
2428.18, 0.734418
2429.31, 0.733662
2430.45, 0.732975
2431.59, 0.732837
2432.73, 0.732287
2433.88, 0.731600
2435.02, 0.731325
2436.16, 0.731256
2437.31, 0.730844
2438.45, 0.730500
2439.6, 0.729744
2440.75, 0.729331
2441.9, 0.729056
2443.05, 0.728644
2444.2, 0.728507
2445.35, 0.728163
2446.51, 0.727269
2447.67, 0.727269
2448.82, 0.727682
2449.98, 0.727269
2451.14, 0.726582
2452.3, 0.726238
2453.46, 0.725826
2454.62, 0.725826
2455.78, 0.725551
2456.94, 0.725276
2458.11, 0.725070
2459.28, 0.724932
2460.44, 0.724657
2461.61, 0.725070
2462.78, 0.725070
2463.95, 0.724657
2465.12, 0.724588
2466.3, 0.724726
2467.47, 0.724588
2468.65, 0.724588
2469.82, 0.724382
2471.0, 0.724588
2472.18, 0.725001
2473.36, 0.725001
2474.54, 0.724795
2475.72, 0.725001
2476.9, 0.725207
2478.08, 0.725344
2479.27, 0.725207
2480.46, 0.725344
2481.64, 0.725207
2482.83, 0.725207
2484.02, 0.725070
2485.21, 0.725070
2486.4, 0.725070
2487.6, 0.724932
2488.79, 0.724588
2489.99, 0.724588
2491.18, 0.724382
2492.38, 0.724038
2493.58, 0.723626
2494.78, 0.723626
2495.98, 0.723489
2497.18, 0.722939
2498.39, 0.722801
2499.59, 0.722939
2500.8, 0.722870
2502.01, 0.722664
2503.21, 0.721907
2504.42, 0.721426
2505.63, 0.721151
2506.84, 0.721083
2508.06, 0.721083
2509.27, 0.721083
2510.49, 0.720533
2511.7, 0.720189
2512.92, 0.720120
2514.14, 0.719708
2515.36, 0.719295
2516.58, 0.719227
2517.8, 0.718608
2519.03, 0.718195
2520.25, 0.718264
2521.48, 0.718264
2522.7, 0.718127
2523.93, 0.717646
2525.16, 0.717164
2526.39, 0.716958
2527.62, 0.716752
2528.86, 0.716614
2530.09, 0.716065
2531.33, 0.715721
2532.56, 0.715721
2533.8, 0.715652
2535.04, 0.714965
2536.28, 0.714621
2537.52, 0.714621
2538.76, 0.714759
2540.01, 0.714484
2541.25, 0.714346
2542.5, 0.713659
2543.75, 0.713452
2544.99, 0.713384
2546.24, 0.713521
2547.49, 0.713040
2548.75, 0.712971
2550.0, 0.712696
2551.26, 0.712765
2552.51, 0.712696
2553.77, 0.713109
2555.03, 0.713521
2556.29, 0.713315
2557.55, 0.712903
2558.81, 0.712421
2560.08, 0.711115
2561.34, 0.709947
2562.61, 0.709878
2563.88, 0.710359
2565.14, 0.711596
2566.41, 0.712284
2567.68, 0.710978
2568.96, 0.709672
2570.23, 0.710222
2571.51, 0.710565
2572.78, 0.709122
2574.06, 0.709809
2575.34, 0.709603
2576.62, 0.708984
2577.9, 0.709740
2579.18, 0.709672
2580.47, 0.708503
2581.75, 0.708022
2583.04, 0.706235
2584.32, 0.706922
2585.61, 0.707541
2586.9, 0.706303
2588.2, 0.706303
2589.49, 0.707128
2590.78, 0.707610
2592.08, 0.705547
2593.37, 0.700804
2594.67, 0.699292
2595.97, 0.703348
2597.27, 0.705685
2598.57, 0.705891
2599.88, 0.705204
2601.18, 0.704241
2602.49, 0.702935
2603.79, 0.701079
2605.1, 0.700186
2606.41, 0.701217
2607.72, 0.702179
2609.03, 0.701767
2610.35, 0.701835
2611.66, 0.701767
2612.98, 0.701560
2614.3, 0.701148
2615.62, 0.699155
2616.94, 0.698055
2618.26, 0.698605
2619.58, 0.697024
2620.91, 0.697986
2622.23, 0.699636
2623.56, 0.699429
2624.89, 0.697780
2626.22, 0.695924
2627.55, 0.696474
2628.88, 0.694824
2630.21, 0.692968
2631.55, 0.694755
2632.89, 0.694480
2634.22, 0.693930
2635.56, 0.694205
2636.9, 0.693724
2638.25, 0.692555
2639.59, 0.691318
2640.93, 0.690150
2642.28, 0.689393
2643.63, 0.688225
2644.98, 0.686575
2646.33, 0.685819
2647.68, 0.685269
2649.03, 0.683963
2650.39, 0.682107
2651.74, 0.679770
2653.1, 0.678670
2654.46, 0.677295
2655.82, 0.675783
2657.18, 0.674133
2658.54, 0.671315
2659.9, 0.669115
2661.27, 0.667328
2662.64, 0.664372
2664.01, 0.659285
2665.38, 0.655092
2666.74, 0.652892
2668.12, 0.650349
2669.49, 0.643819
2670.87, 0.640107
2672.24, 0.638457
2673.62, 0.633233
2675.0, 0.626221
2676.38, 0.619622
2677.76, 0.614467
2679.15, 0.608418
2680.54, 0.602575
2681.92, 0.594051
2683.31, 0.584290
2684.7, 0.573842
2686.09, 0.562156
2687.48, 0.549233
2688.88, 0.535347
2690.27, 0.519812
2691.67, 0.502902
2693.07, 0.484205
2694.47, 0.466263
2695.87, 0.448872
2697.27, 0.431687
2698.67, 0.413471
2700.08, 0.395324
2701.49, 0.378139
2702.9, 0.362603
2704.31, 0.347137
2705.72, 0.332427
2707.13, 0.317648
2708.54, 0.303625
2709.96, 0.290839
2711.38, 0.280528
2712.8, 0.271798
2714.22, 0.263824
2715.64, 0.257156
2717.06, 0.251451
2718.49, 0.246020
2719.91, 0.240246
2721.34, 0.236809
2722.77, 0.234885
2724.2, 0.233510
2725.63, 0.232960
2727.07, 0.231791
2728.5, 0.230073
2729.94, 0.227667
2731.38, 0.225467
2732.82, 0.223405
2734.26, 0.222168
2735.7, 0.221480
2737.15, 0.220174
2738.59, 0.218181
2740.04, 0.216737
2741.49, 0.215844
2742.94, 0.215362
2744.39, 0.214400
2745.84, 0.213163
2747.3, 0.212132
2748.76, 0.211101
2750.21, 0.209932
2751.67, 0.208832
2753.14, 0.207457
2754.6, 0.205808
2756.06, 0.205876
2757.53, 0.206426
2759.0, 0.206014
2760.46, 0.205326
2761.94, 0.205051
2763.41, 0.205808
2764.88, 0.206289
2766.36, 0.206357
2767.83, 0.207182
2769.31, 0.208145
2770.79, 0.209107
2772.27, 0.210276
2773.76, 0.211101
2775.24, 0.212132
2776.73, 0.213644
2778.22, 0.215569
2779.71, 0.217631
2781.2, 0.219556
2782.69, 0.221755
2784.18, 0.223817
2785.68, 0.225192
2787.18, 0.227254
2788.68, 0.229592
2790.18, 0.231516
2791.68, 0.233235
2793.19, 0.235297
2794.69, 0.237084
2796.2, 0.238528
2797.71, 0.239971
2799.22, 0.241277
2800.73, 0.242583
2802.24, 0.243752
2803.76, 0.245333
2805.28, 0.246777
2806.8, 0.247808
2808.32, 0.248908
2809.84, 0.249801
2811.36, 0.250764
2812.89, 0.251657
2814.42, 0.252551
2815.94, 0.253582
2817.48, 0.254201
2819.01, 0.254682
2820.54, 0.255300
2822.08, 0.256056
2823.61, 0.256881
2825.15, 0.257500
2826.69, 0.257981
2828.23, 0.258394
2829.78, 0.259012
2831.32, 0.259425
2832.87, 0.259906
2834.42, 0.260525
2835.97, 0.261075
2837.52, 0.261281
2839.08, 0.261693
2840.63, 0.261899
2842.19, 0.262037
2843.75, 0.262243
2845.31, 0.262724
2846.87, 0.262931
2848.44, 0.263274
2850.0, 0.263618
2851.57, 0.263755
2853.14, 0.263824
2854.71, 0.264099
2856.28, 0.264305
2857.86, 0.264580
2859.43, 0.264649
2861.01, 0.264718
2862.59, 0.264924
2864.17, 0.265130
2865.76, 0.265268
2867.34, 0.265474
2868.93, 0.265680
2870.52, 0.265749
2872.11, 0.265680
2873.7, 0.265818
2875.29, 0.265955
2876.89, 0.266093
2878.49, 0.266299
2880.08, 0.266436
2881.69, 0.266505
2883.29, 0.266642
2884.89, 0.266849
2886.5, 0.266849
2888.11, 0.267124
2889.72, 0.267467
2891.33, 0.267674
2892.94, 0.267742
2894.56, 0.267949
2896.17, 0.268292
2897.79, 0.268223
2899.42, 0.268155
2901.04, 0.268223
2902.66, 0.268430
2904.29, 0.268636
2905.92, 0.269186
2907.55, 0.269461
2909.18, 0.269530
2910.81, 0.269736
2912.45, 0.269873
2914.08, 0.270079
2915.72, 0.270492
2917.36, 0.270698
2919.01, 0.270836
2920.65, 0.271042
2922.3, 0.271179
2923.94, 0.271454
2925.59, 0.271935
2927.25, 0.272073
2928.9, 0.272279
2930.56, 0.272554
2932.21, 0.273173
2933.87, 0.273654
2935.53, 0.273860
2937.2, 0.274341
2938.86, 0.274685
2940.53, 0.275029
2942.2, 0.275579
2943.87, 0.276060
2945.54, 0.276610
2947.22, 0.277160
2948.89, 0.277503
2950.57, 0.278053
2952.25, 0.278534
2953.93, 0.279153
2955.62, 0.279566
2957.3, 0.280322
2958.99, 0.281009
2960.68, 0.281353
2962.37, 0.281903
2964.07, 0.282590
2965.76, 0.283346
2967.46, 0.284034
2969.16, 0.284652
2970.86, 0.285134
2972.56, 0.285615
2974.27, 0.286302
2975.98, 0.287058
2977.69, 0.288021
2979.4, 0.288914
2981.11, 0.289464
2982.83, 0.290014
2984.54, 0.290839
2986.26, 0.291664
2987.98, 0.292489
2989.71, 0.293314
2991.43, 0.294070
2993.16, 0.294688
2994.89, 0.295307
2996.62, 0.296338
2998.35, 0.297300
3000.09, 0.297850
3001.83, 0.298538
3003.57, 0.299431
3005.31, 0.300325
3007.05, 0.301287
3008.79, 0.301975
3010.54, 0.302662
3012.29, 0.303556
3014.04, 0.304449
3015.8, 0.305343
3017.55, 0.306030
3019.31, 0.306855
3021.07, 0.307680
3022.83, 0.308368
3024.59, 0.309193
3026.36, 0.310155
3028.13, 0.310842
3029.9, 0.311598
3031.67, 0.312561
3033.44, 0.313454
3035.22, 0.314348
3037.0, 0.315035
3038.78, 0.315929
3040.56, 0.316616
3042.34, 0.317166
3044.13, 0.317785
3045.92, 0.318679
3047.71, 0.319504
3049.5, 0.319985
3051.3, 0.320672
3053.09, 0.321566
3054.89, 0.322253
3056.69, 0.322940
3058.5, 0.323559
3060.3, 0.324178
3062.11, 0.324796
3063.92, 0.325690
3065.73, 0.326240
3067.55, 0.326652
3069.36, 0.327340
3071.18, 0.328234
3073.0, 0.328921
3074.82, 0.329402
3076.65, 0.330227
3078.48, 0.330983
3080.31, 0.331258
3082.14, 0.332083
3083.97, 0.333183
3085.8, 0.334008
3087.64, 0.334626
3089.48, 0.335382
3091.33, 0.336139
3093.17, 0.336963
3095.02, 0.337926
3096.87, 0.338819
3098.72, 0.339507
3100.57, 0.340400
3102.43, 0.341432
3104.28, 0.342256
3106.14, 0.343081
3108.01, 0.344319
3109.87, 0.345556
3111.74, 0.346587
3113.61, 0.347343
3115.48, 0.348512
3117.35, 0.349612
3119.23, 0.350780
3121.1, 0.351674
3122.98, 0.352980
3124.87, 0.354080
3126.75, 0.355042
3128.64, 0.356417
3130.53, 0.357860
3132.42, 0.358823
3134.31, 0.359923
3136.21, 0.361366
3138.11, 0.362672
3140.01, 0.363910
3141.91, 0.365147
3143.82, 0.366384
3145.73, 0.367622
3147.64, 0.369134
3149.55, 0.370577
3151.46, 0.371746
3153.38, 0.373189
3155.3, 0.374633
3157.22, 0.376214
3159.14, 0.377589
3161.07, 0.378826
3163.0, 0.380132
3164.93, 0.381576
3166.86, 0.383019
3168.8, 0.384532
3170.74, 0.386044
3172.68, 0.387419
3174.62, 0.388862
3176.56, 0.390306
3178.51, 0.391818
3180.46, 0.393330
3182.42, 0.394636
3184.37, 0.395942
3186.33, 0.397386
3188.29, 0.398967
3190.25, 0.400273
3192.21, 0.401785
3194.18, 0.403298
3196.15, 0.404672
3198.12, 0.405978
3200.09, 0.407216
3202.07, 0.408522
3204.05, 0.410034
3206.03, 0.411340
3208.02, 0.412715
3210.0, 0.414021
3211.99, 0.415465
3213.98, 0.416771
3215.98, 0.418008
3217.97, 0.419245
3219.97, 0.420620
3221.97, 0.421995
3223.98, 0.423301
3225.98, 0.424538
3227.99, 0.425776
3230.0, 0.427013
3232.02, 0.428388
3234.03, 0.429556
3236.05, 0.430656
3238.07, 0.431825
3240.1, 0.432925
3242.12, 0.433887
3244.15, 0.435124
3246.18, 0.436293
3248.22, 0.437599
3250.25, 0.438905
3252.29, 0.440142
3254.33, 0.441173
3256.38, 0.441998
3258.43, 0.443029
3260.47, 0.444129
3262.53, 0.445229
3264.58, 0.446398
3266.64, 0.447566
3268.7, 0.448597
3270.76, 0.449697
3272.82, 0.450866
3274.89, 0.452034
3276.96, 0.453203
3279.04, 0.454303
3281.11, 0.455540
3283.19, 0.456915
3285.27, 0.458015
3287.35, 0.459183
3289.44, 0.460352
3291.53, 0.461520
3293.62, 0.462826
3295.71, 0.464064
3297.81, 0.465164
3299.91, 0.466401
3302.01, 0.467776
3304.11, 0.468738
3306.22, 0.469769
3308.33, 0.471006
3310.44, 0.472038
3312.56, 0.473137
3314.68, 0.474306
3316.8, 0.475337
3318.92, 0.476368
3321.05, 0.477468
3323.18, 0.478293
3325.31, 0.478912
3327.44, 0.479805
3329.58, 0.480424
3331.72, 0.481111
3333.86, 0.481317
3336.01, 0.481317
3338.16, 0.481043
3340.31, 0.480630
3342.46, 0.479736
3344.61, 0.478568
3346.77, 0.477674
3348.94, 0.477124
3351.1, 0.477468
3353.27, 0.478155
3355.44, 0.478843
3357.61, 0.479736
3359.79, 0.480768
3361.97, 0.481867
3364.15, 0.482692
3366.33, 0.483586
3368.52, 0.484479
3370.71, 0.485304
3372.9, 0.486061
3375.1, 0.487229
3377.3, 0.488535
3379.5, 0.489704
3381.71, 0.491079
3383.91, 0.492660
3386.12, 0.494309
3388.34, 0.496028
3390.55, 0.497746
3392.77, 0.499327
3394.99, 0.500840
3397.22, 0.502283
3399.45, 0.503589
3401.68, 0.504689
3403.91, 0.505789
3406.15, 0.506751
3408.39, 0.507645
3410.63, 0.508607
3412.87, 0.509707
3415.12, 0.510944
3417.37, 0.512388
3419.63, 0.513969
3421.88, 0.515206
3424.14, 0.516581
3426.41, 0.517887
3428.67, 0.519262
3430.94, 0.520499
3433.21, 0.521668
3435.49, 0.522836
3437.77, 0.523661
3440.05, 0.524417
3442.33, 0.525449
3444.62, 0.526342
3446.91, 0.527167
3449.2, 0.528198
3451.5, 0.529023
3453.8, 0.529504
3456.1, 0.530192
3458.41, 0.530810
3460.72, 0.531154
3463.03, 0.531085
3465.34, 0.530604
3467.66, 0.529573
3469.98, 0.528198
3472.31, 0.526892
3474.63, 0.526205
3476.96, 0.525998
3479.3, 0.526411
3481.64, 0.527236
3483.97, 0.528611
3486.32, 0.530260
3488.66, 0.531704
3491.01, 0.533147
3493.36, 0.534728
3495.72, 0.536309
3498.08, 0.537753
3500.44, 0.539265
3502.81, 0.540915
3505.18, 0.542702
3507.55, 0.544765
3509.92, 0.546689
3512.3, 0.548683
3514.68, 0.551089
3517.06, 0.553632
3519.45, 0.556175
3521.84, 0.558994
3524.24, 0.561743
3526.64, 0.564562
3529.04, 0.567174
3531.44, 0.569511
3533.85, 0.571642
3536.26, 0.573635
3538.67, 0.575285
3541.09, 0.576866
3543.51, 0.578447
3545.93, 0.579891
3548.36, 0.581265
3550.79, 0.582778
3553.22, 0.584153
3555.66, 0.585390
3558.1, 0.586558
3560.54, 0.587727
3562.99, 0.588758
3565.44, 0.589858
3567.9, 0.590958
3570.35, 0.591989
3572.81, 0.593020
3575.28, 0.594189
3577.75, 0.595357
3580.22, 0.596663
3582.69, 0.597763
3585.17, 0.598863
3587.65, 0.599894
3590.14, 0.600856
3592.62, 0.601819
3595.11, 0.602850
3597.61, 0.603743
3600.11, 0.604568
3602.61, 0.605324
3605.11, 0.606287
3607.62, 0.607249
3610.14, 0.608005
3612.65, 0.608761
3615.17, 0.609518
3617.69, 0.610274
3620.22, 0.611099
3622.75, 0.611923
3625.28, 0.612748
3627.82, 0.613367
3630.36, 0.613986
3632.9, 0.614673
3635.45, 0.615429
3638.0, 0.616117
3640.56, 0.616735
3643.12, 0.617354
3645.68, 0.617973
3648.24, 0.618523
3650.81, 0.619279
3653.39, 0.619829
3655.96, 0.620310
3658.54, 0.620860
3661.13, 0.621410
3663.71, 0.621960
3666.3, 0.622647
3668.9, 0.623128
3671.5, 0.623678
3674.1, 0.624159
3676.7, 0.624503
3679.31, 0.625053
3681.93, 0.625671
3684.54, 0.625878
3687.17, 0.626084
3689.79, 0.626565
3692.42, 0.627046
3695.05, 0.627390
3697.69, 0.627802
3700.32, 0.628146
3702.97, 0.628490
3705.61, 0.628765
3708.27, 0.629040
3710.92, 0.629315
3713.58, 0.629452
3716.24, 0.629658
3718.91, 0.629865
3721.58, 0.629865
3724.25, 0.629933
3726.93, 0.629933
3729.61, 0.630071
3732.29, 0.630071
3734.98, 0.630002
3737.67, 0.629865
3740.37, 0.629727
3743.07, 0.629383
3745.78, 0.629040
3748.49, 0.628627
3751.2, 0.628215
3753.91, 0.627665
3756.63, 0.626978
3759.36, 0.626015
3762.09, 0.624915
3764.82, 0.623541
3767.55, 0.621822
3770.29, 0.619897
3773.04, 0.617766
3775.78, 0.615223
3778.54, 0.612611
3781.29, 0.610067
3784.05, 0.607662
3786.82, 0.605118
3789.59, 0.602712
3792.36, 0.600650
3795.13, 0.598932
3797.92, 0.597557
3800.7, 0.596801
3803.49, 0.596457
3806.28, 0.596732
3809.08, 0.597419
3811.88, 0.598313
3814.68, 0.599138
3817.49, 0.600169
3820.31, 0.601200
3823.12, 0.601819
3825.94, 0.602094
3828.77, 0.602094
3831.6, 0.601887
3834.43, 0.601612
3837.27, 0.601200
3840.11, 0.600719
3842.96, 0.600444
3845.81, 0.600306
3848.67, 0.600031
3851.53, 0.599825
3854.39, 0.599688
3857.26, 0.599413
3860.13, 0.599069
3863.01, 0.598588
3865.89, 0.597901
3868.77, 0.597557
3871.66, 0.597076
3874.55, 0.596526
3877.45, 0.595976
3880.35, 0.595357
3883.26, 0.594670
3886.17, 0.594051
3889.09, 0.593432
3892.01, 0.592676
3894.93, 0.592126
3897.86, 0.591851
3900.79, 0.591508
3903.73, 0.590889
3906.67, 0.590133
3909.62, 0.589583
3912.57, 0.588896
3915.52, 0.588208
3918.48, 0.587246
3921.45, 0.586283
3924.42, 0.585046
3927.39, 0.583946
3930.37, 0.583121
3933.35, 0.582709
3936.34, 0.582022
3939.33, 0.580441
3942.32, 0.577553
3945.32, 0.574185
3948.33, 0.570748
3951.34, 0.567174
3954.35, 0.563462
3957.37, 0.559956
3960.39, 0.556794
3963.42, 0.554044
3966.45, 0.551707
3969.49, 0.549714
3972.53, 0.548202
3975.58, 0.546964
3978.63, 0.545933
3981.68, 0.545658
3984.75, 0.546208
3987.81, 0.547789
3990.88, 0.550264
3993.95, 0.553494
3997.03, 0.557275
4000.12, 0.561537
4003.21, 0.566074
4006.3, 0.570817
4009.4, 0.575285
4012.5, 0.579616
4015.61, 0.583328
4018.72, 0.586421
4021.84, 0.588689
4024.96, 0.591026
4028.09, 0.593295
4031.22, 0.595495
4034.36, 0.597488
4037.5, 0.599619
4040.65, 0.601612
4043.8, 0.603468
4046.96, 0.605049
4050.12, 0.606287
4053.29, 0.607318
4056.46, 0.608143
4059.64, 0.608624
4062.82, 0.609105
4066.0, 0.609518
4069.19, 0.609724
4072.39, 0.609930
4075.59, 0.610205
4078.8, 0.610342
4082.01, 0.610480
4085.23, 0.610686
4088.45, 0.610755
4091.68, 0.610617
4094.91, 0.610549
4098.15, 0.610480
4101.39, 0.610342
4104.63, 0.609999
4107.89, 0.609861
4111.14, 0.609655
4114.41, 0.609311
4117.67, 0.608899
4120.95, 0.608280
4124.23, 0.607799
4127.51, 0.607524
4130.8, 0.606768
4134.09, 0.606149
4137.39, 0.605462
4140.7, 0.604774
4144.01, 0.603881
4147.32, 0.603056
4150.64, 0.602300
4153.97, 0.601475
4157.3, 0.600513
4160.64, 0.599550
4163.98, 0.598794
4167.33, 0.598244
4170.68, 0.597626
4174.04, 0.597007
4177.4, 0.596526
4180.77, 0.596182
4184.14, 0.595838
4187.52, 0.595563
4190.91, 0.595288
4194.3, 0.595082
4197.69, 0.594738
4201.1, 0.594120
4204.5, 0.593501
4207.92, 0.592883
4211.34, 0.591920
4214.76, 0.590958
4218.19, 0.589995
4221.62, 0.588964
4225.06, 0.587796
4228.51, 0.586627
4231.96, 0.585459
4235.42, 0.584359
4238.88, 0.583328
4242.35, 0.582434
4245.83, 0.581884
4249.31, 0.581403
4252.79, 0.580922
4256.28, 0.580097
4259.78, 0.578310
4263.29, 0.576591
4266.79, 0.575216
4270.31, 0.573842
4273.83, 0.572398
4277.35, 0.570954
4280.89, 0.569580
4284.42, 0.568411
4287.97, 0.567174
4291.52, 0.565799
4295.07, 0.564493
4298.63, 0.563256
4302.2, 0.561949
4305.78, 0.560712
4309.35, 0.559406
4312.94, 0.558237
4316.53, 0.556863
4320.13, 0.555625
4323.73, 0.554388
4327.34, 0.553219
4330.96, 0.551913
4334.58, 0.550676
4338.21, 0.549439
4341.84, 0.548202
4345.48, 0.547033
4349.12, 0.545864
4352.77, 0.544558
4356.43, 0.543321
4360.1, 0.542152
4363.76, 0.540984
4367.44, 0.539815
4371.12, 0.538647
4374.81, 0.537409
4378.51, 0.536241
4382.21, 0.534866
4385.92, 0.533422
4389.63, 0.531979
4393.35, 0.530673
4397.08, 0.529092
4400.81, 0.527511
4404.55, 0.525861
4408.29, 0.524143
4412.04, 0.522424
4415.8, 0.520843
4419.57, 0.519056
4423.34, 0.517200
4427.12, 0.515344
4430.9, 0.513419
4434.69, 0.511426
4438.49, 0.509432
4442.29, 0.507370
4446.1, 0.505308
4449.92, 0.503246
4453.74, 0.501183
4457.57, 0.499121
4461.41, 0.497196
4465.25, 0.494997
4469.1, 0.492660
4472.95, 0.490460
4476.82, 0.488260
4480.69, 0.486061
4484.56, 0.483930
4488.44, 0.481730
4492.33, 0.479530
4496.23, 0.477331
4500.13, 0.475200
4504.04, 0.472862
4507.96, 0.470869
4511.88, 0.468944
4515.81, 0.467020
4519.75, 0.465095
4523.69, 0.463101
4527.65, 0.461177
4531.6, 0.459389
4535.57, 0.457602
4539.54, 0.455952
4543.52, 0.454234
4547.5, 0.452378
4551.5, 0.450453
4555.5, 0.448529
4559.5, 0.446604
4563.52, 0.444679
4567.54, 0.442754
4571.56, 0.440967
4575.6, 0.439042
4579.64, 0.437049
4583.69, 0.435055
4587.75, 0.433199
4591.81, 0.431206
4595.88, 0.429350
4599.96, 0.427219
4604.04, 0.425157
4608.14, 0.423163
4612.24, 0.421101
4616.34, 0.418970
4620.46, 0.416908
4624.58, 0.414708
4628.71, 0.412440
4632.84, 0.410103
4636.99, 0.407972
4641.14, 0.405841
4645.3, 0.403710
4649.47, 0.401648
4653.64, 0.399792
4657.82, 0.398142
4662.01, 0.396424
4666.21, 0.394843
4670.41, 0.393468
4674.62, 0.392093
4678.84, 0.390856
4683.07, 0.389687
4687.3, 0.388656
4691.54, 0.387694
4695.79, 0.386869
4700.05, 0.385975
4704.31, 0.385081
4708.59, 0.384188
4712.87, 0.383569
4717.15, 0.382882
4721.45, 0.382057
4725.76, 0.381301
4730.07, 0.380613
4734.39, 0.379926
4738.72, 0.379307
4743.05, 0.378689
4747.39, 0.378070
4751.75, 0.377383
4756.1, 0.376695
4760.47, 0.376008
4764.85, 0.375389
4769.23, 0.374702
4773.62, 0.374083
4778.02, 0.373464
4782.43, 0.372846
4786.85, 0.372090
4791.27, 0.371471
4795.7, 0.370715
4800.14, 0.369959
4804.59, 0.369065
4809.05, 0.368171
4813.51, 0.367209
4817.99, 0.366247
4822.47, 0.365284
4826.96, 0.364322
4831.46, 0.363360
4835.96, 0.362191
4840.48, 0.361160
4845.0, 0.360129
4849.54, 0.359098
4854.08, 0.358204
4858.63, 0.357311
4863.18, 0.356417
4867.75, 0.355523
4872.33, 0.354698
4876.91, 0.353805
4881.5, 0.352842
4886.1, 0.351811
4890.71, 0.350505
4895.33, 0.348855
4899.96, 0.347137
4904.59, 0.345006
4909.24, 0.342875
4913.89, 0.340538
4918.55, 0.338063
4923.22, 0.335657
4927.9, 0.333389
4932.59, 0.331052
4937.29, 0.329058
4942.0, 0.326996
4946.71, 0.325003
4951.44, 0.323078
4956.17, 0.321428
4960.91, 0.319847
4965.67, 0.318266
4970.43, 0.316685
4975.2, 0.315242
4979.98, 0.313798
4984.76, 0.312492
4989.56, 0.311255
4994.37, 0.310224
4999.18, 0.309124
5004.01, 0.308368
5008.84, 0.307818
5013.69, 0.307268
5018.54, 0.306924
5023.4, 0.306924
5028.28, 0.306993
5033.16, 0.307268
5038.05, 0.307543
5042.95, 0.307955
5047.86, 0.308436
5052.78, 0.308986
5057.71, 0.309193
5062.65, 0.309330
5067.6, 0.309124
5072.56, 0.308780
5077.53, 0.308161
5082.5, 0.307474
5087.49, 0.306787
5092.49, 0.305962
5097.5, 0.304724
5102.51, 0.303762
5107.54, 0.302868
5112.58, 0.301906
5117.62, 0.300944
5122.68, 0.300050
5127.75, 0.298950
5132.82, 0.297988
5137.91, 0.296751
5143.01, 0.295376
5148.12, 0.294138
5153.23, 0.293176
5158.36, 0.292008
5163.5, 0.290564
5168.65, 0.288914
5173.81, 0.287333
5178.98, 0.285477
5184.15, 0.283552
5189.34, 0.281628
5194.54, 0.279497
5199.75, 0.277228
5204.98, 0.275029
5210.21, 0.272417
5215.45, 0.270079
5220.7, 0.267674
5225.96, 0.265061
5231.23, 0.262174
5236.52, 0.259356
5241.81, 0.256744
5247.12, 0.253926
5252.44, 0.251176
5257.76, 0.248495
5263.1, 0.245883
5268.45, 0.243340
5273.81, 0.240727
5279.18, 0.238390
5284.56, 0.235984
5289.95, 0.233716
5295.36, 0.231791
5300.77, 0.229935
5306.2, 0.228011
5311.63, 0.226361
5317.08, 0.224849
5322.54, 0.223336
5328.01, 0.221824
5333.49, 0.220449
5338.98, 0.219074
5344.49, 0.217493
5350.0, 0.216119
5355.53, 0.215294
5361.07, 0.214331
5366.62, 0.213231
5372.18, 0.211925
5377.75, 0.210619
5383.34, 0.209313
5388.93, 0.207870
5394.54, 0.206289
5400.16, 0.204845
5405.79, 0.203264
5411.44, 0.201546
5417.09, 0.199483
5422.76, 0.197902
5428.43, 0.196871
5434.12, 0.195428
5439.83, 0.193709
5445.54, 0.192266
5451.26, 0.190822
5457.0, 0.189241
5462.75, 0.187660
5468.52, 0.186560
5474.29, 0.185254
5480.08, 0.184086
5485.88, 0.182917
5491.69, 0.181542
5497.51, 0.180236
5503.35, 0.178999
5509.2, 0.177693
5515.06, 0.176249
5520.93, 0.174806
5526.82, 0.173362
5532.71, 0.171781
5538.63, 0.169857
5544.55, 0.167588
5550.49, 0.164907
5556.44, 0.162845
5562.4, 0.161470
5568.37, 0.160233
5574.36, 0.158996
5580.36, 0.158652
5586.37, 0.159202
5592.4, 0.159546
5598.44, 0.159477
5604.49, 0.159133
5610.56, 0.158789
5616.63, 0.158308
5622.73, 0.157552
5628.83, 0.156727
5634.95, 0.155559
5641.08, 0.154665
5647.23, 0.154459
5653.39, 0.154046
5659.56, 0.153634
5665.74, 0.153015
5671.94, 0.152259
5678.15, 0.151915
5684.38, 0.151640
5690.62, 0.151365
5696.87, 0.151159
5703.14, 0.150609
5709.42, 0.150059
5715.72, 0.149991
5722.03, 0.149991
5728.35, 0.149922
5734.69, 0.149578
5741.03, 0.149303
5747.4, 0.149097
5753.78, 0.149166
5760.17, 0.148341
5766.58, 0.147791
5773.0, 0.148272
5779.44, 0.148203
5785.88, 0.148066
5792.35, 0.147928
5798.83, 0.147722
5805.32, 0.147585
5811.83, 0.147104
5818.35, 0.146416
5824.89, 0.146622
5831.45, 0.146897
5838.01, 0.147035
5844.59, 0.146897
5851.19, 0.146416
5857.8, 0.146004
5864.43, 0.145866
5871.07, 0.145523
5877.73, 0.144560
5884.4, 0.144766
5891.09, 0.144629
5897.79, 0.144491
5904.5, 0.144698
5911.23, 0.144217
5917.98, 0.143735
5924.75, 0.142910
5931.53, 0.141467
5938.32, 0.140711
5945.13, 0.140573
5951.96, 0.139680
5958.8, 0.138649
5965.65, 0.137136
5972.53, 0.136311
5979.42, 0.135212
5986.32, 0.133768
5993.24, 0.132668
6000.18, 0.131568
6007.13, 0.129987
6014.1, 0.128544
6021.08, 0.127375
6028.09, 0.126069
6035.1, 0.124282
6042.14, 0.122013
6049.19, 0.120501
6056.25, 0.120432
6063.34, 0.119401
6070.44, 0.118095
6077.55, 0.117408
6084.69, 0.116858
6091.84, 0.116033
6099.0, 0.115483
6106.19, 0.114452
6113.39, 0.113765
6120.61, 0.114040
6127.84, 0.113902
6135.09, 0.113421
6142.36, 0.113215
6149.65, 0.113009
6156.95, 0.112734
6164.27, 0.112940
6171.61, 0.112871
6178.97, 0.112252
6186.34, 0.112321
6193.73, 0.112665
6201.14, 0.112665
6208.57, 0.112596
6216.01, 0.112527
6223.47, 0.112527
6230.95, 0.112527
6238.45, 0.112390
6245.97, 0.112184
6253.5, 0.111909
6261.06, 0.111634
6268.63, 0.111153
6276.21, 0.110671
6283.82, 0.110190
6291.45, 0.109572
6299.1, 0.108884
6306.76, 0.108059
6314.44, 0.107028
6322.14, 0.105928
6329.86, 0.104554
6337.6, 0.102766
6345.35, 0.101254
6353.13, 0.100017
6360.92, 0.0982980
6368.74, 0.0963050
6376.57, 0.0947240
6384.43, 0.0933490
6392.3, 0.0918370
6400.19, 0.0903240
6408.1, 0.0883310
6416.03, 0.0868870
6423.98, 0.0859250
6431.95, 0.0844810
6439.94, 0.0825570
6447.95, 0.0803570
6455.98, 0.0779510
6464.03, 0.0753390
6472.1, 0.0726580
6480.19, 0.0701840
6488.31, 0.0677780
6496.44, 0.0662650
6504.59, 0.0657840
6512.76, 0.0659220
6520.95, 0.0669530
6529.16, 0.0690840
6537.4, 0.0712150
6545.65, 0.0734830
6553.92, 0.0756830
6562.22, 0.0776070
6570.54, 0.0791200
6578.88, 0.0806320
6587.23, 0.0815260
6595.61, 0.0822130
6604.02, 0.0823510
6612.44, 0.0823510
6620.89, 0.0822130
6629.35, 0.0817320
6637.84, 0.0814570
6646.35, 0.0817320
6654.88, 0.0816630
6663.44, 0.0811820
6672.01, 0.0805630
6680.61, 0.0802200
6689.23, 0.0798760
6697.88, 0.0792570
6706.54, 0.0784320
6715.23, 0.0778820
6723.94, 0.0771950
6732.67, 0.0763700
6741.42, 0.0754080
6750.2, 0.0744450
6759.0, 0.0734140
6767.82, 0.0722460
6776.67, 0.0709400
6785.54, 0.0698400
6794.44, 0.0691520
6803.35, 0.0685340
6812.29, 0.0676400
6821.26, 0.0668150
6830.24, 0.0661280
6839.25, 0.0655090
6848.29, 0.0645470
6857.35, 0.0634470
6866.43, 0.0626910
6875.54, 0.0620030
6884.67, 0.0609040
6893.82, 0.0596660
6903.0, 0.0582230
6912.2, 0.0568480
6921.43, 0.0558170
6930.69, 0.0551980
6939.96, 0.0548550
6949.27, 0.0545110
6958.59, 0.0540300
6967.95, 0.0537550
6977.33, 0.0530670
6986.73, 0.0520360
6996.16, 0.0511430
7005.61, 0.0505930
7015.09, 0.0501110
7024.6, 0.0499050
7034.13, 0.0499740
7043.69, 0.0501800
7053.27, 0.0507300
7062.88, 0.0514860
7072.52, 0.0521050
7082.18, 0.0527920
7091.87, 0.0533420
7101.58, 0.0538230
7111.32, 0.0540300
7121.09, 0.0540300
7130.88, 0.0539610
7140.71, 0.0538230
7150.56, 0.0537550
7160.43, 0.0538230
7170.33, 0.0536860
7180.27, 0.0536170
7190.23, 0.0534800
7200.21, 0.0534110
7210.23, 0.0532050
7220.27, 0.0529990
7230.34, 0.0526550
7240.44, 0.0522420
7250.56, 0.0517610
7260.72, 0.0512110
7270.9, 0.0506610
7281.12, 0.0501110
7291.36, 0.0494930
7301.63, 0.0488050
7311.93, 0.0480490
7322.25, 0.0473620
7332.61, 0.0467430
7343.0, 0.0460560
7353.41, 0.0453000
7363.86, 0.0445440
7374.33, 0.0437190
7384.83, 0.0428250
7395.37, 0.0419310
7405.93, 0.0411070
7416.53, 0.0402820
7427.15, 0.0394570
7437.81, 0.0386320
7448.5, 0.0376010
7459.22, 0.0366380
7469.96, 0.0358140
7480.74, 0.0349200
7491.55, 0.0340260
7502.39, 0.0331330
7513.27, 0.0320330
7524.17, 0.0310020
7535.11, 0.0301770
7546.08, 0.0291460
7557.08, 0.0282520
7568.11, 0.0273590
7579.17, 0.0265340
7590.27, 0.0257090
7601.4, 0.0250210
7612.56, 0.0242650
7623.76, 0.0234400
7634.98, 0.0228900
7646.24, 0.0223400
7657.54, 0.0217220
7668.87, 0.0211720
7680.23, 0.0206910
7691.62, 0.0202100
7703.05, 0.0196600
7714.51, 0.0191780
7726.01, 0.0188350
7737.54, 0.0185600
7749.11, 0.0182850
7760.71, 0.0180100
7772.35, 0.0176660
7784.02, 0.0174600
7795.72, 0.0174600
7807.46, 0.0174600
7819.23, 0.0174600
7831.04, 0.0177350
7842.89, 0.0179410
7854.77, 0.0182160
7866.69, 0.0186970
7878.65, 0.0193160
7890.64, 0.0201410
7902.67, 0.0210340
7914.74, 0.0219970
7926.84, 0.0234400
7938.98, 0.0251590
7951.16, 0.0272900
7963.37, 0.0296960
7975.62, 0.0323770
7987.91, 0.0354700
8000.24, 0.0391130
8012.6, 0.0432370
8025.01, 0.0475680
8037.45, 0.0523800
8049.93, 0.0576730
8062.45, 0.0631720
8075.01, 0.0690150
8087.61, 0.0746520
8100.24, 0.0798760
8112.91, 0.0843440
8125.63, 0.0878500
8138.39, 0.0900490
8151.18, 0.0911490
8164.02, 0.0913550
8176.9, 0.0911490
8189.81, 0.0905990
8202.77, 0.0901870
8215.77, 0.0895680
8228.82, 0.0888810
8241.9, 0.0884000
8255.02, 0.0880560
8268.19, 0.0876430
8281.39, 0.0873690
8294.65, 0.0872310
8307.94, 0.0871620
8321.28, 0.0868870
8334.66, 0.0862000
8348.08, 0.0850310
8361.54, 0.0835880
8375.05, 0.0818690
8388.6, 0.0800820
8402.2, 0.0779510
8415.84, 0.0758200
8429.52, 0.0737580
8443.25, 0.0721080
8457.02, 0.0707330
8470.84, 0.0695650
8484.7, 0.0688090
8498.61, 0.0684650
8512.57, 0.0686030
8526.57, 0.0690840
8540.62, 0.0697020
8554.71, 0.0705960
8568.85, 0.0721770
8583.04, 0.0742390
8597.27, 0.0765760
8611.55, 0.0790510
8625.88, 0.0811820
8640.26, 0.0831750
8654.68, 0.0848250
8669.16, 0.0859940
8683.68, 0.0870250
8698.25, 0.0878500
8712.87, 0.0885370
8727.53, 0.0890870
8742.25, 0.0894310
8757.02, 0.0896370
8771.83, 0.0896370
8786.7, 0.0892250
8801.62, 0.0885370
8816.59, 0.0873690
8831.61, 0.0859250
8846.68, 0.0846880
8861.8, 0.0834500
8876.97, 0.0820070
8892.2, 0.0807700
8907.48, 0.0799450
8922.81, 0.0790510
8938.2, 0.0782260
8953.63, 0.0777450
8969.13, 0.0778140
8984.67, 0.0780200
9000.27, 0.0781570
9015.92, 0.0783640
9031.63, 0.0784320
9047.39, 0.0785700
9063.21, 0.0787760
9079.08, 0.0790510
9095.01, 0.0793260
9111.0, 0.0795320
9127.04, 0.0797380
9143.13, 0.0800820
9159.28, 0.0804260
9175.49, 0.0807010
9191.76, 0.0813190
9208.09, 0.0821440
9224.47, 0.0829690
9240.92, 0.0840000
9257.42, 0.0852380
9273.98, 0.0866120
9290.6, 0.0879870
9307.28, 0.0893620
9324.02, 0.0911490
9340.82, 0.0930050
9357.68, 0.0953420
9374.6, 0.0982290
9391.58, 0.101392
9408.62, 0.104760
9425.73, 0.108334
9442.9, 0.111909
9460.13, 0.115071
9477.42, 0.117545
9494.78, 0.119195
9512.2, 0.120089
9529.69, 0.120364
9547.24, 0.120089
9564.86, 0.119333
9582.54, 0.118233
9600.28, 0.116927
9618.1, 0.115414
9635.97, 0.114040
9653.92, 0.112665
9671.93, 0.110878
9690.01, 0.108953
9708.16, 0.107234
9726.37, 0.105585
9744.65, 0.103797
9763.0, 0.102148
9781.43, 0.101117
9799.92, 0.100429
9818.48, 0.0996040
9837.1, 0.0987790
9855.8, 0.0981610
9874.58, 0.0973360
9893.42, 0.0965110
9912.34, 0.0954110
9931.33, 0.0942430
9950.39, 0.0931430
9969.52, 0.0920430
9988.74, 0.0911490
10008.0, 0.0900490
10027.4, 0.0888810
10046.8, 0.0877810
10066.3, 0.0869560
10085.9, 0.0862690
10105.6, 0.0853750
10125.3, 0.0846190
10145.1, 0.0839320
10165.0, 0.0835190
10185.0, 0.0830380
10205.0, 0.0823510
10225.2, 0.0816630
10245.4, 0.0813880
10265.7, 0.0809760
10286.0, 0.0804260
10306.5, 0.0799450
10327.0, 0.0793950
10347.6, 0.0787070
10368.3, 0.0781570
10389.1, 0.0778820
10409.9, 0.0775390
10430.9, 0.0773320
10451.9, 0.0775390
10473.0, 0.0778140
10494.2, 0.0780890
10515.5, 0.0785010
10536.9, 0.0793260
10558.4, 0.0805630
10579.9, 0.0815940
10601.5, 0.0827630
10623.3, 0.0841380
10645.1, 0.0857880
10667.0, 0.0873000
10689.0, 0.0887430
10711.1, 0.0906680
10733.2, 0.0924550
10755.5, 0.0940360
10777.9, 0.0954800
10800.3, 0.0969920
10822.9, 0.0982980
10845.5, 0.0995360
10868.2, 0.100979
10891.1, 0.102216
10914.0, 0.103454
10937.0, 0.104760
10960.2, 0.106203
10983.4, 0.108059
11006.7, 0.109847
11030.1, 0.111496
11053.6, 0.113009
11077.3, 0.114521
11101.0, 0.116102
11124.8, 0.117545
11148.7, 0.118783
11172.7, 0.120020
11196.9, 0.120639
11221.1, 0.121257
11245.4, 0.122151
11269.9, 0.122701
11294.4, 0.122357
11319.1, 0.121670
11343.9, 0.121395
11368.8, 0.121120
11393.7, 0.120914
11418.8, 0.120639
11444.0, 0.121051
11469.4, 0.121739
11494.8, 0.122220
11520.3, 0.123113
11546.0, 0.123595
11571.8, 0.123663
11597.7, 0.123595
11623.7, 0.123251
11649.8, 0.122632
11676.0, 0.121395
11702.4, 0.118302
11728.9, 0.115071
11755.5, 0.114246
11782.2, 0.115552
11809.0, 0.117270
11836.0, 0.117477
11863.0, 0.116652
11890.3, 0.115552
11917.6, 0.114452
11945.0, 0.113284
11972.6, 0.112115
12000.4, 0.110946
12028.2, 0.110121
12056.2, 0.109090
12084.3, 0.107716
12112.5, 0.106272
12140.9, 0.104966
12169.4, 0.103179
12198.0, 0.100635
12226.8, 0.0980920
12255.7, 0.0955490
12284.7, 0.0924550
12313.9, 0.0890180
12343.2, 0.0851690
12372.7, 0.0813190
12402.3, 0.0771950
12432.0, 0.0730020
12461.9, 0.0688090
12491.9, 0.0651660
12522.1, 0.0620720
12552.4, 0.0589100
12582.9, 0.0559540
12613.5, 0.0534110
12644.3, 0.0506610
12675.2, 0.0474990
12706.3, 0.0444750
12737.5, 0.0420690
12768.9, 0.0402820
12800.4, 0.0382880
12832.1, 0.0364320
12863.9, 0.0349890
12895.9, 0.0338200
12928.1, 0.0330640
12960.4, 0.0329950
12992.9, 0.0328580
13025.5, 0.0331330
13058.3, 0.0337510
13091.3, 0.0343700
13124.4, 0.0349890
13157.8, 0.0358140
13191.2, 0.0365010
13224.9, 0.0369130
13258.7, 0.0366380
13292.7, 0.0364320
13326.9, 0.0363630
13361.2, 0.0360890
13395.7, 0.0358140
13430.4, 0.0354010
13465.3, 0.0349200
13500.4, 0.0349200
13535.7, 0.0349890
13571.1, 0.0345070
13606.7, 0.0337510
13642.5, 0.0336830
13678.5, 0.0337510
13714.7, 0.0334760
13751.1, 0.0334760
13787.6, 0.0338890
13824.4, 0.0343700
13861.4, 0.0344390
13898.5, 0.0347140
13935.9, 0.0350570
13973.5, 0.0353320
14011.2, 0.0359510
14049.2, 0.0362950
14087.4, 0.0370510
14125.8, 0.0378070
14164.3, 0.0385630
14203.2, 0.0390440
14242.2, 0.0396630
14281.4, 0.0402130
14320.9, 0.0409690
14360.5, 0.0413810
14400.4, 0.0416560
14440.5, 0.0422060
14480.9, 0.0428250
14521.4, 0.0432370
14562.2, 0.0435120
14603.3, 0.0433750
14644.5, 0.0435120
14686.0, 0.0434440
14727.7, 0.0428250
14769.7, 0.0422750
14811.9, 0.0422060
14854.3, 0.0416560
14897.0, 0.0404880
14939.9, 0.0393190
14983.1, 0.0381510
15026.5, 0.0373950
15070.2, 0.0372570
15114.2, 0.0365700
15158.3, 0.0356070
15202.8, 0.0349890
15247.5, 0.0348510
15292.5, 0.0349200
15337.7, 0.0343700
15383.2, 0.0335450
15429.0, 0.0324450
15475.1, 0.0316200
15521.4, 0.0318270
15568.0, 0.0319640
15614.9, 0.0316890
15662.1, 0.0318950
15709.6, 0.0335450
15757.3, 0.0361570
15805.4, 0.0391820
15853.7, 0.0427560
15902.3, 0.0460560
15951.2, 0.0477060
16000.5, 0.0485990
16050.0, 0.0488050
16099.8, 0.0489430
16150.0, 0.0486680
16200.5, 0.0487370
16251.3, 0.0490800
16302.4, 0.0494240
16353.8, 0.0501800
16405.5, 0.0514860
16457.6, 0.0528610
16510.0, 0.0534800
16562.8, 0.0539610
16615.9, 0.0548550
16669.3, 0.0547860
16723.1, 0.0542360
16777.2, 0.0533420
16831.7, 0.0532730
16886.5, 0.0525860
16941.7, 0.0518990
16997.2, 0.0514180
17053.1, 0.0504550
17109.4, 0.0494240
17166.1, 0.0490120
17223.1, 0.0492180
17280.5, 0.0501800
17338.3, 0.0519670
17396.5, 0.0548550
17455.1, 0.0587730
17514.0, 0.0626220
17573.4, 0.0659900
17633.2, 0.0695650
17693.4, 0.0725890
17754.0, 0.0741020
17815.0, 0.0750640
17876.4, 0.0767830
17938.3, 0.0771950
18000.5, 0.0769200
18063.3, 0.0775390
18126.4, 0.0774010
18190.0, 0.0765080
18254.1, 0.0762330
18318.6, 0.0757510
18383.5, 0.0752020
18449.0, 0.0744450
18514.9, 0.0721080
18581.2, 0.0698400
18648.0, 0.0687400
18715.4, 0.0670220
18783.2, 0.0650970
18851.5, 0.0633100
18920.3, 0.0626910
18989.6, 0.0616600
19059.4, 0.0607660
19129.7, 0.0616600
19200.6, 0.0612470
19272.0, 0.0600790
19343.9, 0.0591850
19416.3, 0.0574670
19489.3, 0.0566420
19562.8, 0.0557480
19637.0, 0.0539610
19711.6, 0.0523800
19786.8, 0.0519670
19862.6, 0.0513490
19939.0, 0.0503860
20016.0, 0.0488050
20093.6, 0.0478430
20171.8, 0.0466060
20250.6, 0.0461930
20330.0, 0.0451620
20410.0, 0.0440620
20490.7, 0.0439940
20572.0, 0.0443370
20654.0, 0.0446810
20736.6, 0.0455060
20819.9, 0.0470870
20903.8, 0.0494240
20988.5, 0.0529300
21073.8, 0.0584290
21159.8, 0.0642720
21246.5, 0.0681900
21334.0, 0.0704580
21422.1, 0.0723140
21511.0, 0.0738950
21600.7, 0.0749950
21691.0, 0.0748830
21782.1, 0.0729860
21874.0, 0.0707720
21966.7, 0.0692260
22060.2, 0.0662740
22154.5, 0.0639900
22249.6, 0.0622680
22345.5, 0.0583670
22442.2, 0.0564000
22539.8, 0.0554160
22638.2, 0.0537640
22737.5, 0.0525690
22837.7, 0.0519370
22938.7, 0.0526400
23040.7, 0.0541150
23143.5, 0.0548530
23247.3, 0.0553450
23352.1, 0.0569620
23457.7, 0.0587540
23564.4, 0.0593160
23672.0, 0.0586480
23780.5, 0.0590000
23890.1, 0.0592110
24000.7, 0.0586840
24112.3, 0.0581920
24225.0, 0.0576650
24338.7, 0.0571020
24453.5, 0.0566810
24569.4, 0.0560830
24686.4, 0.0558020
24804.5, 0.0555910
24923.8, 0.0551700
25044.2, 0.0541510
25165.8, 0.0532020
25288.6, 0.0528860
25412.5, 0.0516200
25537.7, 0.0503200
25664.1, 0.0501090
25791.8, 0.0496880
25920.8, 0.0485280
26051.1, 0.0480010
26182.6, 0.0471580
26315.5, 0.0465250
26449.8, 0.0467360
26585.4, 0.0471230
26722.5, 0.0456820
26860.9, 0.0436790
27000.8, 0.0433630
27142.1, 0.0427650
27285.0, 0.0415000
27429.4, 0.0410790
27575.3, 0.0409380
27722.7, 0.0402000
27871.8, 0.0411140
28022.4, 0.0423440
28174.7, 0.0427650
28328.7, 0.0432920
28484.4, 0.0439600
28641.7, 0.0430460
28800.9, 0.0419570
28961.8, 0.0423440
29124.5, 0.0432570
29289.0, 0.0434330
29455.4, 0.0436790
29623.8, 0.0434680
29794.0, 0.0435030
29966.3, 0.0432570
30140.5, 0.0425540
30316.7, 0.0430460
30495.1, 0.0437140
30675.5, 0.0429760
30858.1, 0.0434680
31042.8, 0.0429060
31229.8, 0.0419920
31419.1, 0.0407970
31610.7, 0.0402700
31804.6, 0.0405870
32000.9, 0.0395680
32199.7, 0.0379860
32400.9, 0.0381970
32604.8, 0.0386540
32811.1, 0.0383020
33020.1, 0.0384080
33231.8, 0.0374940
33446.2, 0.0365450
33663.4, 0.0361240
33883.4, 0.0365100
34106.3, 0.0366860
34332.1, 0.0362640
34561.0, 0.0364750
34792.9, 0.0360890
35028.0, 0.0355970
35266.3, 0.0355260
35507.8, 0.0353860
35752.7, 0.0364750
36001.0, 0.0373890
36252.8, 0.0358780
36508.1, 0.0342260
36767.0, 0.0340150
37029.7, 0.0340150
37296.1, 0.0334180
37566.3, 0.0324690
37840.5, 0.0321530
38118.8, 0.0327500
38401.2, 0.0325400
38687.8, 0.0325750
38978.6, 0.0335590
39273.9, 0.0349290
39573.7, 0.0338400
39878.1, 0.0328910
40187.3, 0.0333130
40501.2, 0.0344020
40820.0, 0.0338400
41144.0, 0.0315200
41473.2, 0.0308180
41807.6, 0.0305370
42147.5, 0.0304660
42493.0, 0.0306070
42844.2, 0.0318020
43201.2, 0.0334880
43564.3, 0.0333830
43933.5, 0.0330670
44309.0, 0.0323290
44691.0, 0.0330670
45079.6, 0.0338050
45475.0, 0.0337340
45877.5, 0.0329260
46287.1, 0.0331020
46704.2, 0.0334180
47128.7, 0.0327150
47561.1, 0.0328210
48001.5, 0.0322230
48450.1, 0.0300090
48907.2, 0.0303260
49373.0, 0.0305010
49847.7, 0.0313800
50331.5, 0.0309930
50825.0, 0.0306420
51328.2, 0.0304660
51841.5, 0.0319420
52365.1, 0.0349640
52899.4, 0.0372830
53444.8, 0.0372130
54001.5, 0.0389350
54570.1, 0.0400240
55150.6, 0.0421330
55743.6, 0.0431870
56349.5, 0.0448030
56968.7, 0.0430810
57601.7, 0.0399890
58248.9, 0.0390050
58910.9, 0.0388650
59588.1, 0.0373540
60281.0, 0.0366860
60990.2, 0.0364750
61716.3, 0.0378460
62459.8, 0.0371080
63221.6, 0.0367210
64002.1, 0.0294470
64802.1, 0.0352100
65622.1, 0.0427650
66463.4, 0.0374940
67326.6, 0.0377750
68212.4, 0.0366860
69121.9, 0.0344020
70056.0, 0.0347880
71015.7, 0.0369320
72002.0, 0.0372830
73016.3, 0.0372830
74059.4, 0.0364750
75132.7, 0.0358780
76237.6, 0.0374240
77375.5, 0.0395680
78547.9, 0.0394620
79756.3, 0.0373540
81002.5, 0.0377050
82288.5, 0.0411140
83615.7, 0.0444520
84986.5, 0.0497230
86402.9, 0.0543260
87867.4, 0.0544320
89382.4, 0.0527800
90950.5, 0.0550640
92574.6, 0.0556970
94257.2, 0.0552050
96002.7, 0.0559080
97814.1, 0.0566450
99695.1, 0.0598080
101650.0, 0.0627950
103683.0, 0.0607920
105799.0, 0.0586840
108003.0, 0.0600890
110301.0, 0.0585430
112699.0, 0.0574190
115204.0, 0.0531670
117822.0, 0.0543610
120562.0, 0.0577700
123433.0, 0.0631460
126443.0, 0.0638140
129604.0, 0.0638490
132926.0, 0.0632170
136424.0, 0.0683820
140111.0, 0.0471580
144003.0, 0.0462090
148118.0, 0.0876740
152474.0, 0.0880250
157095.0, 0.0753400
162004.0, 0.0748130
167231.0, 0.0782920
172805.0, 0.0845820
178764.0, 0.0912930
185148.0, 0.0909420
192005.0, 0.102398
199390.0, 0.132091
207366.0, 0.0896420
216006.0, 0.0668710
