Database of Origin, USGS Spectral Database
Sample Description, See USGS database for additional info
Date Added,2016-08-10 05:00:44.201896

Data ID,USGS_kao13          
Sample ID, kaolinite_kga1.12132
Mineral Name, kaolinite
Material Class,Phyllosilicate

Wavelength
1350.04, 0.819736
1350.39, 0.818980
1350.74, 0.817315
1351.1, 0.815599
1351.45, 0.813480
1351.8, 0.811866
1352.15, 0.809949
1352.51, 0.808536
1352.86, 0.806720
1353.21, 0.804803
1353.56, 0.803995
1353.92, 0.803339
1354.27, 0.802330
1354.63, 0.801776
1354.98, 0.801473
1355.33, 0.800565
1355.69, 0.799707
1356.04, 0.799707
1356.4, 0.799253
1356.75, 0.798244
1357.11, 0.797134
1357.46, 0.796983
1357.82, 0.796074
1358.18, 0.795570
1358.53, 0.794511
1358.89, 0.793451
1359.24, 0.791988
1359.6, 0.792139
1359.96, 0.792543
1360.31, 0.791938
1360.67, 0.790474
1361.03, 0.790323
1361.39, 0.789919
1361.74, 0.789819
1362.1, 0.789062
1362.46, 0.788910
1362.82, 0.789919
1363.18, 0.790424
1363.53, 0.790273
1363.89, 0.789566
1364.25, 0.788709
1364.61, 0.788961
1364.97, 0.789364
1365.33, 0.789617
1365.69, 0.790020
1366.05, 0.790071
1366.41, 0.789667
1366.77, 0.788456
1367.13, 0.787952
1367.49, 0.787195
1367.85, 0.786337
1368.21, 0.785530
1368.57, 0.784975
1368.93, 0.785026
1369.3, 0.784269
1369.66, 0.783663
1370.02, 0.783562
1370.38, 0.782654
1370.74, 0.781242
1371.11, 0.781343
1371.47, 0.781141
1371.83, 0.780081
1372.19, 0.779375
1372.56, 0.779123
1372.92, 0.778316
1373.29, 0.777054
1373.65, 0.775743
1374.01, 0.773977
1374.38, 0.772564
1374.74, 0.771151
1375.11, 0.770092
1375.47, 0.768679
1375.84, 0.767519
1376.2, 0.766056
1376.57, 0.764239
1376.93, 0.762676
1377.3, 0.761364
1377.67, 0.759800
1378.03, 0.757883
1378.4, 0.755966
1378.76, 0.753493
1379.13, 0.751475
1379.5, 0.749054
1379.87, 0.746985
1380.23, 0.742798
1380.6, 0.739468
1380.97, 0.739014
1381.34, 0.738661
1381.7, 0.736643
1382.07, 0.734271
1382.44, 0.731295
1382.81, 0.730286
1383.18, 0.729478
1383.55, 0.727410
1383.92, 0.725796
1384.29, 0.724484
1384.66, 0.721961
1385.03, 0.719691
1385.4, 0.718228
1385.77, 0.715403
1386.14, 0.713031
1386.51, 0.710559
1386.88, 0.708440
1387.25, 0.705110
1387.62, 0.700872
1387.99, 0.697442
1388.36, 0.694465
1388.74, 0.691287
1389.11, 0.687604
1389.48, 0.683618
1389.85, 0.679885
1390.23, 0.676504
1390.6, 0.673175
1390.97, 0.669492
1391.35, 0.665910
1391.72, 0.662176
1392.09, 0.657686
1392.47, 0.654659
1392.84, 0.652187
1393.21, 0.649563
1393.59, 0.646587
1393.96, 0.643711
1394.34, 0.640936
1394.71, 0.638968
1395.09, 0.637909
1395.46, 0.638010
1395.84, 0.638161
1396.22, 0.638514
1396.59, 0.639826
1396.97, 0.641491
1397.35, 0.643560
1397.72, 0.645325
1398.1, 0.645981
1398.48, 0.646940
1398.85, 0.647999
1399.23, 0.649462
1399.61, 0.650471
1399.99, 0.650522
1400.37, 0.650270
1400.74, 0.651026
1401.12, 0.652035
1401.5, 0.652540
1401.88, 0.652288
1402.26, 0.651682
1402.64, 0.651380
1403.02, 0.650925
1403.4, 0.650522
1403.78, 0.649311
1404.16, 0.648252
1404.54, 0.647697
1404.92, 0.647394
1405.3, 0.648100
1405.68, 0.648807
1406.06, 0.649513
1406.44, 0.650471
1406.83, 0.651581
1407.21, 0.653196
1407.59, 0.655617
1407.97, 0.657837
1408.35, 0.659200
1408.74, 0.660511
1409.12, 0.661218
1409.5, 0.661621
1409.89, 0.661722
1410.27, 0.660713
1410.65, 0.658342
1411.04, 0.654861
1411.42, 0.649866
1411.81, 0.642500
1412.19, 0.633167
1412.58, 0.621563
1412.96, 0.606679
1413.35, 0.588164
1413.73, 0.567226
1414.12, 0.546037
1414.5, 0.527571
1414.89, 0.517683
1415.28, 0.520660
1415.66, 0.536249
1416.05, 0.559709
1416.44, 0.584935
1416.82, 0.608445
1417.21, 0.628071
1417.6, 0.643711
1417.98, 0.656677
1418.37, 0.667221
1418.76, 0.675394
1419.15, 0.682155
1419.54, 0.688209
1419.93, 0.694011
1420.32, 0.698854
1420.71, 0.702840
1421.09, 0.706170
1421.48, 0.708692
1421.88, 0.710963
1422.27, 0.713637
1422.66, 0.716159
1423.05, 0.717723
1423.44, 0.718985
1423.83, 0.719943
1424.22, 0.721608
1424.61, 0.723021
1425.0, 0.724282
1425.39, 0.724837
1425.78, 0.725846
1426.18, 0.726855
1426.57, 0.727511
1426.96, 0.727864
1427.36, 0.728520
1427.75, 0.729226
1428.14, 0.729983
1428.54, 0.730538
1428.93, 0.730689
1429.32, 0.731093
1429.72, 0.731749
1430.11, 0.732506
1430.51, 0.733212
1430.9, 0.733464
1431.3, 0.733817
1431.69, 0.733868
1432.09, 0.734271
1432.48, 0.735129
1432.88, 0.735785
1433.28, 0.735936
1433.67, 0.736289
1434.07, 0.736592
1434.46, 0.737046
1434.86, 0.737097
1435.26, 0.736996
1435.66, 0.737349
1436.05, 0.737450
1436.45, 0.737248
1436.85, 0.737601
1437.25, 0.737652
1437.65, 0.737399
1438.05, 0.737450
1438.44, 0.737450
1438.84, 0.737147
1439.24, 0.737097
1439.64, 0.737500
1440.04, 0.737652
1440.44, 0.737652
1440.84, 0.737349
1441.24, 0.737349
1441.65, 0.737248
1442.05, 0.737298
1442.45, 0.737248
1442.85, 0.737399
1443.25, 0.737198
1443.65, 0.737248
1444.05, 0.736895
1444.46, 0.736744
1444.86, 0.736592
1445.26, 0.736239
1445.67, 0.736239
1446.07, 0.736390
1446.47, 0.735886
1446.88, 0.735533
1447.28, 0.735432
1447.68, 0.735079
1448.09, 0.734927
1448.49, 0.735079
1448.9, 0.735179
1449.3, 0.734524
1449.71, 0.734221
1450.11, 0.734524
1450.52, 0.734927
1450.93, 0.734776
1451.33, 0.734574
1451.74, 0.734524
1452.14, 0.734877
1452.55, 0.734877
1452.96, 0.734877
1453.36, 0.734625
1453.77, 0.734877
1454.18, 0.735028
1454.59, 0.734877
1455.0, 0.735079
1455.41, 0.735028
1455.81, 0.734473
1456.22, 0.734574
1456.63, 0.734372
1457.04, 0.734120
1457.45, 0.734322
1457.86, 0.734372
1458.27, 0.734120
1458.68, 0.733918
1459.09, 0.733918
1459.5, 0.733817
1459.91, 0.733666
1460.32, 0.733817
1460.74, 0.733918
1461.15, 0.733616
1461.56, 0.733616
1461.97, 0.733565
1462.39, 0.733464
1462.8, 0.733262
1463.21, 0.733010
1463.62, 0.732707
1464.04, 0.732758
1464.45, 0.732607
1464.86, 0.732253
1465.28, 0.731597
1465.69, 0.731597
1466.11, 0.732001
1466.52, 0.731446
1466.94, 0.731244
1467.35, 0.730942
1467.77, 0.730891
1468.18, 0.731295
1468.6, 0.731295
1469.02, 0.731547
1469.43, 0.731345
1469.85, 0.731345
1470.27, 0.730992
1470.68, 0.731093
1471.1, 0.731194
1471.52, 0.731244
1471.94, 0.730942
1472.35, 0.730689
1472.77, 0.730588
1473.19, 0.730488
1473.61, 0.730387
1474.03, 0.730488
1474.45, 0.730538
1474.87, 0.730588
1475.29, 0.730387
1475.71, 0.730134
1476.13, 0.730286
1476.55, 0.730286
1476.97, 0.730235
1477.39, 0.730134
1477.81, 0.730033
1478.23, 0.729933
1478.65, 0.729933
1479.07, 0.729983
1479.5, 0.729781
1479.92, 0.729579
1480.34, 0.729277
1480.76, 0.729680
1481.19, 0.729781
1481.61, 0.729680
1482.03, 0.729478
1482.46, 0.729630
1482.88, 0.729731
1483.31, 0.729731
1483.73, 0.729579
1484.16, 0.729832
1484.58, 0.730033
1485.01, 0.730185
1485.43, 0.729983
1485.86, 0.729882
1486.28, 0.730033
1486.71, 0.729983
1487.14, 0.730033
1487.56, 0.730185
1487.99, 0.730286
1488.42, 0.729882
1488.84, 0.729983
1489.27, 0.730437
1489.7, 0.730588
1490.13, 0.730437
1490.56, 0.730185
1490.98, 0.730084
1491.41, 0.729983
1491.84, 0.730185
1492.27, 0.730235
1492.7, 0.729933
1493.13, 0.729731
1493.56, 0.729529
1493.99, 0.729579
1494.42, 0.729529
1494.85, 0.729378
1495.29, 0.729226
1495.72, 0.729176
1496.15, 0.729176
1496.58, 0.729428
1497.01, 0.729579
1497.44, 0.729378
1497.88, 0.729378
1498.31, 0.729680
1498.74, 0.729983
1499.18, 0.730336
1499.61, 0.730437
1500.04, 0.730437
1500.48, 0.730488
1500.91, 0.730689
1501.35, 0.730992
1501.78, 0.731043
1502.22, 0.731043
1502.65, 0.730992
1503.09, 0.731295
1503.53, 0.731547
1503.96, 0.732052
1504.4, 0.732506
1504.83, 0.732859
1505.27, 0.732506
1505.71, 0.732102
1506.15, 0.732304
1506.58, 0.732455
1507.02, 0.732808
1507.46, 0.732859
1507.9, 0.733111
1508.34, 0.733212
1508.78, 0.733363
1509.21, 0.733969
1509.66, 0.734171
1510.09, 0.734120
1510.53, 0.733918
1510.97, 0.733868
1511.42, 0.734070
1511.86, 0.734372
1512.3, 0.734372
1512.74, 0.734221
1513.18, 0.734120
1513.62, 0.734171
1514.06, 0.734675
1514.51, 0.734776
1514.95, 0.734877
1515.39, 0.734473
1515.83, 0.734675
1516.28, 0.734776
1516.72, 0.734978
1517.16, 0.735230
1517.61, 0.735028
1518.05, 0.735028
1518.5, 0.735230
1518.94, 0.735331
1519.39, 0.735331
1519.83, 0.735634
1520.28, 0.735482
1520.73, 0.735432
1521.17, 0.735634
1521.62, 0.735734
1522.07, 0.735684
1522.51, 0.735684
1522.96, 0.735533
1523.41, 0.735482
1523.85, 0.735987
1524.3, 0.735987
1524.75, 0.735684
1525.2, 0.735785
1525.65, 0.736037
1526.1, 0.736088
1526.55, 0.736340
1527.0, 0.736390
1527.45, 0.736189
1527.9, 0.736289
1528.35, 0.736491
1528.8, 0.736289
1529.25, 0.736441
1529.7, 0.736592
1530.15, 0.736542
1530.6, 0.736441
1531.05, 0.736744
1531.51, 0.736945
1531.96, 0.737248
1532.41, 0.737500
1532.87, 0.737500
1533.32, 0.737298
1533.77, 0.737198
1534.23, 0.737500
1534.68, 0.738005
1535.14, 0.738106
1535.59, 0.738156
1536.05, 0.738106
1536.5, 0.738156
1536.96, 0.738408
1537.41, 0.738661
1537.87, 0.738762
1538.32, 0.739014
1538.78, 0.739115
1539.24, 0.739317
1539.7, 0.739569
1540.15, 0.739670
1540.61, 0.740023
1541.07, 0.740174
1541.53, 0.740376
1541.98, 0.740729
1542.44, 0.740578
1542.9, 0.740376
1543.36, 0.740426
1543.82, 0.740931
1544.28, 0.741183
1544.74, 0.741335
1545.2, 0.741385
1545.66, 0.741587
1546.12, 0.741738
1546.59, 0.741990
1547.05, 0.742091
1547.51, 0.742091
1547.97, 0.742142
1548.43, 0.742545
1548.9, 0.742949
1549.36, 0.743050
1549.82, 0.743151
1550.29, 0.743100
1550.75, 0.743100
1551.21, 0.743201
1551.68, 0.743706
1552.14, 0.743908
1552.61, 0.743958
1553.07, 0.744109
1553.54, 0.744261
1554.0, 0.744563
1554.47, 0.744664
1554.93, 0.744715
1555.4, 0.744866
1555.87, 0.744816
1556.34, 0.745018
1556.8, 0.745371
1557.27, 0.745270
1557.74, 0.745673
1558.21, 0.746127
1558.68, 0.746380
1559.14, 0.746531
1559.61, 0.746481
1560.08, 0.746481
1560.55, 0.746884
1561.02, 0.747237
1561.49, 0.747439
1561.96, 0.747641
1562.43, 0.747742
1562.9, 0.747944
1563.38, 0.747893
1563.85, 0.747843
1564.32, 0.747893
1564.79, 0.748297
1565.26, 0.748600
1565.74, 0.749054
1566.21, 0.749054
1566.68, 0.748902
1567.16, 0.748953
1567.63, 0.749256
1568.1, 0.749457
1568.58, 0.749659
1569.05, 0.749558
1569.53, 0.749911
1570.0, 0.749911
1570.48, 0.750214
1570.96, 0.750517
1571.43, 0.750567
1571.91, 0.750769
1572.39, 0.750920
1572.86, 0.750870
1573.34, 0.751021
1573.82, 0.751173
1574.3, 0.751274
1574.77, 0.751475
1575.25, 0.751829
1575.73, 0.751879
1576.21, 0.751879
1576.69, 0.752030
1577.17, 0.752585
1577.65, 0.752787
1578.13, 0.752989
1578.61, 0.752989
1579.09, 0.752989
1579.57, 0.753191
1580.05, 0.753392
1580.54, 0.753392
1581.02, 0.753443
1581.5, 0.753695
1581.98, 0.753746
1582.47, 0.753796
1582.95, 0.753746
1583.43, 0.753847
1583.92, 0.754149
1584.4, 0.754351
1584.88, 0.754452
1585.37, 0.754603
1585.85, 0.754654
1586.34, 0.754755
1586.82, 0.755108
1587.31, 0.755158
1587.8, 0.755057
1588.28, 0.755310
1588.77, 0.755461
1589.26, 0.755562
1589.74, 0.755764
1590.23, 0.755865
1590.72, 0.755865
1591.21, 0.756016
1591.7, 0.756218
1592.19, 0.756369
1592.67, 0.756672
1593.16, 0.756975
1593.65, 0.757176
1594.14, 0.757227
1594.63, 0.757378
1595.12, 0.757530
1595.61, 0.757731
1596.11, 0.757782
1596.6, 0.757782
1597.09, 0.757984
1597.58, 0.758236
1598.08, 0.758135
1598.57, 0.758286
1599.06, 0.758690
1599.55, 0.758841
1600.05, 0.759094
1600.54, 0.759295
1601.04, 0.759295
1601.53, 0.759346
1602.03, 0.759699
1602.52, 0.760405
1603.02, 0.760657
1603.51, 0.760557
1604.01, 0.760456
1604.5, 0.760607
1605.0, 0.760708
1605.5, 0.760859
1606.0, 0.761061
1606.49, 0.761465
1606.99, 0.761868
1607.49, 0.761717
1607.99, 0.761717
1608.49, 0.761919
1608.99, 0.762171
1609.49, 0.762373
1609.99, 0.762322
1610.49, 0.762575
1610.99, 0.762726
1611.49, 0.763079
1611.99, 0.763281
1612.49, 0.763331
1612.99, 0.763685
1613.49, 0.763937
1614.0, 0.764038
1614.5, 0.764239
1615.0, 0.764492
1615.51, 0.764643
1616.01, 0.764542
1616.51, 0.764895
1617.02, 0.765047
1617.52, 0.765047
1618.03, 0.765249
1618.53, 0.765551
1619.04, 0.765904
1619.54, 0.766207
1620.05, 0.766157
1620.55, 0.766258
1621.06, 0.766308
1621.57, 0.766611
1622.08, 0.766762
1622.58, 0.766913
1623.09, 0.767368
1623.6, 0.767216
1624.11, 0.767166
1624.62, 0.767418
1625.13, 0.767822
1625.64, 0.768175
1626.15, 0.768377
1626.66, 0.768427
1627.17, 0.768427
1627.68, 0.768629
1628.19, 0.768932
1628.7, 0.768982
1629.21, 0.769083
1629.72, 0.769386
1630.24, 0.769487
1630.75, 0.769789
1631.26, 0.770042
1631.78, 0.769890
1632.29, 0.770042
1632.8, 0.770395
1633.32, 0.770647
1633.83, 0.770798
1634.35, 0.770546
1634.86, 0.770647
1635.38, 0.771051
1635.9, 0.771101
1636.41, 0.771051
1636.93, 0.771202
1637.45, 0.771353
1637.96, 0.771606
1638.48, 0.771706
1639.0, 0.771959
1639.52, 0.772362
1640.04, 0.772463
1640.56, 0.772413
1641.08, 0.772615
1641.59, 0.772665
1642.11, 0.772615
1642.63, 0.772715
1643.16, 0.772968
1643.68, 0.773119
1644.2, 0.772867
1644.72, 0.772968
1645.24, 0.773119
1645.76, 0.773371
1646.29, 0.773624
1646.81, 0.773674
1647.33, 0.774027
1647.86, 0.774179
1648.38, 0.774027
1648.9, 0.774078
1649.43, 0.774380
1649.95, 0.774128
1650.48, 0.774279
1651.0, 0.774431
1651.53, 0.774532
1652.06, 0.774784
1652.58, 0.774784
1653.11, 0.774885
1653.64, 0.774834
1654.17, 0.775036
1654.69, 0.775288
1655.22, 0.775087
1655.75, 0.775137
1656.28, 0.775339
1656.81, 0.775642
1657.34, 0.775844
1657.87, 0.775894
1658.4, 0.775844
1658.93, 0.775844
1659.46, 0.775944
1659.99, 0.776197
1660.52, 0.776197
1661.05, 0.776096
1661.59, 0.776449
1662.12, 0.776600
1662.65, 0.776600
1663.19, 0.776802
1663.72, 0.777458
1664.26, 0.777508
1664.79, 0.777357
1665.32, 0.776953
1665.86, 0.777105
1666.39, 0.777559
1666.93, 0.777710
1667.47, 0.777861
1668.0, 0.777861
1668.54, 0.778114
1669.08, 0.778265
1669.61, 0.778316
1670.15, 0.778366
1670.69, 0.778517
1671.23, 0.778618
1671.77, 0.778719
1672.31, 0.778921
1672.85, 0.778870
1673.39, 0.779375
1673.93, 0.779829
1674.47, 0.779980
1675.01, 0.779829
1675.55, 0.779880
1676.09, 0.779930
1676.64, 0.780031
1677.18, 0.780132
1677.72, 0.780031
1678.26, 0.780182
1678.81, 0.780535
1679.35, 0.780636
1679.89, 0.780889
1680.44, 0.780989
1680.98, 0.781040
1681.53, 0.781242
1682.07, 0.781242
1682.62, 0.781343
1683.17, 0.781343
1683.71, 0.781393
1684.26, 0.781645
1684.81, 0.781746
1685.36, 0.781999
1685.9, 0.782200
1686.45, 0.782453
1687.0, 0.782402
1687.55, 0.782453
1688.1, 0.782654
1688.65, 0.782755
1689.2, 0.782806
1689.75, 0.782957
1690.3, 0.783209
1690.85, 0.783310
1691.41, 0.783512
1691.96, 0.783562
1692.51, 0.783764
1693.06, 0.783613
1693.61, 0.783663
1694.17, 0.783865
1694.72, 0.784168
1695.28, 0.784218
1695.83, 0.784218
1696.39, 0.784471
1696.94, 0.784521
1697.5, 0.784672
1698.05, 0.784773
1698.61, 0.784824
1699.17, 0.784773
1699.72, 0.784925
1700.28, 0.785126
1700.84, 0.785227
1701.4, 0.785379
1701.95, 0.785379
1702.51, 0.785278
1703.07, 0.785076
1703.63, 0.785278
1704.19, 0.785480
1704.75, 0.785530
1705.31, 0.785833
1705.88, 0.786085
1706.44, 0.785984
1707.0, 0.785833
1707.56, 0.785883
1708.12, 0.786236
1708.69, 0.786337
1709.25, 0.786236
1709.81, 0.785984
1710.38, 0.785883
1710.94, 0.786186
1711.51, 0.786186
1712.07, 0.786186
1712.64, 0.786236
1713.2, 0.786489
1713.77, 0.786640
1714.34, 0.786438
1714.9, 0.786691
1715.47, 0.786842
1716.04, 0.786791
1716.61, 0.786842
1717.18, 0.787044
1717.74, 0.786943
1718.31, 0.786842
1718.88, 0.786943
1719.45, 0.787044
1720.02, 0.787044
1720.59, 0.786892
1721.17, 0.786892
1721.74, 0.787044
1722.31, 0.786892
1722.88, 0.786691
1723.45, 0.786892
1724.03, 0.786943
1724.6, 0.786993
1725.18, 0.787245
1725.75, 0.787145
1726.33, 0.787094
1726.9, 0.786892
1727.48, 0.786943
1728.05, 0.786943
1728.63, 0.786943
1729.2, 0.787044
1729.78, 0.787145
1730.36, 0.786993
1730.94, 0.787044
1731.51, 0.787044
1732.09, 0.786943
1732.67, 0.786892
1733.25, 0.786943
1733.83, 0.787044
1734.41, 0.787094
1734.99, 0.787296
1735.57, 0.787245
1736.15, 0.787346
1736.73, 0.787548
1737.32, 0.787548
1737.9, 0.787548
1738.48, 0.787548
1739.07, 0.787447
1739.65, 0.787599
1740.23, 0.787649
1740.82, 0.787800
1741.4, 0.787800
1741.99, 0.788002
1742.57, 0.788103
1743.16, 0.788002
1743.74, 0.788002
1744.33, 0.788154
1744.92, 0.788507
1745.51, 0.788406
1746.09, 0.788355
1746.68, 0.788456
1747.27, 0.788507
1747.86, 0.788608
1748.45, 0.788860
1749.04, 0.788759
1749.63, 0.788709
1750.22, 0.788759
1750.81, 0.789011
1751.4, 0.788910
1751.99, 0.788809
1752.59, 0.788860
1753.18, 0.788961
1753.77, 0.789213
1754.37, 0.789112
1754.96, 0.789062
1755.56, 0.789062
1756.15, 0.789011
1756.74, 0.789062
1757.34, 0.789011
1757.94, 0.789112
1758.53, 0.789465
1759.13, 0.789516
1759.73, 0.789163
1760.32, 0.789163
1760.92, 0.789364
1761.52, 0.789264
1762.12, 0.789112
1762.72, 0.789112
1763.32, 0.789163
1763.92, 0.789062
1764.52, 0.789112
1765.12, 0.789112
1765.72, 0.789264
1766.32, 0.789465
1766.92, 0.789314
1767.53, 0.789163
1768.13, 0.789163
1768.73, 0.789264
1769.34, 0.789213
1769.94, 0.789314
1770.55, 0.789062
1771.15, 0.788860
1771.76, 0.788759
1772.36, 0.788658
1772.97, 0.788557
1773.57, 0.788608
1774.18, 0.788406
1774.79, 0.788608
1775.4, 0.788507
1776.0, 0.788305
1776.61, 0.788053
1777.22, 0.787700
1777.83, 0.787498
1778.44, 0.787548
1779.05, 0.787296
1779.66, 0.787447
1780.27, 0.787145
1780.88, 0.786691
1781.5, 0.786640
1782.11, 0.786287
1782.72, 0.785984
1783.33, 0.785581
1783.95, 0.785379
1784.56, 0.785328
1785.18, 0.785278
1785.79, 0.784925
1786.41, 0.784521
1787.02, 0.784319
1787.64, 0.784017
1788.26, 0.783865
1788.87, 0.783562
1789.49, 0.783361
1790.11, 0.783058
1790.73, 0.782705
1791.35, 0.782503
1791.96, 0.782553
1792.58, 0.782453
1793.21, 0.782301
1793.83, 0.782251
1794.45, 0.782251
1795.07, 0.782099
1795.69, 0.782049
1796.31, 0.781797
1796.93, 0.781797
1797.56, 0.781898
1798.18, 0.781797
1798.8, 0.781797
1799.43, 0.781847
1800.05, 0.781746
1800.68, 0.781797
1801.3, 0.781746
1801.93, 0.781797
1802.56, 0.781797
1803.18, 0.781746
1803.81, 0.781746
1804.44, 0.782049
1805.07, 0.781898
1805.7, 0.781393
1806.33, 0.781444
1806.95, 0.781494
1807.58, 0.781444
1808.22, 0.781343
1808.85, 0.781191
1809.48, 0.780939
1810.11, 0.780485
1810.74, 0.780334
1811.38, 0.780233
1812.01, 0.780081
1812.64, 0.779577
1813.28, 0.779476
1813.91, 0.779426
1814.55, 0.779274
1815.18, 0.778770
1815.82, 0.778517
1816.45, 0.778568
1817.09, 0.778517
1817.73, 0.778265
1818.36, 0.778215
1819.0, 0.778316
1819.64, 0.778114
1820.28, 0.777660
1820.92, 0.777962
1821.56, 0.778164
1822.2, 0.778669
1822.84, 0.779173
1823.48, 0.779476
1824.12, 0.779779
1824.76, 0.780132
1825.41, 0.779880
1826.05, 0.779678
1826.69, 0.780636
1827.34, 0.781645
1827.98, 0.781696
1828.63, 0.781948
1829.27, 0.782503
1829.92, 0.782806
1830.56, 0.782654
1831.21, 0.782856
1831.86, 0.783462
1832.5, 0.783764
1833.15, 0.783764
1833.8, 0.783865
1834.45, 0.783562
1835.1, 0.783310
1835.75, 0.783008
1836.4, 0.782856
1837.05, 0.782705
1837.7, 0.782654
1838.35, 0.783411
1839.01, 0.782806
1839.66, 0.781393
1840.31, 0.781393
1840.96, 0.780889
1841.62, 0.779274
1842.27, 0.779476
1842.93, 0.779980
1843.58, 0.780031
1844.24, 0.780334
1844.9, 0.780939
1845.55, 0.781393
1846.21, 0.781444
1846.87, 0.781544
1847.53, 0.783058
1848.18, 0.784370
1848.84, 0.785934
1849.5, 0.786993
1850.16, 0.787649
1850.82, 0.788355
1851.48, 0.789163
1852.14, 0.789264
1852.81, 0.789163
1853.47, 0.789011
1854.13, 0.789869
1854.8, 0.791029
1855.46, 0.790979
1856.12, 0.790575
1856.79, 0.790878
1857.45, 0.791837
1858.12, 0.792139
1858.79, 0.791483
1859.45, 0.790575
1860.12, 0.791080
1860.79, 0.791786
1861.46, 0.792240
1862.12, 0.792139
1862.79, 0.792240
1863.46, 0.791988
1864.13, 0.791736
1864.8, 0.791988
1865.48, 0.792190
1866.15, 0.791837
1866.82, 0.791282
1867.49, 0.790273
1868.16, 0.790374
1868.84, 0.790878
1869.51, 0.790928
1870.19, 0.789819
1870.86, 0.788608
1871.54, 0.789819
1872.21, 0.789465
1872.89, 0.788204
1873.56, 0.788608
1874.24, 0.789364
1874.92, 0.789062
1875.6, 0.788860
1876.28, 0.788053
1876.96, 0.787548
1877.64, 0.788103
1878.32, 0.788103
1879.0, 0.787851
1879.68, 0.787599
1880.36, 0.787245
1881.04, 0.786741
1881.73, 0.786741
1882.41, 0.786438
1883.09, 0.785782
1883.78, 0.784723
1884.46, 0.784572
1885.15, 0.784672
1885.83, 0.784471
1886.52, 0.784117
1887.21, 0.783966
1887.89, 0.783815
1888.58, 0.783663
1889.27, 0.782957
1889.96, 0.782301
1890.65, 0.782301
1891.34, 0.782150
1892.03, 0.781797
1892.72, 0.781494
1893.41, 0.781040
1894.1, 0.780889
1894.79, 0.780737
1895.49, 0.780485
1896.18, 0.779980
1896.87, 0.779375
1897.57, 0.778618
1898.26, 0.778316
1898.96, 0.777407
1899.65, 0.776701
1900.35, 0.776752
1901.05, 0.776853
1901.74, 0.776348
1902.44, 0.775389
1903.14, 0.775339
1903.84, 0.775339
1904.54, 0.774380
1905.24, 0.773674
1905.94, 0.773775
1906.64, 0.773573
1907.34, 0.773775
1908.04, 0.773624
1908.75, 0.773422
1909.45, 0.773321
1910.15, 0.773119
1910.86, 0.772867
1911.56, 0.772715
1912.27, 0.772615
1912.97, 0.771959
1913.68, 0.771807
1914.39, 0.772413
1915.09, 0.772514
1915.8, 0.772312
1916.51, 0.772564
1917.22, 0.772766
1917.93, 0.772867
1918.64, 0.772665
1919.35, 0.772009
1920.06, 0.771151
1920.77, 0.771252
1921.48, 0.772463
1922.19, 0.773018
1922.91, 0.773119
1923.62, 0.772514
1924.33, 0.772413
1925.05, 0.772715
1925.76, 0.772816
1926.48, 0.772514
1927.19, 0.772413
1927.91, 0.772160
1928.63, 0.772211
1929.35, 0.772312
1930.07, 0.772060
1930.78, 0.771959
1931.5, 0.772060
1932.22, 0.771807
1932.94, 0.771606
1933.66, 0.771505
1934.39, 0.771555
1935.11, 0.771505
1935.83, 0.771101
1936.55, 0.770899
1937.28, 0.770950
1938.0, 0.770798
1938.73, 0.770647
1939.45, 0.770748
1940.18, 0.770849
1940.9, 0.770546
1941.63, 0.770496
1942.36, 0.770496
1943.09, 0.770496
1943.81, 0.770546
1944.54, 0.770647
1945.27, 0.770798
1946.0, 0.770899
1946.73, 0.770849
1947.47, 0.771051
1948.2, 0.771303
1948.93, 0.771505
1949.66, 0.771404
1950.4, 0.771404
1951.13, 0.771454
1951.86, 0.771505
1952.6, 0.771606
1953.34, 0.771656
1954.07, 0.771555
1954.81, 0.771706
1955.55, 0.771656
1956.29, 0.771706
1957.02, 0.771706
1957.76, 0.771706
1958.5, 0.771656
1959.24, 0.771555
1959.98, 0.771606
1960.72, 0.771505
1961.47, 0.771454
1962.21, 0.771404
1962.95, 0.771555
1963.7, 0.771303
1964.44, 0.771353
1965.18, 0.771252
1965.93, 0.771101
1966.67, 0.771101
1967.42, 0.770849
1968.17, 0.770798
1968.92, 0.770849
1969.66, 0.770899
1970.41, 0.770798
1971.16, 0.770899
1971.91, 0.770849
1972.66, 0.770849
1973.41, 0.770798
1974.16, 0.770697
1974.92, 0.770496
1975.67, 0.770445
1976.42, 0.770546
1977.18, 0.770445
1977.93, 0.770395
1978.69, 0.770294
1979.44, 0.770344
1980.2, 0.770344
1980.95, 0.770395
1981.71, 0.770294
1982.47, 0.770092
1983.23, 0.769789
1983.99, 0.769537
1984.74, 0.769487
1985.51, 0.769537
1986.27, 0.769335
1987.03, 0.769335
1987.79, 0.769184
1988.55, 0.768932
1989.32, 0.768881
1990.08, 0.768881
1990.84, 0.768629
1991.61, 0.768225
1992.37, 0.767973
1993.14, 0.768023
1993.9, 0.767670
1994.67, 0.767368
1995.44, 0.767267
1996.21, 0.767368
1996.98, 0.767115
1997.75, 0.766813
1998.52, 0.766611
1999.29, 0.766358
2000.06, 0.766106
2000.83, 0.765854
2001.6, 0.765904
2002.38, 0.765904
2003.15, 0.765652
2003.93, 0.765400
2004.7, 0.765450
2005.48, 0.765299
2006.25, 0.765249
2007.03, 0.765249
2007.81, 0.765148
2008.58, 0.765097
2009.36, 0.764895
2010.14, 0.764845
2010.92, 0.764744
2011.7, 0.764643
2012.48, 0.764239
2013.26, 0.763937
2014.05, 0.763836
2014.83, 0.763685
2015.61, 0.763584
2016.4, 0.763483
2017.18, 0.763331
2017.97, 0.763079
2018.75, 0.762928
2019.54, 0.762575
2020.32, 0.762171
2021.11, 0.762171
2021.9, 0.762020
2022.69, 0.761767
2023.48, 0.761414
2024.27, 0.761112
2025.06, 0.760910
2025.85, 0.760557
2026.64, 0.760456
2027.44, 0.760203
2028.23, 0.759901
2029.02, 0.759648
2029.82, 0.759598
2030.61, 0.759497
2031.41, 0.759245
2032.2, 0.758892
2033.0, 0.758640
2033.8, 0.758387
2034.6, 0.758286
2035.4, 0.758286
2036.2, 0.758236
2037.0, 0.757731
2037.8, 0.757227
2038.6, 0.757075
2039.4, 0.756874
2040.2, 0.756621
2041.01, 0.756470
2041.81, 0.756268
2042.61, 0.755966
2043.42, 0.755511
2044.22, 0.755158
2045.03, 0.754704
2045.84, 0.754351
2046.65, 0.754200
2047.46, 0.753947
2048.26, 0.753392
2049.07, 0.752888
2049.88, 0.752484
2050.69, 0.752283
2051.51, 0.751929
2052.32, 0.751526
2053.13, 0.751223
2053.94, 0.751122
2054.76, 0.750820
2055.57, 0.750265
2056.39, 0.749911
2057.2, 0.749457
2058.02, 0.749104
2058.84, 0.748801
2059.66, 0.748398
2060.48, 0.747742
2061.29, 0.747338
2062.11, 0.746783
2062.94, 0.746228
2063.76, 0.745673
2064.58, 0.744967
2065.4, 0.744210
2066.22, 0.743403
2067.05, 0.742596
2067.87, 0.741738
2068.7, 0.740780
2069.52, 0.739670
2070.35, 0.738762
2071.18, 0.737803
2072.0, 0.736693
2072.83, 0.735785
2073.66, 0.735129
2074.49, 0.734372
2075.32, 0.733716
2076.15, 0.733262
2076.98, 0.732808
2077.82, 0.732405
2078.65, 0.731900
2079.48, 0.731597
2080.32, 0.730740
2081.15, 0.729781
2081.99, 0.728974
2082.83, 0.727814
2083.66, 0.726653
2084.5, 0.725392
2085.34, 0.724030
2086.18, 0.722819
2087.02, 0.721709
2087.86, 0.720700
2088.7, 0.720044
2089.54, 0.719489
2090.39, 0.719287
2091.23, 0.719136
2092.07, 0.718884
2092.92, 0.718732
2093.76, 0.718329
2094.61, 0.717824
2095.45, 0.717269
2096.3, 0.716916
2097.15, 0.716714
2098.0, 0.716563
2098.85, 0.716159
2099.7, 0.715756
2100.55, 0.715554
2101.4, 0.715251
2102.25, 0.714747
2103.1, 0.714091
2103.96, 0.713334
2104.81, 0.712779
2105.67, 0.711820
2106.52, 0.710156
2107.38, 0.708238
2108.24, 0.705665
2109.09, 0.702891
2109.95, 0.700015
2110.81, 0.697391
2111.67, 0.695525
2112.53, 0.694364
2113.39, 0.693809
2114.25, 0.693708
2115.12, 0.693860
2115.98, 0.694263
2116.84, 0.694373
2117.71, 0.694923
2118.58, 0.694648
2119.44, 0.694098
2120.31, 0.693383
2121.18, 0.692668
2122.04, 0.692008
2122.91, 0.691293
2123.78, 0.689973
2124.65, 0.689093
2125.52, 0.687938
2126.4, 0.687223
2127.27, 0.686013
2128.14, 0.684913
2129.02, 0.683923
2129.89, 0.682767
2130.77, 0.680787
2131.64, 0.679357
2132.52, 0.677762
2133.4, 0.676002
2134.27, 0.673527
2135.15, 0.670997
2136.03, 0.668301
2136.91, 0.665441
2137.79, 0.662581
2138.68, 0.659886
2139.56, 0.656530
2140.44, 0.652405
2141.33, 0.648555
2142.21, 0.645035
2143.1, 0.640854
2143.99, 0.635904
2144.87, 0.630403
2145.76, 0.625013
2146.65, 0.618963
2147.54, 0.612307
2148.43, 0.605431
2149.32, 0.598941
2150.21, 0.592506
2151.1, 0.585575
2151.99, 0.579745
2152.89, 0.575179
2153.78, 0.569789
2154.68, 0.564783
2155.57, 0.560438
2156.47, 0.557028
2157.37, 0.553178
2158.27, 0.549877
2159.16, 0.546577
2160.06, 0.543497
2160.96, 0.541572
2161.86, 0.540307
2162.77, 0.539316
2163.67, 0.538986
2164.57, 0.539756
2165.48, 0.541077
2166.38, 0.542177
2167.29, 0.542837
2168.2, 0.543772
2169.1, 0.545147
2170.01, 0.546247
2170.92, 0.547017
2171.83, 0.548172
2172.74, 0.549657
2173.65, 0.550427
2174.56, 0.551362
2175.47, 0.552462
2176.39, 0.553672
2177.3, 0.554718
2178.22, 0.555488
2179.13, 0.556423
2180.05, 0.556753
2180.96, 0.556588
2181.88, 0.556643
2182.8, 0.556533
2183.72, 0.555818
2184.64, 0.554333
2185.56, 0.553012
2186.48, 0.551362
2187.41, 0.548997
2188.33, 0.545532
2189.25, 0.542397
2190.18, 0.539756
2191.1, 0.536511
2192.03, 0.533211
2192.96, 0.530736
2193.89, 0.528701
2194.82, 0.527380
2195.74, 0.525785
2196.68, 0.524520
2197.61, 0.523585
2198.54, 0.522540
2199.47, 0.520395
2200.4, 0.516765
2201.34, 0.510714
2202.28, 0.502849
2203.21, 0.493113
2204.15, 0.480737
2205.08, 0.466106
2206.02, 0.449660
2206.96, 0.434093
2207.9, 0.423037
2208.84, 0.419737
2209.78, 0.426778
2210.73, 0.442894
2211.67, 0.464896
2212.61, 0.488602
2213.56, 0.510659
2214.5, 0.529966
2215.45, 0.546797
2216.4, 0.560713
2217.35, 0.572209
2218.3, 0.582000
2219.24, 0.590580
2220.2, 0.597786
2221.15, 0.604221
2222.1, 0.610107
2223.05, 0.615222
2224.0, 0.619128
2224.96, 0.622428
2225.91, 0.625068
2226.87, 0.627378
2227.83, 0.629303
2228.79, 0.631118
2229.74, 0.632384
2230.7, 0.633374
2231.66, 0.634089
2232.63, 0.634364
2233.59, 0.634309
2234.55, 0.634364
2235.51, 0.634034
2236.48, 0.633594
2237.44, 0.633539
2238.41, 0.632714
2239.38, 0.631944
2240.34, 0.631669
2241.31, 0.631504
2242.28, 0.631174
2243.25, 0.630733
2244.22, 0.630073
2245.19, 0.629688
2246.17, 0.629633
2247.14, 0.629798
2248.12, 0.629578
2249.09, 0.629468
2250.07, 0.629303
2251.04, 0.628918
2252.02, 0.628313
2253.0, 0.628038
2253.98, 0.627653
2254.96, 0.627213
2255.94, 0.626608
2256.92, 0.625783
2257.91, 0.624903
2258.89, 0.624133
2259.88, 0.623473
2260.86, 0.623033
2261.85, 0.622538
2262.83, 0.621658
2263.82, 0.620723
2264.81, 0.619458
2265.8, 0.618798
2266.79, 0.617752
2267.78, 0.616872
2268.78, 0.616267
2269.77, 0.614727
2270.76, 0.612637
2271.76, 0.610822
2272.75, 0.609612
2273.75, 0.608237
2274.75, 0.606477
2275.75, 0.604881
2276.75, 0.603286
2277.75, 0.601801
2278.75, 0.599876
2279.75, 0.598446
2280.75, 0.597071
2281.76, 0.595531
2282.76, 0.593771
2283.77, 0.592010
2284.77, 0.590855
2285.78, 0.590250
2286.79, 0.588875
2287.8, 0.587665
2288.81, 0.586675
2289.82, 0.585630
2290.83, 0.584365
2291.84, 0.583210
2292.86, 0.582165
2293.87, 0.581505
2294.89, 0.580570
2295.91, 0.579910
2296.92, 0.578864
2297.94, 0.577654
2298.96, 0.576609
2299.98, 0.575564
2301.0, 0.574299
2302.02, 0.573089
2303.04, 0.571549
2304.07, 0.569899
2305.09, 0.567919
2306.12, 0.566049
2307.15, 0.563958
2308.17, 0.562198
2309.2, 0.560438
2310.23, 0.558238
2311.26, 0.555873
2312.29, 0.554773
2313.32, 0.554058
2314.35, 0.553343
2315.39, 0.552792
2316.42, 0.552297
2317.46, 0.551637
2318.5, 0.551197
2319.53, 0.550812
2320.57, 0.550427
2321.61, 0.549877
2322.65, 0.549217
2323.69, 0.548612
2324.73, 0.548282
2325.78, 0.548117
2326.82, 0.547952
2327.86, 0.547732
2328.91, 0.548447
2329.96, 0.549382
2331.01, 0.550152
2332.05, 0.550922
2333.1, 0.551967
2334.15, 0.552517
2335.21, 0.553232
2336.26, 0.553783
2337.31, 0.554113
2338.36, 0.553948
2339.42, 0.553508
2340.48, 0.552792
2341.53, 0.551637
2342.59, 0.550152
2343.65, 0.548447
2344.71, 0.546412
2345.77, 0.544597
2346.83, 0.542727
2347.9, 0.541022
2348.96, 0.538986
2350.02, 0.536731
2351.09, 0.534696
2352.16, 0.533156
2353.23, 0.531451
2354.29, 0.530021
2355.36, 0.528206
2356.43, 0.526996
2357.51, 0.526225
2358.58, 0.526445
2359.65, 0.526775
2360.73, 0.526996
2361.8, 0.527601
2362.88, 0.528481
2363.96, 0.529086
2365.03, 0.529911
2366.11, 0.530076
2367.19, 0.529911
2368.27, 0.529031
2369.36, 0.527986
2370.44, 0.526170
2371.53, 0.523970
2372.61, 0.521495
2373.7, 0.518635
2374.78, 0.515830
2375.87, 0.513134
2376.96, 0.510494
2378.05, 0.508019
2379.14, 0.505379
2380.24, 0.503014
2381.33, 0.501033
2382.42, 0.499383
2383.52, 0.498228
2384.61, 0.497733
2385.71, 0.498338
2386.81, 0.499383
2387.91, 0.500593
2389.01, 0.502134
2390.11, 0.503839
2391.22, 0.505379
2392.32, 0.506589
2393.42, 0.508019
2394.53, 0.509284
2395.64, 0.510989
2396.74, 0.513189
2397.85, 0.515720
2398.96, 0.517865
2400.07, 0.519900
2401.18, 0.521275
2402.3, 0.521990
2403.41, 0.522375
2404.52, 0.522815
2405.64, 0.522650
2406.76, 0.522155
2407.88, 0.521825
2408.99, 0.521715
2410.11, 0.521605
2411.23, 0.521275
2412.36, 0.520505
2413.48, 0.519515
2414.6, 0.518525
2415.73, 0.518030
2416.85, 0.516930
2417.98, 0.515610
2419.11, 0.514510
2420.24, 0.513684
2421.37, 0.512199
2422.5, 0.510439
2423.64, 0.508844
2424.77, 0.507194
2425.9, 0.505599
2427.04, 0.503784
2428.18, 0.501914
2429.31, 0.499878
2430.45, 0.497238
2431.59, 0.494983
2432.73, 0.492288
2433.88, 0.489373
2435.02, 0.486402
2436.16, 0.483267
2437.31, 0.479967
2438.45, 0.477712
2439.6, 0.475402
2440.75, 0.473256
2441.9, 0.471606
2443.05, 0.470506
2444.2, 0.469131
2445.35, 0.467811
2446.51, 0.466326
2447.67, 0.465116
2448.82, 0.464126
2449.98, 0.463246
2451.14, 0.462200
2452.3, 0.461155
2453.46, 0.460055
2454.62, 0.458900
2455.78, 0.457415
2456.94, 0.456150
2458.11, 0.454995
2459.28, 0.454225
2460.44, 0.453565
2461.61, 0.453180
2462.78, 0.452465
2463.95, 0.451915
2465.12, 0.451695
2466.3, 0.451420
2467.47, 0.450650
2468.65, 0.449825
2469.82, 0.449330
2471.0, 0.448724
2472.18, 0.447844
2473.36, 0.447019
2474.54, 0.445974
2475.72, 0.445204
2476.9, 0.444049
2478.08, 0.442729
2479.27, 0.441189
2480.46, 0.439484
2481.64, 0.437614
2482.83, 0.435413
2484.02, 0.432553
2485.21, 0.429968
2486.4, 0.428153
2487.6, 0.426833
2488.79, 0.425843
2489.99, 0.425348
2491.18, 0.424908
2492.38, 0.424468
2493.58, 0.424083
2494.78, 0.423808
2495.98, 0.423753
2497.18, 0.423423
2498.39, 0.423037
2499.59, 0.422487
2500.8, 0.422047
2502.01, 0.421332
2503.21, 0.420727
2504.42, 0.420177
2505.63, 0.418967
2506.84, 0.417922
2508.06, 0.416547
2509.27, 0.415557
2510.49, 0.414787
2511.7, 0.414072
2512.92, 0.413467
2514.14, 0.412862
2515.36, 0.411927
2516.58, 0.411377
2517.8, 0.410882
2519.03, 0.410222
2520.25, 0.409506
2521.48, 0.408956
2522.7, 0.408076
2523.93, 0.407141
2525.16, 0.406206
2526.39, 0.405436
2527.62, 0.404446
2528.86, 0.403291
2530.09, 0.402136
2531.33, 0.401201
2532.56, 0.400596
2533.8, 0.400706
2535.04, 0.400211
2536.28, 0.399661
2537.52, 0.399001
2538.76, 0.397791
2540.01, 0.396305
2541.25, 0.394325
2542.5, 0.392125
2543.75, 0.390970
2544.99, 0.390255
2546.24, 0.389540
2547.49, 0.388770
2548.75, 0.388605
2550.0, 0.388275
2551.26, 0.387615
2552.51, 0.387065
2553.77, 0.387725
2555.03, 0.388000
2556.29, 0.387725
2557.55, 0.387340
2558.81, 0.386075
2560.08, 0.383544
2561.34, 0.381509
2562.61, 0.380464
2563.88, 0.379639
2565.14, 0.380134
2566.41, 0.380244
2567.68, 0.378099
2568.96, 0.375184
2570.23, 0.374634
2571.51, 0.374414
2572.78, 0.371224
2574.06, 0.370728
2575.34, 0.370288
2576.62, 0.368913
2577.9, 0.369903
2579.18, 0.370013
2580.47, 0.368033
2581.75, 0.367538
2583.04, 0.365448
2584.32, 0.365778
2585.61, 0.367043
2586.9, 0.365723
2588.2, 0.365833
2589.49, 0.366328
2590.78, 0.366218
2592.08, 0.364238
2593.37, 0.358683
2594.67, 0.354942
2595.97, 0.358793
2597.27, 0.361653
2598.57, 0.361488
2599.88, 0.359673
2601.18, 0.357527
2602.49, 0.355932
2603.79, 0.353457
2605.1, 0.351037
2606.41, 0.351257
2607.72, 0.351477
2609.03, 0.350597
2610.35, 0.350267
2611.66, 0.349772
2612.98, 0.348177
2614.3, 0.347132
2615.62, 0.343666
2616.94, 0.341246
2618.26, 0.342071
2619.58, 0.339486
2620.91, 0.338936
2622.23, 0.339926
2623.56, 0.338276
2624.89, 0.334811
2626.22, 0.330465
2627.55, 0.329200
2628.88, 0.326120
2630.21, 0.321995
2631.55, 0.321555
2632.89, 0.319190
2634.22, 0.316164
2635.56, 0.314239
2636.9, 0.311269
2638.25, 0.307749
2639.59, 0.304283
2640.93, 0.300598
2642.28, 0.297243
2643.63, 0.293723
2644.98, 0.289377
2646.33, 0.286187
2647.68, 0.283602
2649.03, 0.280302
2650.39, 0.276286
2651.74, 0.271336
2653.1, 0.267486
2654.46, 0.264075
2655.82, 0.260170
2657.18, 0.256100
2658.54, 0.250379
2659.9, 0.244714
2661.27, 0.239653
2662.64, 0.234043
2664.01, 0.226452
2665.38, 0.219082
2666.74, 0.213141
2668.12, 0.208026
2669.49, 0.200050
2670.87, 0.193285
2672.24, 0.188940
2673.62, 0.182339
2675.0, 0.174528
2676.38, 0.166443
2677.76, 0.159457
2679.15, 0.152417
2680.54, 0.145651
2681.92, 0.138006
2683.31, 0.129700
2684.7, 0.121669
2686.09, 0.113529
2687.48, 0.105113
2688.88, 0.0963670
2690.27, 0.0875670
2691.67, 0.0789310
2693.07, 0.0700750
2694.47, 0.0624300
2695.87, 0.0562140
2697.27, 0.0510440
2698.67, 0.0463140
2700.08, 0.0419680
2701.49, 0.0382280
2702.9, 0.0352030
2704.31, 0.0327280
2705.72, 0.0309670
2707.13, 0.0299220
2708.54, 0.0294270
2709.96, 0.0292070
2711.38, 0.0297570
2712.8, 0.0308570
2714.22, 0.0317370
2715.64, 0.0323420
2717.06, 0.0328930
2718.49, 0.0330030
2719.91, 0.0320670
2721.34, 0.0303620
2722.77, 0.0284370
2724.2, 0.0268420
2725.63, 0.0265120
2727.07, 0.0273370
2728.5, 0.0287670
2729.94, 0.0297570
2731.38, 0.0298670
2732.82, 0.0291520
2734.26, 0.0278320
2735.7, 0.0268420
2737.15, 0.0266220
2738.59, 0.0274470
2740.04, 0.0299220
2741.49, 0.0334430
2742.94, 0.0372380
2744.39, 0.0409230
2745.84, 0.0440030
2747.3, 0.0463140
2748.76, 0.0476890
2750.21, 0.0479090
2751.67, 0.0464240
2753.14, 0.0430680
2754.6, 0.0378980
2756.06, 0.0319570
2757.53, 0.0260720
2759.0, 0.0215070
2760.46, 0.0210670
2761.94, 0.0260170
2763.41, 0.0349830
2764.88, 0.0453780
2766.36, 0.0551690
2767.83, 0.0645750
2769.31, 0.0735960
2770.79, 0.0825060
2772.27, 0.0911970
2773.76, 0.0986230
2775.24, 0.104343
2776.73, 0.108798
2778.22, 0.112869
2779.71, 0.116664
2781.2, 0.120184
2782.69, 0.123980
2784.18, 0.127225
2785.68, 0.129535
2787.18, 0.131515
2788.68, 0.134045
2790.18, 0.136410
2791.68, 0.139106
2793.19, 0.141966
2794.69, 0.144716
2796.2, 0.147081
2797.71, 0.149501
2799.22, 0.151922
2800.73, 0.153627
2802.24, 0.154672
2803.76, 0.156267
2805.28, 0.158082
2806.8, 0.159897
2808.32, 0.161217
2809.84, 0.162262
2811.36, 0.163143
2812.89, 0.164078
2814.42, 0.164848
2815.94, 0.165728
2817.48, 0.166498
2819.01, 0.167158
2820.54, 0.167983
2822.08, 0.169193
2823.61, 0.170293
2825.15, 0.171283
2826.69, 0.172218
2828.23, 0.173373
2829.78, 0.174638
2831.32, 0.175628
2832.87, 0.176564
2834.42, 0.177609
2835.97, 0.178599
2837.52, 0.179589
2839.08, 0.180414
2840.63, 0.181459
2842.19, 0.182614
2843.75, 0.183604
2845.31, 0.184154
2846.87, 0.184814
2848.44, 0.185419
2850.0, 0.186189
2851.57, 0.187454
2853.14, 0.188499
2854.71, 0.189380
2856.28, 0.190700
2857.86, 0.191965
2859.43, 0.192845
2861.01, 0.193780
2862.59, 0.194990
2864.17, 0.195980
2865.76, 0.196970
2867.34, 0.197850
2868.93, 0.198620
2870.52, 0.199335
2872.11, 0.200050
2873.7, 0.200875
2875.29, 0.201755
2876.89, 0.202251
2878.49, 0.202856
2880.08, 0.203681
2881.69, 0.204176
2883.29, 0.204506
2884.89, 0.205276
2886.5, 0.205991
2888.11, 0.206926
2889.72, 0.207641
2891.33, 0.208191
2892.94, 0.208851
2894.56, 0.209676
2896.17, 0.210666
2897.79, 0.211876
2899.42, 0.212701
2901.04, 0.213031
2902.66, 0.212866
2904.29, 0.211656
2905.92, 0.208961
2907.55, 0.205111
2909.18, 0.201040
2910.81, 0.198180
2912.45, 0.197850
2914.08, 0.200985
2915.72, 0.206651
2917.36, 0.213086
2919.01, 0.218972
2920.65, 0.223977
2922.3, 0.227993
2923.94, 0.231788
2925.59, 0.235363
2927.25, 0.238443
2928.9, 0.241029
2930.56, 0.243449
2932.21, 0.245704
2933.87, 0.247959
2935.53, 0.249884
2937.2, 0.251754
2938.86, 0.253294
2940.53, 0.254835
2942.2, 0.256265
2943.87, 0.257530
2945.54, 0.258685
2947.22, 0.260005
2948.89, 0.261325
2950.57, 0.262590
2952.25, 0.264020
2953.93, 0.265285
2955.62, 0.266440
2957.3, 0.267596
2958.99, 0.268531
2960.68, 0.269521
2962.37, 0.270511
2964.07, 0.271831
2965.76, 0.272931
2967.46, 0.273921
2969.16, 0.274911
2970.86, 0.275791
2972.56, 0.276726
2974.27, 0.277496
2975.98, 0.278266
2977.69, 0.279201
2979.4, 0.280027
2981.11, 0.280907
2982.83, 0.281732
2984.54, 0.282722
2986.26, 0.283712
2987.98, 0.284922
2989.71, 0.285967
2991.43, 0.286847
2993.16, 0.287892
2994.89, 0.289212
2996.62, 0.290367
2998.35, 0.291577
3000.09, 0.292843
3001.83, 0.293998
3003.57, 0.294933
3005.31, 0.295868
3007.05, 0.296913
3008.79, 0.298068
3010.54, 0.299223
3012.29, 0.300048
3014.04, 0.301148
3015.8, 0.302303
3017.55, 0.303018
3019.31, 0.303953
3021.07, 0.304888
3022.83, 0.305768
3024.59, 0.306814
3026.36, 0.307804
3028.13, 0.308794
3029.9, 0.309674
3031.67, 0.310499
3033.44, 0.311324
3035.22, 0.312259
3037.0, 0.313139
3038.78, 0.314239
3040.56, 0.315449
3042.34, 0.316549
3044.13, 0.317594
3045.92, 0.318639
3047.71, 0.319685
3049.5, 0.320785
3051.3, 0.321885
3053.09, 0.322930
3054.89, 0.324140
3056.69, 0.325240
3058.5, 0.326120
3060.3, 0.327110
3062.11, 0.328210
3063.92, 0.329145
3065.73, 0.330080
3067.55, 0.330850
3069.36, 0.331730
3071.18, 0.332666
3073.0, 0.333656
3074.82, 0.334646
3076.65, 0.335526
3078.48, 0.336461
3080.31, 0.337231
3082.14, 0.338001
3083.97, 0.338881
3085.8, 0.339761
3087.64, 0.340531
3089.48, 0.341356
3091.33, 0.342181
3093.17, 0.342841
3095.02, 0.343501
3096.87, 0.344161
3098.72, 0.344932
3100.57, 0.345812
3102.43, 0.346692
3104.28, 0.347572
3106.14, 0.348507
3108.01, 0.349552
3109.87, 0.350597
3111.74, 0.351422
3113.61, 0.352247
3115.48, 0.353182
3117.35, 0.354062
3119.23, 0.354832
3121.1, 0.355822
3122.98, 0.356757
3124.87, 0.357637
3126.75, 0.358573
3128.64, 0.359563
3130.53, 0.360333
3132.42, 0.361378
3134.31, 0.362313
3136.21, 0.363083
3138.11, 0.363908
3140.01, 0.364898
3141.91, 0.365943
3143.82, 0.366823
3145.73, 0.367703
3147.64, 0.368858
3149.55, 0.369628
3151.46, 0.370398
3153.38, 0.371224
3155.3, 0.372159
3157.22, 0.372819
3159.14, 0.373369
3161.07, 0.373919
3163.0, 0.374414
3164.93, 0.375129
3166.86, 0.375679
3168.8, 0.376229
3170.74, 0.376779
3172.68, 0.377384
3174.62, 0.377989
3176.56, 0.378484
3178.51, 0.379199
3180.46, 0.379859
3182.42, 0.380574
3184.37, 0.381179
3186.33, 0.381784
3188.29, 0.382389
3190.25, 0.383104
3192.21, 0.383765
3194.18, 0.384425
3196.15, 0.385085
3198.12, 0.385800
3200.09, 0.386515
3202.07, 0.387230
3204.05, 0.387945
3206.03, 0.388715
3208.02, 0.389485
3210.0, 0.390200
3211.99, 0.390970
3213.98, 0.391795
3215.98, 0.392675
3217.97, 0.393445
3219.97, 0.394160
3221.97, 0.394875
3223.98, 0.395370
3225.98, 0.395975
3227.99, 0.396745
3230.0, 0.397461
3232.02, 0.398176
3234.03, 0.398836
3236.05, 0.399386
3238.07, 0.400046
3240.1, 0.400706
3242.12, 0.401311
3244.15, 0.401806
3246.18, 0.402356
3248.22, 0.403016
3250.25, 0.403456
3252.29, 0.403841
3254.33, 0.404391
3256.38, 0.404941
3258.43, 0.405436
3260.47, 0.405876
3262.53, 0.406536
3264.58, 0.407251
3266.64, 0.407911
3268.7, 0.408461
3270.76, 0.409011
3272.82, 0.409451
3274.89, 0.410112
3276.96, 0.410827
3279.04, 0.411377
3281.11, 0.411817
3283.19, 0.412532
3285.27, 0.413302
3287.35, 0.414127
3289.44, 0.414842
3291.53, 0.415502
3293.62, 0.416272
3295.71, 0.416987
3297.81, 0.417702
3299.91, 0.418582
3302.01, 0.419407
3304.11, 0.420287
3306.22, 0.421057
3308.33, 0.421827
3310.44, 0.422597
3312.56, 0.423203
3314.68, 0.423753
3316.8, 0.424303
3318.92, 0.424798
3321.05, 0.425293
3323.18, 0.426008
3325.31, 0.426778
3327.44, 0.427163
3329.58, 0.427713
3331.72, 0.428428
3333.86, 0.429198
3336.01, 0.430078
3338.16, 0.430628
3340.31, 0.431288
3342.46, 0.431948
3344.61, 0.432443
3346.77, 0.433103
3348.94, 0.433708
3351.1, 0.434148
3353.27, 0.434643
3355.44, 0.435138
3357.61, 0.435743
3359.79, 0.436184
3361.97, 0.436514
3364.15, 0.437064
3366.33, 0.437724
3368.52, 0.438219
3370.71, 0.438494
3372.9, 0.438989
3375.1, 0.439484
3377.3, 0.439869
3379.5, 0.440309
3381.71, 0.440694
3383.91, 0.441079
3386.12, 0.441629
3388.34, 0.442124
3390.55, 0.442509
3392.77, 0.442839
3394.99, 0.443279
3397.22, 0.443609
3399.45, 0.443774
3401.68, 0.443829
3403.91, 0.443774
3406.15, 0.443609
3408.39, 0.443499
3410.63, 0.443499
3412.87, 0.443609
3415.12, 0.443829
3417.37, 0.444599
3419.63, 0.445754
3421.88, 0.447129
3424.14, 0.448559
3426.41, 0.450265
3428.67, 0.451695
3430.94, 0.452850
3433.21, 0.454115
3435.49, 0.455215
3437.77, 0.456205
3440.05, 0.457305
3442.33, 0.458350
3444.62, 0.459175
3446.91, 0.460330
3449.2, 0.461320
3451.5, 0.461926
3453.8, 0.462696
3456.1, 0.463631
3458.41, 0.464456
3460.72, 0.465006
3463.03, 0.465556
3465.34, 0.466106
3467.66, 0.466601
3469.98, 0.467151
3472.31, 0.467536
3474.63, 0.467866
3476.96, 0.468306
3479.3, 0.468746
3481.64, 0.469021
3483.97, 0.469406
3486.32, 0.469626
3488.66, 0.469791
3491.01, 0.470011
3493.36, 0.470011
3495.72, 0.469956
3498.08, 0.469956
3500.44, 0.469956
3502.81, 0.470066
3505.18, 0.470451
3507.55, 0.471276
3509.92, 0.472376
3512.3, 0.473311
3514.68, 0.474191
3517.06, 0.475072
3519.45, 0.476007
3521.84, 0.476832
3524.24, 0.477767
3526.64, 0.478537
3529.04, 0.479307
3531.44, 0.479912
3533.85, 0.480462
3536.26, 0.480957
3538.67, 0.481562
3541.09, 0.482112
3543.51, 0.482387
3545.93, 0.482662
3548.36, 0.482882
3550.79, 0.482827
3553.22, 0.482772
3555.66, 0.482772
3558.1, 0.482662
3560.54, 0.482442
3562.99, 0.482167
3565.44, 0.481837
3567.9, 0.481672
3570.35, 0.481507
3572.81, 0.481287
3575.28, 0.481397
3577.75, 0.481507
3580.22, 0.481562
3582.69, 0.481782
3585.17, 0.481947
3587.65, 0.482167
3590.14, 0.482277
3592.62, 0.482442
3595.11, 0.482717
3597.61, 0.483102
3600.11, 0.483542
3602.61, 0.483872
3605.11, 0.484147
3607.62, 0.484532
3610.14, 0.484972
3612.65, 0.485467
3615.17, 0.485962
3617.69, 0.486567
3620.22, 0.487117
3622.75, 0.487722
3625.28, 0.488328
3627.82, 0.488823
3630.36, 0.489318
3632.9, 0.489758
3635.45, 0.490198
3638.0, 0.490528
3640.56, 0.490913
3643.12, 0.491243
3645.68, 0.491463
3648.24, 0.491573
3650.81, 0.491518
3653.39, 0.491243
3655.96, 0.490858
3658.54, 0.490473
3661.13, 0.489813
3663.71, 0.489043
3666.3, 0.488162
3668.9, 0.487117
3671.5, 0.485577
3674.1, 0.483542
3676.7, 0.480847
3679.31, 0.477547
3681.93, 0.473256
3684.54, 0.468526
3687.17, 0.464401
3689.79, 0.461210
3692.42, 0.459285
3695.05, 0.458845
3697.69, 0.459890
3700.32, 0.462311
3702.97, 0.465611
3705.61, 0.469076
3708.27, 0.473201
3710.92, 0.478317
3713.58, 0.483487
3716.24, 0.487887
3718.91, 0.491463
3721.58, 0.494268
3724.25, 0.496468
3726.93, 0.498283
3729.61, 0.499768
3732.29, 0.500924
3734.98, 0.501639
3737.67, 0.500978
3740.37, 0.497843
3743.07, 0.497018
3745.78, 0.502024
3748.49, 0.506864
3751.2, 0.509229
3753.91, 0.510659
3756.63, 0.511704
3759.36, 0.512474
3762.09, 0.513189
3764.82, 0.513849
3767.55, 0.514510
3770.29, 0.515060
3773.04, 0.515445
3775.78, 0.515885
3778.54, 0.516380
3781.29, 0.516710
3784.05, 0.517150
3786.82, 0.517535
3789.59, 0.517975
3792.36, 0.518305
3795.13, 0.518580
3797.92, 0.518855
3800.7, 0.519185
3803.49, 0.519680
3806.28, 0.520065
3809.08, 0.520285
3811.88, 0.520505
3814.68, 0.520835
3817.49, 0.521220
3820.31, 0.521495
3823.12, 0.521660
3825.94, 0.521825
3828.77, 0.522100
3831.6, 0.522265
3834.43, 0.522485
3837.27, 0.522650
3840.11, 0.522815
3842.96, 0.522870
3845.81, 0.522980
3848.67, 0.523090
3851.53, 0.523200
3854.39, 0.523310
3857.26, 0.523420
3860.13, 0.523255
3863.01, 0.523090
3865.89, 0.523200
3868.77, 0.523310
3871.66, 0.523310
3874.55, 0.523145
3877.45, 0.523035
3880.35, 0.522925
3883.26, 0.522815
3886.17, 0.522705
3889.09, 0.522650
3892.01, 0.522650
3894.93, 0.522595
3897.86, 0.522485
3900.79, 0.522320
3903.73, 0.522155
3906.67, 0.522045
3909.62, 0.521825
3912.57, 0.521715
3915.52, 0.521660
3918.48, 0.521495
3921.45, 0.521275
3924.42, 0.521110
3927.39, 0.520945
3930.37, 0.520670
3933.35, 0.520505
3936.34, 0.520230
3939.33, 0.520010
3942.32, 0.519955
3945.32, 0.519735
3948.33, 0.519625
3951.34, 0.519515
3954.35, 0.519295
3957.37, 0.519075
3960.39, 0.518910
3963.42, 0.518800
3966.45, 0.518580
3969.49, 0.518415
3972.53, 0.518250
3975.58, 0.518195
3978.63, 0.517975
3981.68, 0.517755
3984.75, 0.517535
3987.81, 0.517370
3990.88, 0.517260
3993.95, 0.517095
3997.03, 0.516930
4000.12, 0.516765
4003.21, 0.516490
4006.3, 0.516270
4009.4, 0.516105
4012.5, 0.515830
4015.61, 0.515555
4018.72, 0.515280
4021.84, 0.514950
4024.96, 0.514675
4028.09, 0.514345
4031.22, 0.514070
4034.36, 0.513794
4037.5, 0.513354
4040.65, 0.512859
4043.8, 0.512529
4046.96, 0.512254
4050.12, 0.511924
4053.29, 0.511539
4056.46, 0.511099
4059.64, 0.510769
4062.82, 0.510439
4066.0, 0.509944
4069.19, 0.509559
4072.39, 0.509119
4075.59, 0.508789
4078.8, 0.508459
4082.01, 0.508074
4085.23, 0.507744
4088.45, 0.507359
4091.68, 0.506919
4094.91, 0.506589
4098.15, 0.506094
4101.39, 0.505654
4104.63, 0.505324
4107.89, 0.505049
4111.14, 0.504609
4114.41, 0.504169
4117.67, 0.503839
4120.95, 0.503454
4124.23, 0.503069
4127.51, 0.502849
4130.8, 0.502574
4134.09, 0.502299
4137.39, 0.501914
4140.7, 0.501474
4144.01, 0.501033
4147.32, 0.500759
4150.64, 0.500373
4153.97, 0.500043
4157.3, 0.499768
4160.64, 0.499493
4163.98, 0.499163
4167.33, 0.498778
4170.68, 0.498338
4174.04, 0.497953
4177.4, 0.497568
4180.77, 0.497183
4184.14, 0.496853
4187.52, 0.496523
4190.91, 0.496083
4194.3, 0.495533
4197.69, 0.494708
4201.1, 0.493663
4204.5, 0.492398
4207.92, 0.490858
4211.34, 0.488933
4214.76, 0.486897
4218.19, 0.484972
4221.62, 0.483212
4225.06, 0.481397
4228.51, 0.479802
4231.96, 0.478482
4235.42, 0.477382
4238.88, 0.476502
4242.35, 0.475952
4245.83, 0.475622
4249.31, 0.475787
4252.79, 0.476337
4256.28, 0.476007
4259.78, 0.473311
4263.29, 0.470011
4266.79, 0.467921
4270.31, 0.467151
4273.83, 0.467481
4277.35, 0.468471
4280.89, 0.469681
4284.42, 0.470726
4287.97, 0.471606
4291.52, 0.472596
4295.07, 0.473421
4298.63, 0.474136
4302.2, 0.474576
4305.78, 0.475017
4309.35, 0.475292
4312.94, 0.475567
4316.53, 0.475732
4320.13, 0.475622
4323.73, 0.475347
4327.34, 0.475072
4330.96, 0.474576
4334.58, 0.474081
4338.21, 0.473531
4341.84, 0.472706
4345.48, 0.471881
4349.12, 0.471166
4352.77, 0.470396
4356.43, 0.469681
4360.1, 0.468966
4363.76, 0.468361
4367.44, 0.467811
4371.12, 0.467371
4374.81, 0.466931
4378.51, 0.466546
4382.21, 0.465996
4385.92, 0.465391
4389.63, 0.464676
4393.35, 0.464071
4397.08, 0.463411
4400.81, 0.462751
4404.55, 0.461926
4408.29, 0.461155
4412.04, 0.460440
4415.8, 0.459890
4419.57, 0.459285
4423.34, 0.458735
4427.12, 0.458075
4430.9, 0.457360
4434.69, 0.456700
4438.49, 0.456150
4442.29, 0.455435
4446.1, 0.454555
4449.92, 0.453620
4453.74, 0.452410
4457.57, 0.451035
4461.41, 0.449495
4465.25, 0.447624
4469.1, 0.445754
4472.95, 0.443609
4476.82, 0.441354
4480.69, 0.439429
4484.56, 0.437834
4488.44, 0.436459
4492.33, 0.435468
4496.23, 0.434808
4500.13, 0.434258
4504.04, 0.433653
4507.96, 0.433103
4511.88, 0.432718
4515.81, 0.432553
4519.75, 0.432443
4523.69, 0.432388
4527.65, 0.432223
4531.6, 0.431948
4535.57, 0.431508
4539.54, 0.430903
4543.52, 0.430078
4547.5, 0.428868
4551.5, 0.427383
4555.5, 0.425788
4559.5, 0.424028
4563.52, 0.422267
4567.54, 0.420342
4571.56, 0.418362
4575.6, 0.416272
4579.64, 0.414017
4583.69, 0.411817
4587.75, 0.409561
4591.81, 0.407141
4595.88, 0.404501
4599.96, 0.401641
4604.04, 0.398616
4608.14, 0.395425
4612.24, 0.391960
4616.34, 0.388275
4620.46, 0.384590
4624.58, 0.380959
4628.71, 0.377384
4632.84, 0.373864
4636.99, 0.370398
4641.14, 0.367043
4645.3, 0.363743
4649.47, 0.360718
4653.64, 0.358078
4657.82, 0.355712
4662.01, 0.353842
4666.21, 0.352577
4670.41, 0.351642
4674.62, 0.350927
4678.84, 0.350432
4683.07, 0.350157
4687.3, 0.349937
4691.54, 0.349607
4695.79, 0.349442
4700.05, 0.349332
4704.31, 0.349277
4708.59, 0.349277
4712.87, 0.349167
4717.15, 0.349002
4721.45, 0.348782
4725.76, 0.348562
4730.07, 0.348452
4734.39, 0.348177
4738.72, 0.347957
4743.05, 0.347682
4747.39, 0.347407
4751.75, 0.347022
4756.1, 0.346472
4760.47, 0.345702
4764.85, 0.344656
4769.23, 0.343391
4773.62, 0.341906
4778.02, 0.340366
4782.43, 0.338551
4786.85, 0.336571
4791.27, 0.334536
4795.7, 0.332336
4800.14, 0.329915
4804.59, 0.327385
4809.05, 0.324910
4813.51, 0.322160
4817.99, 0.319355
4822.47, 0.316769
4826.96, 0.314239
4831.46, 0.311709
4835.96, 0.309124
4840.48, 0.306704
4845.0, 0.304558
4849.54, 0.302468
4854.08, 0.300543
4858.63, 0.298618
4863.18, 0.296638
4867.75, 0.294658
4872.33, 0.292512
4876.91, 0.290422
4881.5, 0.288387
4886.1, 0.286242
4890.71, 0.284262
4895.33, 0.282392
4899.96, 0.280907
4904.59, 0.279586
4909.24, 0.278431
4913.89, 0.277386
4918.55, 0.276341
4923.22, 0.275296
4927.9, 0.274031
4932.59, 0.272601
4937.29, 0.271061
4942.0, 0.269246
4946.71, 0.267211
4951.44, 0.264900
4956.17, 0.262315
4960.91, 0.259730
4965.67, 0.256980
4970.43, 0.254010
4975.2, 0.251039
4979.98, 0.248069
4984.76, 0.245264
4989.56, 0.242624
4994.37, 0.240038
4999.18, 0.237563
5004.01, 0.235033
5008.84, 0.232448
5013.69, 0.229588
5018.54, 0.226452
5023.4, 0.223482
5028.28, 0.220402
5033.16, 0.217047
5038.05, 0.213471
5042.95, 0.209731
5047.86, 0.205936
5052.78, 0.201921
5057.71, 0.197685
5062.65, 0.193395
5067.6, 0.189105
5072.56, 0.184759
5077.53, 0.180304
5082.5, 0.176014
5087.49, 0.171888
5092.49, 0.167818
5097.5, 0.163583
5102.51, 0.159457
5107.54, 0.155552
5112.58, 0.151702
5117.62, 0.148236
5122.68, 0.145211
5127.75, 0.142461
5132.82, 0.139986
5137.91, 0.137841
5143.01, 0.135805
5148.12, 0.134100
5153.23, 0.133000
5158.36, 0.131900
5163.5, 0.130910
5168.65, 0.130085
5173.81, 0.129535
5178.98, 0.129315
5184.15, 0.129260
5189.34, 0.129425
5194.54, 0.129645
5199.75, 0.129920
5204.98, 0.130470
5210.21, 0.130910
5215.45, 0.131625
5220.7, 0.132670
5225.96, 0.133495
5231.23, 0.134375
5236.52, 0.135310
5241.81, 0.136520
5247.12, 0.137786
5252.44, 0.139051
5257.76, 0.140316
5263.1, 0.141526
5268.45, 0.142626
5273.81, 0.143726
5279.18, 0.144771
5284.56, 0.145486
5289.95, 0.145761
5295.36, 0.146366
5300.77, 0.146696
5306.2, 0.146696
5311.63, 0.146641
5317.08, 0.146366
5322.54, 0.145871
5328.01, 0.145266
5333.49, 0.144496
5338.98, 0.143561
5344.49, 0.142131
5350.0, 0.140536
5355.53, 0.139491
5361.07, 0.138446
5366.62, 0.136961
5372.18, 0.135145
5377.75, 0.133110
5383.34, 0.131130
5388.93, 0.129095
5394.54, 0.127005
5400.16, 0.124970
5405.79, 0.122989
5411.44, 0.121119
5417.09, 0.118919
5422.76, 0.116719
5428.43, 0.115454
5434.12, 0.113914
5439.83, 0.111934
5445.54, 0.109898
5451.26, 0.107753
5457.0, 0.105113
5462.75, 0.102253
5468.52, 0.0999980
5474.29, 0.0982380
5480.08, 0.0966970
5485.88, 0.0962020
5491.69, 0.0963670
5497.51, 0.0973020
5503.35, 0.0989530
5509.2, 0.101538
5515.06, 0.104398
5520.93, 0.107533
5526.82, 0.110999
5532.71, 0.114629
5538.63, 0.118039
5544.55, 0.120954
5550.49, 0.123374
5556.44, 0.125905
5562.4, 0.128215
5568.37, 0.129865
5574.36, 0.130360
5580.36, 0.131075
5586.37, 0.132340
5592.4, 0.132835
5598.44, 0.132505
5604.49, 0.132065
5610.56, 0.131515
5616.63, 0.130525
5622.73, 0.129700
5628.83, 0.128490
5634.95, 0.126620
5641.08, 0.124640
5647.23, 0.123815
5653.39, 0.122989
5659.56, 0.122164
5665.74, 0.121559
5671.94, 0.120349
5678.15, 0.119799
5684.38, 0.119799
5690.62, 0.119689
5696.87, 0.120129
5703.14, 0.120404
5709.42, 0.120349
5715.72, 0.121009
5722.03, 0.121944
5728.35, 0.122769
5734.69, 0.123044
5741.03, 0.123044
5747.4, 0.122769
5753.78, 0.123209
5760.17, 0.122109
5766.58, 0.120954
5773.0, 0.121889
5779.44, 0.122164
5785.88, 0.122164
5792.35, 0.122109
5798.83, 0.121944
5805.32, 0.121999
5811.83, 0.121724
5818.35, 0.120844
5824.89, 0.121394
5831.45, 0.122934
5838.01, 0.124365
5844.59, 0.125520
5851.19, 0.126235
5857.8, 0.126730
5864.43, 0.127610
5871.07, 0.128655
5877.73, 0.127830
5884.4, 0.129260
5891.09, 0.130800
5897.79, 0.131570
5904.5, 0.133660
5911.23, 0.134375
5917.98, 0.134375
5924.75, 0.134265
5931.53, 0.132835
5938.32, 0.132450
5945.13, 0.134265
5951.96, 0.134925
5958.8, 0.135035
5965.65, 0.134100
5972.53, 0.134265
5979.42, 0.134430
5986.32, 0.133495
5993.24, 0.133550
6000.18, 0.134265
6007.13, 0.133660
6014.1, 0.132945
6021.08, 0.133000
6028.09, 0.132835
6035.1, 0.131900
6042.14, 0.129370
6049.19, 0.127610
6056.25, 0.130085
6063.34, 0.130580
6070.44, 0.129370
6077.55, 0.129645
6084.69, 0.130250
6091.84, 0.129810
6099.0, 0.129040
6106.19, 0.127445
6113.39, 0.126125
6120.61, 0.127115
6127.84, 0.127940
6135.09, 0.127775
6142.36, 0.127720
6149.65, 0.128050
6156.95, 0.128050
6164.27, 0.128875
6171.61, 0.130030
6178.97, 0.129645
6186.34, 0.129755
6193.73, 0.131350
6201.14, 0.131900
6208.57, 0.131735
6216.01, 0.131625
6223.47, 0.131460
6230.95, 0.131130
6238.45, 0.130525
6245.97, 0.129975
6253.5, 0.129315
6261.06, 0.128490
6268.63, 0.127445
6276.21, 0.126620
6283.82, 0.125740
6291.45, 0.124750
6299.1, 0.123870
6306.76, 0.123099
6314.44, 0.122274
6322.14, 0.121614
6329.86, 0.120844
6337.6, 0.119249
6345.35, 0.118094
6353.13, 0.118699
6360.92, 0.118149
6368.74, 0.116664
6376.57, 0.116224
6384.43, 0.115729
6392.3, 0.114629
6400.19, 0.113089
6408.1, 0.109788
6416.03, 0.107808
6423.98, 0.108138
6431.95, 0.107588
6439.94, 0.106763
6447.95, 0.105663
6455.98, 0.104508
6464.03, 0.103408
6472.1, 0.101868
6480.19, 0.100493
6488.31, 0.0988980
6496.44, 0.0986780
6504.59, 0.0999430
6512.76, 0.0999980
6520.95, 0.0992830
6529.16, 0.0995580
6537.4, 0.0992830
6545.65, 0.0985130
6553.92, 0.0976880
6562.22, 0.0967520
6570.54, 0.0952120
6578.88, 0.0947170
6587.23, 0.0939470
6595.61, 0.0931220
6604.02, 0.0924620
6612.44, 0.0914170
6620.89, 0.0900420
6629.35, 0.0880620
6637.84, 0.0865770
6646.35, 0.0871820
6654.88, 0.0873470
6663.44, 0.0864670
6672.01, 0.0855320
6680.61, 0.0848170
6689.23, 0.0847070
6697.88, 0.0844310
6706.54, 0.0832760
6715.23, 0.0824510
6723.94, 0.0819560
6732.67, 0.0815160
6741.42, 0.0806910
6750.2, 0.0796460
6759.0, 0.0787110
6767.82, 0.0774460
6776.67, 0.0760160
6785.54, 0.0745310
6794.44, 0.0737610
6803.35, 0.0737060
6812.29, 0.0732660
6821.26, 0.0725510
6830.24, 0.0722760
6839.25, 0.0723860
6848.29, 0.0718910
6857.35, 0.0709000
6866.43, 0.0706800
6875.54, 0.0713950
6884.67, 0.0715600
6893.82, 0.0713400
6903.0, 0.0707900
6912.2, 0.0705150
6921.43, 0.0702400
6930.69, 0.0697450
6939.96, 0.0689750
6949.27, 0.0678750
6958.59, 0.0665000
6967.95, 0.0659500
6977.33, 0.0655100
6986.73, 0.0646850
6996.16, 0.0639150
7005.61, 0.0633650
7015.09, 0.0624300
7024.6, 0.0614400
7034.13, 0.0602850
7043.69, 0.0588550
7053.27, 0.0580290
7062.88, 0.0574790
7072.52, 0.0567640
7082.18, 0.0559940
7091.87, 0.0552240
7101.58, 0.0545090
7111.32, 0.0536290
7121.09, 0.0528040
7130.88, 0.0520340
7140.71, 0.0510440
7150.56, 0.0500540
7160.43, 0.0493940
7170.33, 0.0486790
7180.27, 0.0481290
7190.23, 0.0474690
7200.21, 0.0466990
7210.23, 0.0458740
7220.27, 0.0452130
7230.34, 0.0444980
7240.44, 0.0437830
7250.56, 0.0429030
7260.72, 0.0420780
7270.9, 0.0410330
7281.12, 0.0401530
7291.36, 0.0393830
7301.63, 0.0385580
7311.93, 0.0377330
7322.25, 0.0370730
7332.61, 0.0362480
7343.0, 0.0355880
7353.41, 0.0350930
7363.86, 0.0347630
7374.33, 0.0342680
7384.83, 0.0337180
7395.37, 0.0332780
7405.93, 0.0327830
7416.53, 0.0323420
7427.15, 0.0319570
7437.81, 0.0314070
7448.5, 0.0309120
7459.22, 0.0304170
7469.96, 0.0298670
7480.74, 0.0293720
7491.55, 0.0289320
7502.39, 0.0283270
7513.27, 0.0277770
7524.17, 0.0272270
7535.11, 0.0267320
7546.08, 0.0261820
7557.08, 0.0255770
7568.11, 0.0248620
7579.17, 0.0243670
7590.27, 0.0237070
7601.4, 0.0231570
7612.56, 0.0226070
7623.76, 0.0221120
7634.98, 0.0216170
7646.24, 0.0211770
7657.54, 0.0206820
7668.87, 0.0202420
7680.23, 0.0198020
7691.62, 0.0194710
7703.05, 0.0190860
7714.51, 0.0187560
7726.01, 0.0182060
7737.54, 0.0178210
7749.11, 0.0174360
7760.71, 0.0169410
7772.35, 0.0163910
7784.02, 0.0160060
7795.72, 0.0154560
7807.46, 0.0149060
7819.23, 0.0143560
7831.04, 0.0139160
7842.89, 0.0135310
7854.77, 0.0130910
7866.69, 0.0125410
7878.65, 0.0122660
7890.64, 0.0118260
7902.67, 0.0114410
7914.74, 0.0110010
7926.84, 0.0107260
7938.98, 0.0104510
7951.16, 0.0102310
7963.37, 0.00995600
7975.62, 0.00962600
7987.91, 0.00929600
8000.24, 0.00907600
8012.6, 0.00869100
8025.01, 0.00852600
8037.45, 0.00836100
8049.93, 0.00819600
8062.45, 0.00808600
8075.01, 0.00786600
8087.61, 0.00764600
8100.24, 0.00753600
8112.91, 0.00737100
8125.63, 0.00720600
8138.39, 0.00715100
8151.18, 0.00726100
8164.02, 0.00726100
8176.9, 0.00715100
8189.81, 0.00709600
8202.77, 0.00726100
8215.77, 0.00731600
8228.82, 0.00742600
8241.9, 0.00742600
8255.02, 0.00759100
8268.19, 0.00775600
8281.39, 0.00797600
8294.65, 0.00814100
8307.94, 0.00847100
8321.28, 0.00891100
8334.66, 0.00951600
8348.08, 0.00995600
8361.54, 0.0104510
8375.05, 0.0110560
8388.6, 0.0118810
8402.2, 0.0126510
8415.84, 0.0135310
8429.52, 0.0145760
8443.25, 0.0156760
8457.02, 0.0169410
8470.84, 0.0184260
8484.7, 0.0199670
8498.61, 0.0216170
8512.57, 0.0233770
8526.57, 0.0254120
8540.62, 0.0276670
8554.71, 0.0301420
8568.85, 0.0327280
8583.04, 0.0355880
8597.27, 0.0388330
8611.55, 0.0425180
8625.88, 0.0463690
8640.26, 0.0507140
8654.68, 0.0554990
8669.16, 0.0608900
8683.68, 0.0669950
8698.25, 0.0737060
8712.87, 0.0812410
8727.53, 0.0896020
8742.25, 0.0985680
8757.02, 0.108138
8771.83, 0.118039
8786.7, 0.127995
8801.62, 0.137951
8816.59, 0.147356
8831.61, 0.155937
8846.68, 0.162703
8861.8, 0.166773
8876.97, 0.167213
8892.2, 0.162703
8907.48, 0.152197
8922.81, 0.135805
8938.2, 0.115839
8953.63, 0.0952120
8969.13, 0.0759060
8984.67, 0.0603400
9000.27, 0.0520340
9015.92, 0.0515390
9031.63, 0.0564340
9047.39, 0.0639700
9063.21, 0.0728260
9079.08, 0.0821210
9095.01, 0.0914170
9111.0, 0.100493
9127.04, 0.109348
9143.13, 0.118369
9159.28, 0.127720
9175.49, 0.137676
9191.76, 0.148236
9208.09, 0.159567
9224.47, 0.171008
9240.92, 0.182449
9257.42, 0.193340
9273.98, 0.203351
9290.6, 0.211986
9307.28, 0.219027
9324.02, 0.223757
9340.82, 0.226562
9357.68, 0.228323
9374.6, 0.230248
9391.58, 0.232668
9408.62, 0.234703
9425.73, 0.235583
9442.9, 0.234923
9460.13, 0.232723
9477.42, 0.229148
9494.78, 0.224472
9512.2, 0.219137
9529.69, 0.213636
9547.24, 0.208081
9564.86, 0.202471
9582.54, 0.196805
9600.28, 0.190700
9618.1, 0.184264
9635.97, 0.177334
9653.92, 0.169578
9671.93, 0.160832
9690.01, 0.150327
9708.16, 0.138226
9726.37, 0.125135
9744.65, 0.112484
9763.0, 0.102143
9781.43, 0.0954320
9799.92, 0.0927370
9818.48, 0.0933420
9837.1, 0.0956520
9855.8, 0.0987330
9874.58, 0.101868
9893.42, 0.104728
9912.34, 0.106213
9931.33, 0.105388
9950.39, 0.101923
9969.52, 0.0968070
9988.74, 0.0909770
10008.0, 0.0849820
10027.4, 0.0797010
10046.8, 0.0752460
10066.3, 0.0712300
10085.9, 0.0675450
10105.6, 0.0641900
10125.3, 0.0613300
10145.1, 0.0586350
10165.0, 0.0561590
10185.0, 0.0535190
10205.0, 0.0507690
10225.2, 0.0480740
10245.4, 0.0455430
10265.7, 0.0430130
10286.0, 0.0406480
10306.5, 0.0381730
10327.0, 0.0358080
10347.6, 0.0333330
10368.3, 0.0311870
10389.1, 0.0292620
10409.9, 0.0274470
10430.9, 0.0256320
10451.9, 0.0241470
10473.0, 0.0231020
10494.2, 0.0227720
10515.5, 0.0237070
10536.9, 0.0258520
10558.4, 0.0290970
10579.9, 0.0334980
10601.5, 0.0380630
10623.3, 0.0415830
10645.1, 0.0434530
10667.0, 0.0438930
10689.0, 0.0433980
10711.1, 0.0426830
10733.2, 0.0421880
10755.5, 0.0427930
10777.9, 0.0447730
10800.3, 0.0475240
10822.9, 0.0507690
10845.5, 0.0540140
10868.2, 0.0571490
10891.1, 0.0604500
10914.0, 0.0635300
10937.0, 0.0658400
10960.2, 0.0671600
10983.4, 0.0668850
11006.7, 0.0651250
11030.1, 0.0625950
11053.6, 0.0602300
11077.3, 0.0583040
11101.0, 0.0565990
11124.8, 0.0551690
11148.7, 0.0540690
11172.7, 0.0531890
11196.9, 0.0522540
11221.1, 0.0515940
11245.4, 0.0509890
11269.9, 0.0504940
11294.4, 0.0502740
11319.1, 0.0499990
11343.9, 0.0494490
11368.8, 0.0490640
11393.7, 0.0487340
11418.8, 0.0484040
11444.0, 0.0481290
11469.4, 0.0479090
11494.8, 0.0476890
11520.3, 0.0474690
11546.0, 0.0468640
11571.8, 0.0462040
11597.7, 0.0454330
11623.7, 0.0450480
11649.8, 0.0447180
11676.0, 0.0443330
11702.4, 0.0438380
11728.9, 0.0433430
11755.5, 0.0429030
11782.2, 0.0421880
11809.0, 0.0412530
11836.0, 0.0404830
11863.0, 0.0396580
11890.3, 0.0388880
11917.6, 0.0381180
11945.0, 0.0374580
11972.6, 0.0365230
12000.4, 0.0356430
12028.2, 0.0348180
12056.2, 0.0337180
12084.3, 0.0322320
12112.5, 0.0308570
12140.9, 0.0298120
12169.4, 0.0287670
12198.0, 0.0273370
12226.8, 0.0259620
12255.7, 0.0248620
12284.7, 0.0235970
12313.9, 0.0220570
12343.2, 0.0206820
12372.7, 0.0194710
12402.3, 0.0184260
12432.0, 0.0172160
12461.9, 0.0167760
12491.9, 0.0171610
12522.1, 0.0178760
12552.4, 0.0183710
12582.9, 0.0189210
12613.5, 0.0194160
12644.3, 0.0198570
12675.2, 0.0205720
12706.3, 0.0211220
12737.5, 0.0212870
12768.9, 0.0213970
12800.4, 0.0214520
12832.1, 0.0213420
12863.9, 0.0207920
12895.9, 0.0203520
12928.1, 0.0199670
12960.4, 0.0194160
12992.9, 0.0185360
13025.5, 0.0182060
13058.3, 0.0178760
13091.3, 0.0176010
13124.4, 0.0172710
13157.8, 0.0168860
13191.2, 0.0167210
13224.9, 0.0168860
13258.7, 0.0169960
13292.7, 0.0169960
13326.9, 0.0168310
13361.2, 0.0169960
13395.7, 0.0172710
13430.4, 0.0172710
13465.3, 0.0168310
13500.4, 0.0159510
13535.7, 0.0155110
13571.1, 0.0150160
13606.7, 0.0145210
13642.5, 0.0140810
13678.5, 0.0133660
13714.7, 0.0125960
13751.1, 0.0118810
13787.6, 0.0112760
13824.4, 0.0108910
13861.4, 0.0106710
13898.5, 0.0101210
13935.9, 0.00973600
13973.5, 0.00968100
14011.2, 0.00995600
14049.2, 0.0104510
14087.4, 0.0114960
14125.8, 0.0128160
14164.3, 0.0141910
14203.2, 0.0153460
14242.2, 0.0168310
14281.4, 0.0184810
14320.9, 0.0198020
14360.5, 0.0210670
14400.4, 0.0220570
14440.5, 0.0226620
14480.9, 0.0230470
14521.4, 0.0233220
14562.2, 0.0237620
14603.3, 0.0238170
14644.5, 0.0240920
14686.0, 0.0240920
14727.7, 0.0236520
14769.7, 0.0235420
14811.9, 0.0237070
14854.3, 0.0236520
14897.0, 0.0237070
14939.9, 0.0232670
14983.1, 0.0230470
15026.5, 0.0232120
15070.2, 0.0234320
15114.2, 0.0233220
15158.3, 0.0235970
15202.8, 0.0243670
15247.5, 0.0249170
15292.5, 0.0254120
15337.7, 0.0262370
15383.2, 0.0268970
15429.0, 0.0275020
15475.1, 0.0284370
15521.4, 0.0289320
15568.0, 0.0292620
15614.9, 0.0299770
15662.1, 0.0308570
15709.6, 0.0318470
15757.3, 0.0329480
15805.4, 0.0341030
15853.7, 0.0359180
15902.3, 0.0386680
15951.2, 0.0420230
16000.5, 0.0462590
16050.0, 0.0512090
16099.8, 0.0573690
16150.0, 0.0646300
16200.5, 0.0724410
16251.3, 0.0805810
16302.4, 0.0883920
16353.8, 0.0957620
16405.5, 0.102143
16457.6, 0.106763
16510.0, 0.110724
16562.8, 0.114464
16615.9, 0.118919
16669.3, 0.124915
16723.1, 0.131790
16777.2, 0.139271
16831.7, 0.146861
16886.5, 0.154232
16941.7, 0.161382
16997.2, 0.167928
17053.1, 0.174693
17109.4, 0.181404
17166.1, 0.187949
17223.1, 0.194495
17280.5, 0.200930
17338.3, 0.206431
17396.5, 0.211656
17455.1, 0.216222
17514.0, 0.219247
17573.4, 0.221612
17633.2, 0.223427
17693.4, 0.223922
17754.0, 0.223537
17815.0, 0.222217
17876.4, 0.220457
17938.3, 0.219082
18000.5, 0.217872
18063.3, 0.216882
18126.4, 0.215452
18190.0, 0.213691
18254.1, 0.212041
18318.6, 0.209126
18383.5, 0.206211
18449.0, 0.201866
18514.9, 0.195870
18581.2, 0.189380
18648.0, 0.182559
18715.4, 0.174528
18783.2, 0.165398
18851.5, 0.156102
18920.3, 0.146641
18989.6, 0.137511
19059.4, 0.128490
19129.7, 0.120019
19200.6, 0.112704
19272.0, 0.107093
19343.9, 0.100108
19416.3, 0.0930670
19489.3, 0.0862470
19562.8, 0.0800860
19637.0, 0.0758510
19711.6, 0.0718910
19786.8, 0.0672150
19862.6, 0.0633100
19939.0, 0.0595700
20016.0, 0.0550590
20093.6, 0.0508790
20171.8, 0.0474690
20250.6, 0.0456540
20330.0, 0.0469190
20410.0, 0.0554440
20490.7, 0.0724410
20572.0, 0.0954320
20654.0, 0.118974
20736.6, 0.138721
20819.9, 0.154397
20903.8, 0.164518
20988.5, 0.171778
21073.8, 0.176234
21159.8, 0.179754
21246.5, 0.182779
21334.0, 0.181624
21422.1, 0.177114
21511.0, 0.167158
21600.7, 0.155772
21691.0, 0.145761
21782.1, 0.136851
21874.0, 0.127885
21966.7, 0.119689
22060.2, 0.112319
22154.5, 0.106598
22249.6, 0.102253
22345.5, 0.0989530
22442.2, 0.0958170
22539.8, 0.0948270
22638.2, 0.0981830
22737.5, 0.104728
22837.7, 0.114024
22938.7, 0.126290
23040.7, 0.136961
23143.5, 0.145761
23247.3, 0.148126
23352.1, 0.145376
23457.7, 0.144056
23564.4, 0.141856
23672.0, 0.139491
23780.5, 0.138831
23890.1, 0.139491
24000.7, 0.139381
24112.3, 0.133770
24225.0, 0.130305
24338.7, 0.132340
24453.5, 0.135200
24569.4, 0.133440
24686.4, 0.129645
24804.5, 0.125025
24923.8, 0.122219
