Database of Origin,USGS Spectral Database
Sample Description,See USGS database for additional info
Date Added,2017-02-22 02:48:43.985688

Data ID,USGS_wol02          
Sample ID,wollastonite_hs348.23652
Mineral Name,wollastonite

Wavelength
1795.69, 0.840248
1796.31, 0.840963
1796.93, 0.841231
1797.56, 0.841231
1798.18, 0.840426
1798.8, 0.840426
1799.43, 0.840069
1800.05, 0.840248
1800.68, 0.839711
1801.3, 0.840158
1801.93, 0.840158
1802.56, 0.840337
1803.18, 0.839890
1803.81, 0.840248
1804.44, 0.839711
1805.07, 0.840069
1805.7, 0.840248
1806.33, 0.840248
1806.95, 0.839622
1807.58, 0.839801
1808.22, 0.839801
1808.85, 0.840337
1809.48, 0.840069
1810.11, 0.840605
1810.74, 0.840158
1811.38, 0.840248
1812.01, 0.840069
1812.64, 0.840426
1813.28, 0.839711
1813.91, 0.839801
1814.55, 0.839711
1815.18, 0.840516
1815.82, 0.840069
1816.45, 0.839711
1817.09, 0.839801
1817.73, 0.840605
1818.36, 0.840605
1819.0, 0.840695
1819.64, 0.840426
1820.28, 0.840695
1820.92, 0.840248
1821.56, 0.840516
1822.2, 0.840248
1822.84, 0.840426
1823.48, 0.840248
1824.12, 0.841052
1824.76, 0.841052
1825.41, 0.841410
1826.05, 0.841410
1826.69, 0.841052
1827.34, 0.840426
1827.98, 0.841231
1828.63, 0.841410
1829.27, 0.841410
1829.92, 0.841052
1830.56, 0.841768
1831.21, 0.841500
1831.86, 0.841410
1832.5, 0.841231
1833.15, 0.841500
1833.8, 0.841678
1834.45, 0.841947
1835.1, 0.841857
1835.75, 0.842215
1836.4, 0.841857
1837.05, 0.842215
1837.7, 0.842036
1838.35, 0.841589
1839.01, 0.841589
1839.66, 0.842751
1840.31, 0.842125
1840.96, 0.842304
1841.62, 0.843020
1842.27, 0.842930
1842.93, 0.842125
1843.58, 0.842215
1844.24, 0.842215
1844.9, 0.842662
1845.55, 0.842304
1846.21, 0.842930
1846.87, 0.843288
1847.53, 0.843556
1848.18, 0.843556
1848.84, 0.843198
1849.5, 0.842215
1850.16, 0.842304
1850.82, 0.842304
1851.48, 0.842662
1852.14, 0.842394
1852.81, 0.842841
1853.47, 0.843198
1854.13, 0.843377
1854.8, 0.842662
1855.46, 0.843020
1856.12, 0.843288
1856.79, 0.843377
1857.45, 0.842394
1858.12, 0.842215
1858.79, 0.842036
1859.45, 0.843467
1860.12, 0.843377
1860.79, 0.842841
1861.46, 0.841947
1862.12, 0.842215
1862.79, 0.842036
1863.46, 0.842304
1864.13, 0.841947
1864.8, 0.842304
1865.48, 0.842573
1866.15, 0.843020
1866.82, 0.842841
1867.49, 0.843288
1868.16, 0.842125
1868.84, 0.841768
1869.51, 0.841589
1870.19, 0.842304
1870.86, 0.842662
1871.54, 0.842125
1872.21, 0.841947
1872.89, 0.842662
1873.56, 0.842036
1874.24, 0.841768
1874.92, 0.841500
1875.6, 0.841410
1876.28, 0.841410
1876.96, 0.841857
1877.64, 0.840784
1878.32, 0.840426
1879.0, 0.839979
1879.68, 0.840605
1880.36, 0.840784
1881.04, 0.840874
1881.73, 0.840158
1882.41, 0.840158
1883.09, 0.839711
1883.78, 0.840426
1884.46, 0.839979
1885.15, 0.839532
1885.83, 0.839264
1886.52, 0.839801
1887.21, 0.839622
1887.89, 0.839622
1888.58, 0.839085
1889.27, 0.839443
1889.96, 0.838996
1890.65, 0.838638
1891.34, 0.838280
1892.03, 0.838370
1892.72, 0.837744
1893.41, 0.837833
1894.1, 0.837386
1894.79, 0.837476
1895.49, 0.837029
1896.18, 0.837029
1896.87, 0.836850
1897.57, 0.837118
1898.26, 0.836760
1898.96, 0.837386
1899.65, 0.837118
1900.35, 0.836582
1901.05, 0.836134
1901.74, 0.836492
1902.44, 0.836850
1903.14, 0.836760
1903.84, 0.835687
1904.54, 0.836224
1905.24, 0.836134
1905.94, 0.835866
1906.64, 0.835687
1907.34, 0.835598
1908.04, 0.835061
1908.75, 0.835509
1909.45, 0.835419
1910.15, 0.835061
1910.86, 0.834614
1911.56, 0.835240
1912.27, 0.835151
1912.97, 0.835598
1913.68, 0.835151
1914.39, 0.835240
1915.09, 0.835151
1915.8, 0.835419
1916.51, 0.835061
1917.22, 0.835330
1917.93, 0.835151
1918.64, 0.835687
1919.35, 0.835866
1920.06, 0.836045
1920.77, 0.835866
1921.48, 0.835956
1922.19, 0.836045
1922.91, 0.836045
1923.62, 0.835777
1924.33, 0.836134
1925.05, 0.835777
1925.76, 0.836045
1926.48, 0.836224
1927.19, 0.836671
1927.91, 0.836403
1928.63, 0.836582
1929.35, 0.836224
1930.07, 0.836582
1930.78, 0.836045
1931.5, 0.836313
1932.22, 0.836403
1932.94, 0.836939
1933.66, 0.836760
1934.39, 0.837118
1935.11, 0.836850
1935.83, 0.837118
1936.55, 0.837207
1937.28, 0.837476
1938.0, 0.837297
1938.73, 0.837655
1939.45, 0.837207
1940.18, 0.837476
1940.9, 0.837386
1941.63, 0.837386
1942.36, 0.837207
1943.09, 0.837744
1943.81, 0.837833
1944.54, 0.837744
1945.27, 0.837386
1946.0, 0.837744
1946.73, 0.837655
1947.47, 0.837744
1948.2, 0.837476
1948.93, 0.837565
1949.66, 0.837565
1950.4, 0.838102
1951.13, 0.838012
1951.86, 0.838459
1952.6, 0.838370
1953.34, 0.838012
1954.07, 0.837744
1954.81, 0.838549
1955.55, 0.838191
1956.29, 0.838191
1957.02, 0.837744
1957.76, 0.837565
1958.5, 0.837386
1959.24, 0.837655
1959.98, 0.837655
1960.72, 0.837833
1961.47, 0.837565
1962.21, 0.837655
1962.95, 0.837655
1963.7, 0.838012
1964.44, 0.837476
1965.18, 0.837207
1965.93, 0.837029
1966.67, 0.837565
1967.42, 0.837476
1968.17, 0.837386
1968.92, 0.836850
1969.66, 0.836939
1970.41, 0.836492
1971.16, 0.836671
1971.91, 0.836582
1972.66, 0.836760
1973.41, 0.836224
1974.16, 0.836224
1974.92, 0.836134
1975.67, 0.836492
1976.42, 0.836492
1977.18, 0.836671
1977.93, 0.836313
1978.69, 0.836403
1979.44, 0.836045
1980.2, 0.836313
1980.95, 0.836045
1981.71, 0.836403
1982.47, 0.836134
1983.23, 0.835956
1983.99, 0.835777
1984.74, 0.836224
1985.51, 0.836134
1986.27, 0.836134
1987.03, 0.835687
1987.79, 0.835687
1988.55, 0.835509
1989.32, 0.835777
1990.08, 0.835509
1990.84, 0.835419
1991.61, 0.835419
1992.37, 0.836045
1993.14, 0.835777
1993.9, 0.835956
1994.67, 0.835509
1995.44, 0.835419
1996.21, 0.835151
1996.98, 0.835419
1997.75, 0.835240
1998.52, 0.835330
1999.29, 0.835061
2000.06, 0.835061
2000.83, 0.834614
2001.6, 0.835330
2002.38, 0.835509
2003.15, 0.835509
2003.93, 0.835330
2004.7, 0.835598
2005.48, 0.835598
2006.25, 0.835866
2007.03, 0.835687
2007.81, 0.835687
2008.58, 0.835240
2009.36, 0.835419
2010.14, 0.835419
2010.92, 0.835866
2011.7, 0.835419
2012.48, 0.835687
2013.26, 0.835509
2014.05, 0.835866
2014.83, 0.836134
2015.61, 0.836582
2016.4, 0.836313
2017.18, 0.836403
2017.97, 0.836224
2018.75, 0.836134
2019.54, 0.835777
2020.32, 0.836134
2021.11, 0.836045
2021.9, 0.836045
2022.69, 0.836134
2023.48, 0.836671
2024.27, 0.836492
2025.06, 0.836582
2025.85, 0.836403
2026.64, 0.836492
2027.44, 0.836045
2028.23, 0.836134
2029.02, 0.836313
2029.82, 0.836939
2030.61, 0.836671
2031.41, 0.836760
2032.2, 0.836403
2033.0, 0.836671
2033.8, 0.836760
2034.6, 0.837029
2035.4, 0.836671
2036.2, 0.837029
2037.0, 0.836939
2037.8, 0.837297
2038.6, 0.837207
2039.4, 0.837029
2040.2, 0.836760
2041.01, 0.837297
2041.81, 0.837118
2042.61, 0.837386
2043.42, 0.837118
2044.22, 0.837565
2045.03, 0.837207
2045.84, 0.837565
2046.65, 0.837297
2047.46, 0.837565
2048.26, 0.837029
2049.07, 0.837029
2049.88, 0.836850
2050.69, 0.837207
2051.51, 0.837207
2052.32, 0.837476
2053.13, 0.837386
2053.94, 0.837655
2054.76, 0.837207
2055.57, 0.837386
2056.39, 0.837029
2057.2, 0.837118
2058.02, 0.837207
2058.84, 0.837565
2059.66, 0.837118
2060.48, 0.837207
2061.29, 0.837029
2062.11, 0.837386
2062.94, 0.837118
2063.76, 0.837476
2064.58, 0.837207
2065.4, 0.837118
2066.22, 0.837029
2067.05, 0.837029
2067.87, 0.836760
2068.7, 0.836939
2069.52, 0.836582
2070.35, 0.836582
2071.18, 0.836313
2072.0, 0.836671
2072.83, 0.836403
2073.66, 0.836582
2074.49, 0.836582
2075.32, 0.836671
2076.15, 0.836045
2076.98, 0.836313
2077.82, 0.836224
2078.65, 0.836134
2079.48, 0.835598
2080.32, 0.836045
2081.15, 0.835956
2081.99, 0.835956
2082.83, 0.835687
2083.66, 0.835687
2084.5, 0.835598
2085.34, 0.835777
2086.18, 0.835419
2087.02, 0.835687
2087.86, 0.835330
2088.7, 0.835509
2089.54, 0.835240
2090.39, 0.835240
2091.23, 0.835240
2092.07, 0.835151
2092.92, 0.834704
2093.76, 0.835330
2094.61, 0.835240
2095.45, 0.835151
2096.3, 0.835061
2097.15, 0.834972
2098.0, 0.834436
2098.85, 0.834614
2099.7, 0.834614
2100.55, 0.834704
2101.4, 0.834525
2102.25, 0.834972
2103.1, 0.834525
2103.96, 0.834525
2104.81, 0.834257
2105.67, 0.834346
2106.52, 0.834257
2107.38, 0.834346
2108.24, 0.833988
2109.09, 0.833988
2109.95, 0.833899
2110.81, 0.834167
2111.67, 0.833720
2112.53, 0.833810
2113.39, 0.833899
2114.25, 0.834167
2115.12, 0.833988
2115.98, 0.834078
2116.84, 0.834078
2117.71, 0.834257
2118.58, 0.833899
2119.44, 0.833899
2120.31, 0.833541
2121.18, 0.833988
2122.04, 0.833720
2122.91, 0.833988
2123.78, 0.834078
2124.65, 0.833988
2125.52, 0.833541
2126.4, 0.834078
2127.27, 0.833988
2128.14, 0.834167
2129.02, 0.833720
2129.89, 0.833899
2130.77, 0.833988
2131.64, 0.834346
2132.52, 0.833988
2133.4, 0.834257
2134.27, 0.833988
2135.15, 0.834257
2136.03, 0.833988
2136.91, 0.833988
2137.79, 0.833810
2138.68, 0.834078
2139.56, 0.833988
2140.44, 0.834078
2141.33, 0.833899
2142.21, 0.834257
2143.1, 0.834167
2143.99, 0.834614
2144.87, 0.834346
2145.76, 0.834436
2146.65, 0.834167
2147.54, 0.834614
2148.43, 0.834436
2149.32, 0.834525
2150.21, 0.834436
2151.1, 0.834614
2151.99, 0.834167
2152.89, 0.834436
2153.78, 0.834525
2154.68, 0.834883
2155.57, 0.834525
2156.47, 0.834793
2157.37, 0.834614
2158.27, 0.834614
2159.16, 0.834436
2160.06, 0.834793
2160.96, 0.834614
2161.86, 0.834972
2162.77, 0.834704
2163.67, 0.834793
2164.57, 0.834525
2165.48, 0.834883
2166.38, 0.834525
2167.29, 0.834614
2168.2, 0.834436
2169.1, 0.834793
2170.01, 0.834793
2170.92, 0.834793
2171.83, 0.834614
2172.74, 0.834704
2173.65, 0.834257
2174.56, 0.834436
2175.47, 0.834346
2176.39, 0.834614
2177.3, 0.834346
2178.22, 0.834525
2179.13, 0.834078
2180.05, 0.834257
2180.96, 0.834167
2181.88, 0.834257
2182.8, 0.833988
2183.72, 0.834257
2184.64, 0.833899
2185.56, 0.833899
2186.48, 0.833631
2187.41, 0.833631
2188.33, 0.833273
2189.25, 0.833273
2190.18, 0.832915
2191.1, 0.833094
2192.03, 0.832915
2192.96, 0.833273
2193.89, 0.832915
2194.82, 0.833094
2195.74, 0.832826
2196.68, 0.833094
2197.61, 0.832737
2198.54, 0.832558
2199.47, 0.832111
2200.4, 0.832290
2201.34, 0.832290
2202.28, 0.832290
2203.21, 0.832111
2204.15, 0.832290
2205.08, 0.831664
2206.02, 0.831574
2206.96, 0.831395
2207.9, 0.831574
2208.84, 0.831932
2209.78, 0.832290
2210.73, 0.832021
2211.67, 0.832111
2212.61, 0.831932
2213.56, 0.832021
2214.5, 0.831932
2215.45, 0.831664
2216.4, 0.831127
2217.35, 0.831574
2218.3, 0.831485
2219.24, 0.831306
2220.2, 0.831038
2221.15, 0.831217
2222.1, 0.831127
2223.05, 0.831574
2224.0, 0.831217
2224.96, 0.831217
2225.91, 0.830948
2226.87, 0.831395
2227.83, 0.831217
2228.79, 0.831066
2229.74, 0.831442
2230.7, 0.831367
2231.66, 0.830841
2232.63, 0.830090
2233.59, 0.829865
2234.55, 0.830616
2235.51, 0.830616
2236.48, 0.829790
2237.44, 0.829489
2238.41, 0.829790
2239.38, 0.830090
2240.34, 0.830240
2241.31, 0.830165
2242.28, 0.830090
2243.25, 0.829639
2244.22, 0.829489
2245.19, 0.829414
2246.17, 0.828963
2247.14, 0.828813
2248.12, 0.828513
2249.09, 0.828287
2250.07, 0.828212
2251.04, 0.828287
2252.02, 0.828588
2253.0, 0.828588
2253.98, 0.828137
2254.96, 0.828137
2255.94, 0.828212
2256.92, 0.828212
2257.91, 0.827837
2258.89, 0.827987
2259.88, 0.827762
2260.86, 0.827837
2261.85, 0.827987
2262.83, 0.828137
2263.82, 0.828137
2264.81, 0.827987
2265.8, 0.827762
2266.79, 0.827686
2267.78, 0.827762
2268.78, 0.827536
2269.77, 0.827837
2270.76, 0.827686
2271.76, 0.827386
2272.75, 0.826935
2273.75, 0.827011
2274.75, 0.827161
2275.75, 0.827236
2276.75, 0.826935
2277.75, 0.827011
2278.75, 0.827011
2279.75, 0.826860
2280.75, 0.826710
2281.76, 0.826485
2282.76, 0.826860
2283.77, 0.826935
2284.77, 0.826560
2285.78, 0.826335
2286.79, 0.825959
2287.8, 0.826184
2288.81, 0.826259
2289.82, 0.825959
2290.83, 0.826335
2291.84, 0.826860
2292.86, 0.826410
2293.87, 0.825884
2294.89, 0.825659
2295.91, 0.825659
2296.92, 0.825358
2297.94, 0.824983
2298.96, 0.824832
2299.98, 0.825058
2301.0, 0.825358
2302.02, 0.825133
2303.04, 0.824832
2304.07, 0.824757
2305.09, 0.824382
2306.12, 0.824532
2307.15, 0.824757
2308.17, 0.824983
2309.2, 0.825058
2310.23, 0.824832
2311.26, 0.824682
2312.29, 0.824682
2313.32, 0.824607
2314.35, 0.824908
2315.39, 0.824607
2316.42, 0.823931
2317.46, 0.823856
2318.5, 0.823556
2319.53, 0.823105
2320.57, 0.823631
2321.61, 0.824307
2322.65, 0.823781
2323.69, 0.823556
2324.73, 0.823255
2325.78, 0.823105
2326.82, 0.823180
2327.86, 0.823105
2328.91, 0.822729
2329.96, 0.822955
2331.01, 0.823180
2332.05, 0.822955
2333.1, 0.822504
2334.15, 0.822654
2335.21, 0.822053
2336.26, 0.822129
2337.31, 0.822129
2338.36, 0.822053
2339.42, 0.822053
2340.48, 0.821227
2341.53, 0.821002
2342.59, 0.821152
2343.65, 0.821227
2344.71, 0.821453
2345.77, 0.821377
2346.83, 0.821377
2347.9, 0.821227
2348.96, 0.820927
2350.02, 0.820927
2351.09, 0.821002
2352.16, 0.820777
2353.23, 0.820852
2354.29, 0.820701
2355.36, 0.820026
2356.43, 0.820176
2357.51, 0.820927
2358.58, 0.820927
2359.65, 0.820251
2360.73, 0.820101
2361.8, 0.819950
2362.88, 0.819575
2363.96, 0.819425
2365.03, 0.819500
2366.11, 0.819575
2367.19, 0.819274
2368.27, 0.818974
2369.36, 0.818974
2370.44, 0.819124
2371.53, 0.819124
2372.61, 0.819049
2373.7, 0.819350
2374.78, 0.819199
2375.87, 0.818298
2376.96, 0.817998
2378.05, 0.817922
2379.14, 0.818223
2380.24, 0.817847
2381.33, 0.817697
2382.42, 0.817547
2383.52, 0.817622
2384.61, 0.817622
2385.71, 0.817622
2386.81, 0.817397
2387.91, 0.817096
2389.01, 0.817021
2390.11, 0.817397
2391.22, 0.817322
2392.32, 0.816946
2393.42, 0.816646
2394.53, 0.816420
2395.64, 0.816796
2396.74, 0.816345
2397.85, 0.816120
2398.96, 0.816045
2400.07, 0.815820
2401.18, 0.815669
2402.3, 0.815820
2403.41, 0.815820
2404.52, 0.815519
2405.64, 0.815369
2406.76, 0.815369
2407.88, 0.815444
2408.99, 0.815744
2410.11, 0.815294
2411.23, 0.815294
2412.36, 0.814993
2413.48, 0.815068
2414.6, 0.815294
2415.73, 0.815219
2416.85, 0.815068
2417.98, 0.814618
2419.11, 0.814317
2420.24, 0.814543
2421.37, 0.814693
2422.5, 0.814543
2423.64, 0.814242
2424.77, 0.814092
2425.9, 0.814167
2427.04, 0.814092
2428.18, 0.813942
2429.31, 0.814017
2430.45, 0.813716
2431.59, 0.813641
2432.73, 0.813416
2433.88, 0.813416
2435.02, 0.813116
2436.16, 0.812815
2437.31, 0.812740
2438.45, 0.812665
2439.6, 0.812665
2440.75, 0.812365
2441.9, 0.812440
2443.05, 0.812064
2444.2, 0.812214
2445.35, 0.812665
2446.51, 0.812965
2447.67, 0.812590
2448.82, 0.812365
2449.98, 0.812214
2451.14, 0.811989
2452.3, 0.811613
2453.46, 0.811088
2454.62, 0.811313
2455.78, 0.811238
2456.94, 0.810862
2458.11, 0.810262
2459.28, 0.810111
2460.44, 0.810487
2461.61, 0.810938
2462.78, 0.810862
2463.95, 0.810712
2465.12, 0.810487
2466.3, 0.810487
2467.47, 0.810262
2468.65, 0.809886
2469.82, 0.809961
2471.0, 0.809586
2472.18, 0.809510
2473.36, 0.809736
2474.54, 0.809510
2475.72, 0.809210
2476.9, 0.808985
2478.08, 0.808910
2479.27, 0.808834
2480.46, 0.809060
2481.64, 0.808834
2482.83, 0.808684
2484.02, 0.808759
2485.21, 0.808384
2486.4, 0.808159
2487.6, 0.808008
2488.79, 0.808234
2489.99, 0.808234
2491.18, 0.808008
2492.38, 0.807407
2493.58, 0.806957
2494.78, 0.806882
2495.98, 0.807107
2497.18, 0.806957
2498.39, 0.806731
2499.59, 0.806656
2500.8, 0.806506
2502.01, 0.806581
2503.21, 0.806206
2504.42, 0.805980
2505.63, 0.805905
2506.84, 0.805830
2508.06, 0.805455
2509.27, 0.805380
2510.49, 0.805380
2511.7, 0.805455
2512.92, 0.805380
2514.14, 0.805229
2515.36, 0.805154
2516.58, 0.804628
2517.8, 0.804403
2519.03, 0.804253
2520.25, 0.804178
2521.48, 0.803877
2522.7, 0.803502
2523.93, 0.803727
2525.16, 0.803652
2526.39, 0.803352
2527.62, 0.802976
2528.86, 0.802826
2530.09, 0.803051
2531.33, 0.803126
2532.56, 0.802676
2533.8, 0.802450
2535.04, 0.803051
2536.28, 0.802901
2537.52, 0.802000
2538.76, 0.801925
2540.01, 0.802150
2541.25, 0.802375
2542.5, 0.802525
2543.75, 0.802000
2544.99, 0.802150
2546.24, 0.802375
2547.49, 0.802225
2548.75, 0.802150
2550.0, 0.802525
2551.26, 0.803051
2552.51, 0.802976
2553.77, 0.802375
2555.03, 0.802450
2556.29, 0.802300
2557.55, 0.802375
2558.81, 0.803051
2560.08, 0.804103
2561.34, 0.804779
2562.61, 0.804628
2563.88, 0.804178
2565.14, 0.803126
2566.41, 0.802601
2567.68, 0.803352
2568.96, 0.804178
2570.23, 0.803051
2571.51, 0.802901
2572.78, 0.804704
2574.06, 0.803652
2575.34, 0.803427
2576.62, 0.803877
2577.9, 0.802751
2579.18, 0.802751
2580.47, 0.803727
2581.75, 0.803652
2583.04, 0.805004
2584.32, 0.804253
2585.61, 0.802901
2586.9, 0.803802
2588.2, 0.802976
2589.49, 0.802450
2590.78, 0.801849
2592.08, 0.802826
2593.37, 0.807257
2594.67, 0.809510
2595.97, 0.804103
2597.27, 0.800798
2598.57, 0.800573
2599.88, 0.801474
2601.18, 0.802150
2602.49, 0.802375
2603.79, 0.803577
2605.1, 0.805154
2606.41, 0.803126
2607.72, 0.801774
2609.03, 0.801849
2610.35, 0.801098
2611.66, 0.800798
2612.98, 0.801174
2614.3, 0.800873
2615.62, 0.802826
2616.94, 0.802901
2618.26, 0.801098
2619.58, 0.803126
2620.91, 0.801774
2622.23, 0.798995
2623.56, 0.798920
2624.89, 0.799972
2626.22, 0.801925
2627.55, 0.800272
2628.88, 0.801023
2630.21, 0.802676
2631.55, 0.799596
2632.89, 0.798920
2634.22, 0.798995
2635.56, 0.797869
2636.9, 0.797794
2638.25, 0.797643
2639.59, 0.797719
2640.93, 0.797493
2642.28, 0.797268
2643.63, 0.797268
2644.98, 0.797944
2646.33, 0.797118
2647.68, 0.796291
2649.03, 0.796141
2650.39, 0.796742
2651.74, 0.797643
2653.1, 0.796592
2654.46, 0.795916
2655.82, 0.795766
2657.18, 0.794789
2658.54, 0.795616
2659.9, 0.795390
2661.27, 0.794339
2662.64, 0.793888
2664.01, 0.796592
2665.38, 0.797869
2666.74, 0.796066
2668.12, 0.792987
2669.49, 0.794489
2670.87, 0.789532
2672.24, 0.783448
2673.62, 0.784349
2675.0, 0.786302
2676.38, 0.786828
2677.76, 0.785776
2679.15, 0.785326
2680.54, 0.783148
2681.92, 0.782547
2683.31, 0.782397
2684.7, 0.781645
2686.09, 0.781045
2687.48, 0.779693
2688.88, 0.778566
2690.27, 0.777439
2691.67, 0.777214
2693.07, 0.778115
2694.47, 0.776463
2695.87, 0.773909
2697.27, 0.771506
2698.67, 0.769929
2700.08, 0.769403
2701.49, 0.767826
2702.9, 0.765047
2704.31, 0.763019
2705.72, 0.761141
2707.13, 0.759864
2708.54, 0.758963
2709.96, 0.758437
2711.38, 0.755433
2712.8, 0.750851
2714.22, 0.748598
2715.64, 0.746495
2717.06, 0.745218
2718.49, 0.744693
2719.91, 0.744843
2721.34, 0.740637
2722.77, 0.738158
2724.2, 0.737182
2725.63, 0.732826
2727.07, 0.729295
2728.5, 0.727117
2729.94, 0.724789
2731.38, 0.722235
2732.82, 0.720207
2734.26, 0.718480
2735.7, 0.714424
2737.15, 0.710819
2738.59, 0.710143
2740.04, 0.709167
2741.49, 0.706312
2742.94, 0.703533
2744.39, 0.701581
2745.84, 0.700454
2747.3, 0.698802
2748.76, 0.696924
2750.21, 0.695197
2751.67, 0.693770
2753.14, 0.692868
2754.6, 0.693018
2756.06, 0.690089
2757.53, 0.686409
2759.0, 0.684381
2760.46, 0.683104
2761.94, 0.682654
2763.41, 0.681752
2764.88, 0.680926
2766.36, 0.681001
2767.83, 0.680551
2769.31, 0.679724
2770.79, 0.678823
2772.27, 0.677246
2773.76, 0.675744
2775.24, 0.674918
2776.73, 0.674016
2778.22, 0.672965
2779.71, 0.672514
2781.2, 0.672063
2782.69, 0.671688
2784.18, 0.671237
2785.68, 0.671162
2787.18, 0.670937
2788.68, 0.669660
2790.18, 0.668308
2791.68, 0.667181
2793.19, 0.666505
2794.69, 0.665754
2796.2, 0.665379
2797.71, 0.664703
2799.22, 0.663576
2800.73, 0.662600
2802.24, 0.662149
2803.76, 0.660647
2805.28, 0.658769
2806.8, 0.657643
2808.32, 0.657417
2809.84, 0.657117
2811.36, 0.656666
2812.89, 0.655990
2814.42, 0.655239
2815.94, 0.654413
2817.48, 0.653737
2819.01, 0.653211
2820.54, 0.652385
2822.08, 0.651634
2823.61, 0.650808
2825.15, 0.649982
2826.69, 0.649080
2828.23, 0.647954
2829.78, 0.646827
2831.32, 0.645926
2832.87, 0.645325
2834.42, 0.644574
2835.97, 0.643523
2837.52, 0.642321
2839.08, 0.641419
2840.63, 0.640368
2842.19, 0.639316
2843.75, 0.638115
2845.31, 0.636913
2846.87, 0.635862
2848.44, 0.635110
2850.0, 0.634209
2851.57, 0.633158
2853.14, 0.632181
2854.71, 0.631430
2856.28, 0.630829
2857.86, 0.630304
2859.43, 0.629553
2861.01, 0.628801
2862.59, 0.628125
2864.17, 0.627900
2865.76, 0.627449
2867.34, 0.626924
2868.93, 0.626473
2870.52, 0.626323
2872.11, 0.625271
2873.7, 0.624670
2875.29, 0.624220
2876.89, 0.623694
2878.49, 0.623093
2880.08, 0.622417
2881.69, 0.621441
2883.29, 0.620765
2884.89, 0.620314
2886.5, 0.619488
2888.11, 0.618812
2889.72, 0.618211
2891.33, 0.617160
2892.94, 0.616258
2894.56, 0.615432
2896.17, 0.614606
2897.79, 0.613780
2899.42, 0.613029
2901.04, 0.612128
2902.66, 0.611226
2904.29, 0.610250
2905.92, 0.609198
2907.55, 0.608522
2909.18, 0.608447
2910.81, 0.608222
2912.45, 0.607771
2914.08, 0.607546
2915.72, 0.607771
2917.36, 0.607396
2919.01, 0.607170
2920.65, 0.606720
2922.3, 0.606645
2923.94, 0.606870
2925.59, 0.606870
2927.25, 0.606645
2928.9, 0.606569
2930.56, 0.606269
2932.21, 0.606269
2933.87, 0.606194
2935.53, 0.606044
2937.2, 0.605894
2938.86, 0.605668
2940.53, 0.605518
2942.2, 0.605443
2943.87, 0.605368
2945.54, 0.605293
2947.22, 0.605142
2948.89, 0.605067
2950.57, 0.604842
2952.25, 0.604767
2953.93, 0.604992
2955.62, 0.604992
2957.3, 0.604842
2958.99, 0.604917
2960.68, 0.604917
2962.37, 0.604992
2964.07, 0.605067
2965.76, 0.605067
2967.46, 0.605142
2969.16, 0.605518
2970.86, 0.606044
2972.56, 0.606344
2974.27, 0.606569
2975.98, 0.607020
2977.69, 0.607170
2979.4, 0.607396
2981.11, 0.607771
2982.83, 0.608297
2984.54, 0.608522
2986.26, 0.608973
2987.98, 0.609273
2989.71, 0.609499
2991.43, 0.609799
2993.16, 0.609949
2994.89, 0.610025
2996.62, 0.610250
2998.35, 0.610325
3000.09, 0.610475
3001.83, 0.610550
3003.57, 0.610550
3005.31, 0.610625
3007.05, 0.610625
3008.79, 0.610400
3010.54, 0.610550
3012.29, 0.610625
3014.04, 0.610550
3015.8, 0.610625
3017.55, 0.610625
3019.31, 0.610625
3021.07, 0.610851
3022.83, 0.611151
3024.59, 0.611452
3026.36, 0.611827
3028.13, 0.612353
3029.9, 0.612503
3031.67, 0.612803
3033.44, 0.613029
3035.22, 0.613555
3037.0, 0.613930
3038.78, 0.614381
3040.56, 0.614606
3042.34, 0.615057
3044.13, 0.615432
3045.92, 0.615808
3047.71, 0.615958
3049.5, 0.616183
3051.3, 0.616409
3053.09, 0.616559
3054.89, 0.616634
3056.69, 0.616709
3058.5, 0.616709
3060.3, 0.616709
3062.11, 0.616484
3063.92, 0.616484
3065.73, 0.616559
3067.55, 0.616484
3069.36, 0.616183
3071.18, 0.615883
3073.0, 0.615507
3074.82, 0.615132
3076.65, 0.615057
3078.48, 0.615282
3080.31, 0.615808
3082.14, 0.616784
3083.97, 0.618061
3085.8, 0.619638
3087.64, 0.621065
3089.48, 0.622492
3091.33, 0.623844
3093.17, 0.625046
3095.02, 0.626173
3096.87, 0.626999
3098.72, 0.627675
3100.57, 0.628726
3102.43, 0.629477
3104.28, 0.630228
3106.14, 0.630754
3108.01, 0.631280
3109.87, 0.631881
3111.74, 0.632482
3113.61, 0.632857
3115.48, 0.633383
3117.35, 0.633909
3119.23, 0.634359
3121.1, 0.634810
3122.98, 0.635411
3124.87, 0.635937
3126.75, 0.636387
3128.64, 0.636613
3130.53, 0.636988
3132.42, 0.637439
3134.31, 0.637889
3136.21, 0.638190
3138.11, 0.638640
3140.01, 0.639316
3141.91, 0.639992
3143.82, 0.640293
3145.73, 0.640443
3147.64, 0.640443
3149.55, 0.640668
3151.46, 0.641194
3153.38, 0.642020
3155.3, 0.642321
3157.22, 0.642546
3159.14, 0.642847
3161.07, 0.643147
3163.0, 0.643523
3164.93, 0.643898
3166.86, 0.644274
3168.8, 0.644574
3170.74, 0.644874
3172.68, 0.645400
3174.62, 0.645701
3176.56, 0.646001
3178.51, 0.646377
3180.46, 0.646902
3182.42, 0.647278
3184.37, 0.647578
3186.33, 0.647804
3188.29, 0.648254
3190.25, 0.648705
3192.21, 0.648855
3194.18, 0.648855
3196.15, 0.649231
3198.12, 0.649681
3200.09, 0.650132
3202.07, 0.650432
3204.05, 0.650508
3206.03, 0.650808
3208.02, 0.651184
3210.0, 0.651559
3211.99, 0.651935
3213.98, 0.651784
3215.98, 0.652085
3217.97, 0.652385
3219.97, 0.652836
3221.97, 0.653061
3223.98, 0.653211
3225.98, 0.653587
3227.99, 0.653962
3230.0, 0.653887
3232.02, 0.654038
3234.03, 0.654338
3236.05, 0.654488
3238.07, 0.654864
3240.1, 0.655164
3242.12, 0.655164
3244.15, 0.655390
3246.18, 0.655765
3248.22, 0.656065
3250.25, 0.655990
3252.29, 0.655990
3254.33, 0.656216
3256.38, 0.656516
3258.43, 0.656666
3260.47, 0.657117
3262.53, 0.657267
3264.58, 0.657493
3266.64, 0.657793
3268.7, 0.658018
3270.76, 0.658018
3272.82, 0.658244
3274.89, 0.658469
3276.96, 0.658544
3279.04, 0.658769
3281.11, 0.658769
3283.19, 0.658694
3285.27, 0.658920
3287.35, 0.659145
3289.44, 0.659220
3291.53, 0.659370
3293.62, 0.659671
3295.71, 0.659896
3297.81, 0.659896
3299.91, 0.659896
3302.01, 0.660046
3304.11, 0.659971
3306.22, 0.660121
3308.33, 0.660422
3310.44, 0.660647
3312.56, 0.660872
3314.68, 0.661023
3316.8, 0.660872
3318.92, 0.660872
3321.05, 0.661173
3323.18, 0.661248
3325.31, 0.661023
3327.44, 0.660722
3329.58, 0.660497
3331.72, 0.660271
3333.86, 0.659971
3336.01, 0.659445
3338.16, 0.658694
3340.31, 0.657493
3342.46, 0.656065
3344.61, 0.654413
3346.77, 0.652836
3348.94, 0.652010
3351.1, 0.651409
3353.27, 0.650958
3355.44, 0.650958
3357.61, 0.651108
3359.79, 0.651259
3361.97, 0.651334
3364.15, 0.651409
3366.33, 0.651484
3368.52, 0.651409
3370.71, 0.651559
3372.9, 0.651334
3375.1, 0.651259
3377.3, 0.651634
3379.5, 0.652010
3381.71, 0.651935
3383.91, 0.652310
3386.12, 0.652686
3388.34, 0.652911
3390.55, 0.653136
3392.77, 0.653211
3394.99, 0.653061
3397.22, 0.653061
3399.45, 0.652986
3401.68, 0.653061
3403.91, 0.652986
3406.15, 0.652686
3408.39, 0.652460
3410.63, 0.652310
3412.87, 0.652235
3415.12, 0.652310
3417.37, 0.652385
3419.63, 0.652460
3421.88, 0.652610
3424.14, 0.653061
3426.41, 0.653362
3428.67, 0.653362
3430.94, 0.653587
3433.21, 0.653662
3435.49, 0.653512
3437.77, 0.653662
3440.05, 0.653887
3442.33, 0.654113
3444.62, 0.654038
3446.91, 0.654263
3449.2, 0.654563
3451.5, 0.654789
3453.8, 0.654939
3456.1, 0.655014
3458.41, 0.655089
3460.72, 0.654939
3463.03, 0.654638
3465.34, 0.654113
3467.66, 0.653211
3469.98, 0.652010
3472.31, 0.650583
3474.63, 0.649681
3476.96, 0.649231
3479.3, 0.649231
3481.64, 0.649531
3483.97, 0.649982
3486.32, 0.650207
3488.66, 0.650583
3491.01, 0.651108
3493.36, 0.651859
3495.72, 0.652310
3498.08, 0.652686
3500.44, 0.653061
3502.81, 0.653662
3505.18, 0.654488
3507.55, 0.655089
3509.92, 0.655840
3512.3, 0.656666
3514.68, 0.657643
3517.06, 0.658769
3519.45, 0.660121
3521.84, 0.661623
3524.24, 0.662975
3526.64, 0.664402
3529.04, 0.665679
3531.44, 0.666806
3533.85, 0.667707
3536.26, 0.668608
3538.67, 0.669435
3541.09, 0.670111
3543.51, 0.670862
3545.93, 0.671838
3548.36, 0.672364
3550.79, 0.672815
3553.22, 0.673190
3555.66, 0.673641
3558.1, 0.674016
3560.54, 0.674542
3562.99, 0.674918
3565.44, 0.675068
3567.9, 0.675368
3570.35, 0.675669
3572.81, 0.675819
3575.28, 0.676345
3577.75, 0.676795
3580.22, 0.677171
3582.69, 0.677246
3585.17, 0.677621
3587.65, 0.677997
3590.14, 0.678297
3592.62, 0.678523
3595.11, 0.678898
3597.61, 0.679199
3600.11, 0.679499
3602.61, 0.679875
3605.11, 0.680325
3607.62, 0.680776
3610.14, 0.681302
3612.65, 0.681752
3615.17, 0.682278
3617.69, 0.682879
3620.22, 0.683405
3622.75, 0.683705
3625.28, 0.684081
3627.82, 0.684381
3630.36, 0.684681
3632.9, 0.685207
3635.45, 0.685658
3638.0, 0.685883
3640.56, 0.686184
3643.12, 0.686409
3645.68, 0.686785
3648.24, 0.687160
3650.81, 0.687460
3653.39, 0.687611
3655.96, 0.687911
3658.54, 0.688212
3661.13, 0.688362
3663.71, 0.688362
3666.3, 0.688737
3668.9, 0.689038
3671.5, 0.689338
3674.1, 0.689564
3676.7, 0.689789
3679.31, 0.690014
3681.93, 0.690164
3684.54, 0.690315
3687.17, 0.690690
3689.79, 0.691141
3692.42, 0.691516
3695.05, 0.691742
3697.69, 0.692117
3700.32, 0.692493
3702.97, 0.692793
3705.61, 0.692868
3708.27, 0.693244
3710.92, 0.693469
3713.58, 0.693694
3716.24, 0.693995
3718.91, 0.694370
3721.58, 0.694596
3724.25, 0.694746
3726.93, 0.694971
3729.61, 0.695347
3732.29, 0.695647
3734.98, 0.695722
3737.67, 0.695722
3740.37, 0.696023
3743.07, 0.696323
3745.78, 0.696398
3748.49, 0.696624
3751.2, 0.696699
3753.91, 0.696549
3756.63, 0.696774
3759.36, 0.696999
3762.09, 0.697149
3764.82, 0.697300
3767.55, 0.697300
3770.29, 0.697224
3773.04, 0.697224
3775.78, 0.697300
3778.54, 0.697300
3781.29, 0.697300
3784.05, 0.697074
3786.82, 0.696774
3789.59, 0.696624
3792.36, 0.696323
3795.13, 0.696023
3797.92, 0.695347
3800.7, 0.694896
3803.49, 0.694596
3806.28, 0.694145
3809.08, 0.693544
3811.88, 0.693018
3814.68, 0.692493
3817.49, 0.692117
3820.31, 0.691516
3823.12, 0.691066
3825.94, 0.690465
3828.77, 0.689939
3831.6, 0.689338
3834.43, 0.688812
3837.27, 0.688287
3840.11, 0.687836
3842.96, 0.687460
3845.81, 0.687160
3848.67, 0.687010
3851.53, 0.687010
3854.39, 0.686785
3857.26, 0.686785
3860.13, 0.686709
3863.01, 0.686634
3865.89, 0.686409
3868.77, 0.686484
3871.66, 0.686409
3874.55, 0.686334
3877.45, 0.686334
3880.35, 0.686334
3883.26, 0.686184
3886.17, 0.686184
3889.09, 0.686109
3892.01, 0.685883
3894.93, 0.685508
3897.86, 0.685132
3900.79, 0.684832
3903.73, 0.684757
3906.67, 0.684681
3909.62, 0.684381
3912.57, 0.684006
3915.52, 0.683630
3918.48, 0.683254
3921.45, 0.682579
3924.42, 0.681902
3927.39, 0.681227
3930.37, 0.680701
3933.35, 0.680250
3936.34, 0.679724
3939.33, 0.678523
3942.32, 0.676345
3945.32, 0.673566
3948.33, 0.670862
3951.34, 0.668308
3954.35, 0.665454
3957.37, 0.662825
3960.39, 0.660422
3963.42, 0.658319
3966.45, 0.656516
3969.49, 0.655164
3972.53, 0.654188
3975.58, 0.653662
3978.63, 0.653061
3981.68, 0.652836
3984.75, 0.653211
3987.81, 0.654488
3990.88, 0.656591
3993.95, 0.659145
3997.03, 0.661849
4000.12, 0.665003
4003.21, 0.668233
4006.3, 0.671613
4009.4, 0.674767
4012.5, 0.677772
4015.61, 0.680175
4018.72, 0.682053
4021.84, 0.683705
4024.96, 0.685207
4028.09, 0.686409
4031.22, 0.687761
4034.36, 0.688812
4037.5, 0.690089
4040.65, 0.691141
4043.8, 0.692192
4046.96, 0.692943
4050.12, 0.693694
4053.29, 0.694295
4056.46, 0.694896
4059.64, 0.695121
4062.82, 0.695197
4066.0, 0.695121
4069.19, 0.695046
4072.39, 0.694896
4075.59, 0.694896
4078.8, 0.694821
4082.01, 0.694596
4085.23, 0.694295
4088.45, 0.694070
4091.68, 0.693619
4094.91, 0.693169
4098.15, 0.692793
4101.39, 0.692342
4104.63, 0.691892
4107.89, 0.691441
4111.14, 0.690915
4114.41, 0.690390
4117.67, 0.689864
4120.95, 0.689413
4124.23, 0.688812
4127.51, 0.688287
4130.8, 0.687836
4134.09, 0.687310
4137.39, 0.686709
4140.7, 0.686259
4144.01, 0.685883
4147.32, 0.685508
4150.64, 0.684982
4153.97, 0.684531
4157.3, 0.684531
4160.64, 0.684531
4163.98, 0.684381
4167.33, 0.684381
4170.68, 0.684156
4174.04, 0.684156
4177.4, 0.684156
4180.77, 0.684081
4184.14, 0.684081
4187.52, 0.684081
4190.91, 0.683930
4194.3, 0.683855
4197.69, 0.683705
4201.1, 0.683630
4204.5, 0.683630
4207.92, 0.683855
4211.34, 0.683930
4214.76, 0.684381
4218.19, 0.685057
4221.62, 0.685583
4225.06, 0.686109
4228.51, 0.686559
4231.96, 0.686634
4235.42, 0.686334
4238.88, 0.685883
4242.35, 0.685057
4245.83, 0.683855
4249.31, 0.682353
4252.79, 0.680475
4256.28, 0.679499
4259.78, 0.679950
4263.29, 0.680926
4266.79, 0.681602
4270.31, 0.682053
4273.83, 0.681978
4277.35, 0.681827
4280.89, 0.681602
4284.42, 0.681302
4287.97, 0.680926
4291.52, 0.680400
4295.07, 0.679499
4298.63, 0.678898
4302.2, 0.678147
4305.78, 0.677396
4309.35, 0.676645
4312.94, 0.675969
4316.53, 0.675443
4320.13, 0.674767
4323.73, 0.674241
4327.34, 0.673941
4330.96, 0.673340
4334.58, 0.672739
4338.21, 0.672139
4341.84, 0.671688
4345.48, 0.671087
4349.12, 0.670636
4352.77, 0.670111
4356.43, 0.669510
4360.1, 0.668834
4363.76, 0.668233
4367.44, 0.667632
4371.12, 0.666881
4374.81, 0.666205
4378.51, 0.665604
4382.21, 0.664928
4385.92, 0.664252
4389.63, 0.663802
4393.35, 0.663426
4397.08, 0.663050
4400.81, 0.662675
4404.55, 0.662375
4408.29, 0.662074
4412.04, 0.661774
4415.8, 0.661623
4419.57, 0.661398
4423.34, 0.661248
4427.12, 0.661098
4430.9, 0.660948
4434.69, 0.660797
4438.49, 0.660647
4442.29, 0.660347
4446.1, 0.660121
4449.92, 0.659821
4453.74, 0.659746
4457.57, 0.659370
4461.41, 0.658995
4465.25, 0.658694
4469.1, 0.658544
4472.95, 0.658093
4476.82, 0.657568
4480.69, 0.657192
4484.56, 0.656892
4488.44, 0.656366
4492.33, 0.655915
4496.23, 0.655164
4500.13, 0.654488
4504.04, 0.653587
4507.96, 0.652836
4511.88, 0.652010
4515.81, 0.651033
4519.75, 0.649681
4523.69, 0.648179
4527.65, 0.646377
4531.6, 0.644123
4535.57, 0.641119
4539.54, 0.637364
4543.52, 0.633007
4547.5, 0.628050
4551.5, 0.623093
4555.5, 0.618587
4559.5, 0.614681
4563.52, 0.611602
4567.54, 0.609574
4571.56, 0.608147
4575.6, 0.607020
4579.64, 0.606269
4583.69, 0.605593
4587.75, 0.604767
4591.81, 0.603715
4595.88, 0.602664
4599.96, 0.601312
4604.04, 0.599660
4608.14, 0.597632
4612.24, 0.595378
4616.34, 0.592299
4620.46, 0.588694
4624.58, 0.584413
4628.71, 0.579531
4632.84, 0.574724
4636.99, 0.569917
4641.14, 0.565260
4645.3, 0.560604
4649.47, 0.555797
4653.64, 0.550915
4657.82, 0.546183
4662.01, 0.541676
4666.21, 0.537546
4670.41, 0.534241
4674.62, 0.531612
4678.84, 0.529734
4683.07, 0.528157
4687.3, 0.526955
4691.54, 0.526054
4695.79, 0.525078
4700.05, 0.524101
4704.31, 0.522824
4708.59, 0.521247
4712.87, 0.518994
4717.15, 0.516140
4721.45, 0.512159
4725.76, 0.507728
4730.07, 0.502696
4734.39, 0.497588
4738.72, 0.492481
4743.05, 0.487824
4747.39, 0.483543
4751.75, 0.479562
4756.1, 0.475732
4760.47, 0.471751
4764.85, 0.468597
4769.23, 0.465893
4773.62, 0.463489
4778.02, 0.460485
4782.43, 0.457631
4786.85, 0.454552
4791.27, 0.451773
4795.7, 0.448693
4800.14, 0.445388
4804.59, 0.441483
4809.05, 0.437052
4813.51, 0.432395
4817.99, 0.427288
4822.47, 0.421805
4826.96, 0.416472
4831.46, 0.412191
4835.96, 0.409863
4840.48, 0.408961
4845.0, 0.408360
4849.54, 0.407159
4854.08, 0.405431
4858.63, 0.402802
4863.18, 0.399723
4867.75, 0.396719
4872.33, 0.394465
4876.91, 0.392738
4881.5, 0.391311
4886.1, 0.389884
4890.71, 0.388081
4895.33, 0.385227
4899.96, 0.381096
4904.59, 0.376139
4909.24, 0.370882
4913.89, 0.366300
4918.55, 0.363521
4923.22, 0.362695
4927.9, 0.363146
4932.59, 0.364122
4937.29, 0.365624
4942.0, 0.367276
4946.71, 0.369004
4951.44, 0.370581
4956.17, 0.372083
4960.91, 0.373510
4965.67, 0.375013
4970.43, 0.376214
4975.2, 0.376665
4979.98, 0.376365
4984.76, 0.375238
4989.56, 0.373435
4994.37, 0.371558
4999.18, 0.370131
5004.01, 0.368929
5008.84, 0.367652
5013.69, 0.366525
5018.54, 0.365023
5023.4, 0.363446
5028.28, 0.362019
5033.16, 0.361118
5038.05, 0.360367
5042.95, 0.359766
5047.86, 0.359015
5052.78, 0.357738
5057.71, 0.356236
5062.65, 0.354734
5067.6, 0.353231
5072.56, 0.351804
5077.53, 0.350152
5082.5, 0.348725
5087.49, 0.346922
5092.49, 0.344744
5097.5, 0.342191
5102.51, 0.339186
5107.54, 0.335581
5112.58, 0.332276
5117.62, 0.329197
5122.68, 0.326418
5127.75, 0.323789
5132.82, 0.320785
5137.91, 0.317180
5143.01, 0.312899
5148.12, 0.307716
5153.23, 0.301783
5158.36, 0.295474
5163.5, 0.289540
5168.65, 0.283607
5173.81, 0.277523
5178.98, 0.271439
5184.15, 0.265731
5189.34, 0.260774
5194.54, 0.257018
5199.75, 0.254164
5204.98, 0.251986
5210.21, 0.250334
5215.45, 0.248681
5220.7, 0.246879
5225.96, 0.245302
5231.23, 0.243875
5236.52, 0.242673
5241.81, 0.241621
5247.12, 0.241471
5252.44, 0.241997
5257.76, 0.243199
5263.1, 0.245377
5268.45, 0.248832
5273.81, 0.253789
5279.18, 0.260549
5284.56, 0.269336
5289.95, 0.280227
5295.36, 0.292469
5300.77, 0.305763
5306.2, 0.319208
5311.63, 0.331901
5317.08, 0.343242
5322.54, 0.352931
5328.01, 0.360892
5333.49, 0.367126
5338.98, 0.371633
5344.49, 0.375013
5350.0, 0.377041
5355.53, 0.378017
5361.07, 0.378017
5366.62, 0.377491
5372.18, 0.377116
5377.75, 0.378468
5383.34, 0.382523
5388.93, 0.388832
5394.54, 0.395817
5400.16, 0.401751
5405.79, 0.405732
5411.44, 0.407459
5417.09, 0.407760
5422.76, 0.406483
5428.43, 0.403704
5434.12, 0.401375
5439.83, 0.399873
5445.54, 0.398972
5451.26, 0.397920
5457.0, 0.396418
5462.75, 0.394315
5468.52, 0.390785
5474.29, 0.386504
5480.08, 0.381697
5485.88, 0.376064
5491.69, 0.370131
5497.51, 0.363746
5503.35, 0.357437
5509.2, 0.350903
5515.06, 0.344068
5520.93, 0.336332
5526.82, 0.327695
5532.71, 0.318682
5538.63, 0.310720
5544.55, 0.304787
5550.49, 0.301933
5556.44, 0.301858
5562.4, 0.304261
5568.37, 0.307716
5574.36, 0.310645
5580.36, 0.312373
5586.37, 0.312748
5592.4, 0.312598
5598.44, 0.312147
5604.49, 0.311847
5610.56, 0.312147
5616.63, 0.312823
5622.73, 0.313650
5628.83, 0.314551
5634.95, 0.315903
5641.08, 0.316804
5647.23, 0.316353
5653.39, 0.315678
5659.56, 0.314701
5665.74, 0.313049
5671.94, 0.311096
5678.15, 0.307265
5684.38, 0.301933
5690.62, 0.295248
5696.87, 0.286836
5703.14, 0.277973
5709.42, 0.269261
5715.72, 0.260774
5722.03, 0.253639
5728.35, 0.247930
5734.69, 0.243574
5741.03, 0.239894
5747.4, 0.236364
5753.78, 0.232458
5760.17, 0.229604
5766.58, 0.226825
5773.0, 0.223370
5779.44, 0.220366
5785.88, 0.217962
5792.35, 0.215935
5798.83, 0.214282
5805.32, 0.212930
5811.83, 0.212329
5818.35, 0.213381
5824.89, 0.214958
5831.45, 0.217136
5838.01, 0.220441
5844.59, 0.224497
5851.19, 0.229003
5857.8, 0.233360
5864.43, 0.237340
5871.07, 0.240795
5877.73, 0.245227
5884.4, 0.248231
5891.09, 0.251010
5897.79, 0.254840
5904.5, 0.257770
5911.23, 0.261450
5917.98, 0.265130
5924.75, 0.268360
5931.53, 0.271890
5938.32, 0.274293
5945.13, 0.274519
5951.96, 0.275044
5958.8, 0.275870
5965.65, 0.276922
5972.53, 0.276471
5979.42, 0.275119
5986.32, 0.273467
5993.24, 0.270312
6000.18, 0.265881
6007.13, 0.261375
6014.1, 0.256342
6021.08, 0.250184
6028.09, 0.243724
6035.1, 0.237641
6042.14, 0.233360
6049.19, 0.229078
6056.25, 0.222694
6063.34, 0.217662
6070.44, 0.213756
6077.55, 0.209175
6084.69, 0.204819
6091.84, 0.201589
6099.0, 0.199261
6106.19, 0.198359
6113.39, 0.198134
6120.61, 0.197458
6127.84, 0.197383
6135.09, 0.198059
6142.36, 0.198660
6149.65, 0.199035
6156.95, 0.199561
6164.27, 0.199861
6171.61, 0.200462
6178.97, 0.202265
6186.34, 0.203992
6193.73, 0.203767
6201.14, 0.202941
6208.57, 0.202040
6216.01, 0.201739
6223.47, 0.202415
6230.95, 0.204443
6238.45, 0.207297
6245.97, 0.210527
6253.5, 0.213681
6261.06, 0.216235
6268.63, 0.217662
6276.21, 0.217812
6283.82, 0.216611
6291.45, 0.214432
6299.1, 0.211353
6306.76, 0.207748
6314.44, 0.204368
6322.14, 0.201289
6329.86, 0.198434
6337.6, 0.196557
6345.35, 0.194379
6353.13, 0.191449
6360.92, 0.189346
6368.74, 0.188145
6376.57, 0.187018
6384.43, 0.186793
6392.3, 0.187619
6400.19, 0.189872
6408.1, 0.193778
6416.03, 0.197909
6423.98, 0.200387
6431.95, 0.203091
6439.94, 0.205269
6447.95, 0.206922
6455.98, 0.208274
6464.03, 0.209851
6472.1, 0.212029
6480.19, 0.214808
6488.31, 0.218113
6496.44, 0.220141
6504.59, 0.220366
6512.76, 0.220892
6520.95, 0.221267
6529.16, 0.220516
6537.4, 0.219690
6545.65, 0.218638
6553.92, 0.217211
6562.22, 0.215559
6570.54, 0.213907
6578.88, 0.210902
6587.23, 0.207522
6595.61, 0.203842
6604.02, 0.199636
6612.44, 0.195355
6620.89, 0.190698
6629.35, 0.186342
6637.84, 0.181685
6646.35, 0.176278
6654.88, 0.172072
6663.44, 0.169443
6672.01, 0.167791
6680.61, 0.166664
6689.23, 0.165763
6697.88, 0.165237
6706.54, 0.165237
6715.23, 0.165162
6723.94, 0.165162
6732.67, 0.165162
6741.42, 0.165612
6750.2, 0.166589
6759.0, 0.167791
6767.82, 0.169067
6776.67, 0.170119
6785.54, 0.171095
6794.44, 0.171696
6803.35, 0.171546
6812.29, 0.171471
6821.26, 0.171546
6830.24, 0.171321
6839.25, 0.170870
6848.29, 0.170419
6857.35, 0.170344
6866.43, 0.169818
6875.54, 0.168617
6884.67, 0.167791
6893.82, 0.167265
6903.0, 0.166664
6912.2, 0.165988
6921.43, 0.165237
6930.69, 0.164486
6939.96, 0.163810
6949.27, 0.163434
6958.59, 0.163284
6967.95, 0.162683
6977.33, 0.162007
6986.73, 0.161632
6996.16, 0.161106
7005.61, 0.160430
7015.09, 0.159904
7024.6, 0.159153
7034.13, 0.158402
7043.69, 0.157876
7053.27, 0.157125
7062.88, 0.156825
7072.52, 0.157351
7082.18, 0.158928
7091.87, 0.161481
7101.58, 0.165012
7111.32, 0.169142
7121.09, 0.172748
7130.88, 0.175376
7140.71, 0.177479
7150.56, 0.179658
7160.43, 0.182061
7170.33, 0.184389
7180.27, 0.186192
7190.23, 0.187694
7200.21, 0.188896
7210.23, 0.189346
7220.27, 0.189346
7230.34, 0.189196
7240.44, 0.188896
7250.56, 0.188445
7260.72, 0.187619
7270.9, 0.186417
7281.12, 0.184690
7291.36, 0.182437
7301.63, 0.179883
7311.93, 0.177254
7322.25, 0.174475
7332.61, 0.171621
7343.0, 0.168466
7353.41, 0.165162
7363.86, 0.162383
7374.33, 0.160280
7384.83, 0.157951
7395.37, 0.154947
7405.93, 0.151642
7416.53, 0.148638
7427.15, 0.145859
7437.81, 0.143305
7448.5, 0.140827
7459.22, 0.138574
7469.96, 0.136471
7480.74, 0.134668
7491.55, 0.132941
7502.39, 0.131288
7513.27, 0.129861
7524.17, 0.128584
7535.11, 0.127533
7546.08, 0.126481
7557.08, 0.125730
7568.11, 0.125054
7579.17, 0.124378
7590.27, 0.123627
7601.4, 0.122876
7612.56, 0.122200
7623.76, 0.121599
7634.98, 0.120998
7646.24, 0.120398
7657.54, 0.119722
7668.87, 0.118971
7680.23, 0.117994
7691.62, 0.117018
7703.05, 0.115816
7714.51, 0.114614
7726.01, 0.113262
7737.54, 0.111760
7749.11, 0.110258
7760.71, 0.108681
7772.35, 0.106953
7784.02, 0.105076
7795.72, 0.103123
7807.46, 0.101095
7819.23, 0.0987670
7831.04, 0.0962880
7842.89, 0.0938850
7854.77, 0.0917060
7866.69, 0.0894530
7878.65, 0.0871250
7890.64, 0.0848720
7902.67, 0.0827690
7914.74, 0.0808910
7926.84, 0.0793890
7938.98, 0.0781120
7951.16, 0.0768350
7963.37, 0.0757840
7975.62, 0.0747320
7987.91, 0.0734550
8000.24, 0.0718780
8012.6, 0.0700750
8025.01, 0.0681230
8037.45, 0.0662450
8049.93, 0.0642920
8062.45, 0.0624140
8075.01, 0.0606120
8087.61, 0.0588090
8100.24, 0.0571570
8112.91, 0.0551290
8125.63, 0.0529510
8138.39, 0.0508480
8151.18, 0.0486700
8164.02, 0.0464170
8176.9, 0.0442380
8189.81, 0.0425110
8202.77, 0.0407830
8215.77, 0.0391310
8228.82, 0.0376290
8241.9, 0.0362020
8255.02, 0.0349250
8268.19, 0.0336480
8281.39, 0.0323710
8294.65, 0.0309440
8307.94, 0.0296680
8321.28, 0.0284660
8334.66, 0.0273390
8348.08, 0.0261370
8361.54, 0.0249360
8375.05, 0.0238090
8388.6, 0.0229080
8402.2, 0.0223070
8415.84, 0.0217060
8429.52, 0.0211050
8443.25, 0.0208050
8457.02, 0.0205040
8470.84, 0.0202790
8484.7, 0.0203540
8498.61, 0.0208800
8512.57, 0.0216310
8526.57, 0.0224570
8540.62, 0.0238090
8554.71, 0.0258370
8568.85, 0.0285410
8583.04, 0.0318460
8597.27, 0.0357510
8611.55, 0.0405580
8625.88, 0.0461910
8640.26, 0.0527260
8654.68, 0.0609120
8669.16, 0.0703010
8683.68, 0.0809660
8698.25, 0.0929080
8712.87, 0.106127
8727.53, 0.119722
8742.25, 0.133391
8757.02, 0.146535
8771.83, 0.158102
8786.7, 0.166814
8801.62, 0.169969
8816.59, 0.164185
8831.61, 0.150290
8846.68, 0.134818
8861.8, 0.122726
8876.97, 0.114013
8892.2, 0.107704
8907.48, 0.102747
8922.81, 0.0986160
8938.2, 0.0958370
8953.63, 0.0939600
8969.13, 0.0928330
8984.67, 0.0926080
9000.27, 0.0934340
9015.92, 0.0952370
9031.63, 0.0982410
9047.39, 0.102597
9063.21, 0.108681
9079.08, 0.116567
9095.01, 0.126707
9111.0, 0.139400
9127.04, 0.154572
9143.13, 0.172072
9159.28, 0.191675
9175.49, 0.214282
9191.76, 0.240345
9208.09, 0.269937
9224.47, 0.300130
9240.92, 0.325967
9257.42, 0.343918
9273.98, 0.354508
9290.6, 0.359916
9307.28, 0.362244
9324.02, 0.361944
9340.82, 0.358714
9357.68, 0.352105
9374.6, 0.342266
9391.58, 0.327845
9408.62, 0.308092
9425.73, 0.284057
9442.9, 0.258446
9460.13, 0.235913
9477.42, 0.219765
9494.78, 0.208649
9512.2, 0.199636
9529.69, 0.189647
9547.24, 0.175151
9564.86, 0.153295
9582.54, 0.125054
9600.28, 0.100269
9618.1, 0.0946360
9635.97, 0.116417
9653.92, 0.150290
9671.93, 0.175452
9690.01, 0.189046
9708.16, 0.196181
9726.37, 0.200012
9744.65, 0.200838
9763.0, 0.199636
9781.43, 0.197007
9799.92, 0.193703
9818.48, 0.190548
9837.1, 0.192351
9855.8, 0.201439
9874.58, 0.211804
9893.42, 0.216986
9912.34, 0.215935
9931.33, 0.211653
9950.39, 0.210602
9969.52, 0.217211
9988.74, 0.229754
10008.0, 0.243574
10027.4, 0.255216
10046.8, 0.264529
10066.3, 0.272040
10085.9, 0.276622
10105.6, 0.278499
10125.3, 0.277598
10145.1, 0.274218
10165.0, 0.270688
10185.0, 0.273392
10205.0, 0.292319
10225.2, 0.325366
10245.4, 0.354358
10265.7, 0.370431
10286.0, 0.378017
10306.5, 0.381847
10327.0, 0.381998
10347.6, 0.376815
10368.3, 0.366450
10389.1, 0.355560
10409.9, 0.346397
10430.9, 0.338736
10451.9, 0.331976
10473.0, 0.325592
10494.2, 0.319208
10515.5, 0.312899
10536.9, 0.305613
10558.4, 0.297501
10579.9, 0.288639
10601.5, 0.279100
10623.3, 0.268810
10645.1, 0.257995
10667.0, 0.246879
10689.0, 0.236214
10711.1, 0.228102
10733.2, 0.225548
10755.5, 0.228853
10777.9, 0.233059
10800.3, 0.232834
10822.9, 0.228327
10845.5, 0.222018
10868.2, 0.215484
10891.1, 0.209025
10914.0, 0.202866
10937.0, 0.197458
10960.2, 0.193477
10983.4, 0.193703
11006.7, 0.201213
11030.1, 0.212630
11053.6, 0.219164
11077.3, 0.216385
11101.0, 0.206020
11124.8, 0.192426
11148.7, 0.179658
11172.7, 0.169368
11196.9, 0.161782
11221.1, 0.155924
11245.4, 0.151567
11269.9, 0.148187
11294.4, 0.145408
11319.1, 0.142705
11343.9, 0.140226
11368.8, 0.138048
11393.7, 0.136471
11418.8, 0.135494
11444.0, 0.135269
11469.4, 0.135795
11494.8, 0.136921
11520.3, 0.137447
11546.0, 0.137973
11571.8, 0.138423
11597.7, 0.138724
11623.7, 0.139099
11649.8, 0.139926
11676.0, 0.141127
11702.4, 0.142254
11728.9, 0.142930
11755.5, 0.143531
11782.2, 0.144057
11809.0, 0.144883
11836.0, 0.145559
11863.0, 0.146160
11890.3, 0.146460
11917.6, 0.146310
11945.0, 0.145784
11972.6, 0.145408
12000.4, 0.146235
12028.2, 0.147587
12056.2, 0.148788
12084.3, 0.149690
12112.5, 0.150366
12140.9, 0.151267
12169.4, 0.152318
12198.0, 0.153220
12226.8, 0.154046
12255.7, 0.154947
12284.7, 0.155698
12313.9, 0.156449
12343.2, 0.157501
12372.7, 0.158477
12402.3, 0.159378
12432.0, 0.160205
12461.9, 0.160655
12491.9, 0.161406
12522.1, 0.162308
12552.4, 0.162984
12582.9, 0.162984
12613.5, 0.162758
12644.3, 0.162308
12675.2, 0.161707
12706.3, 0.161331
12737.5, 0.162082
12768.9, 0.163660
12800.4, 0.165012
12832.1, 0.165988
12863.9, 0.166589
12895.9, 0.166814
12928.1, 0.166739
12960.4, 0.166363
12992.9, 0.165537
13025.5, 0.164336
13058.3, 0.162909
13091.3, 0.161481
13124.4, 0.160205
13157.8, 0.158928
13191.2, 0.157801
13224.9, 0.156825
13258.7, 0.155999
13292.7, 0.155022
13326.9, 0.153821
13361.2, 0.152844
13395.7, 0.151868
13430.4, 0.150140
13465.3, 0.148338
13500.4, 0.146535
13535.7, 0.144432
13571.1, 0.141953
13606.7, 0.139850
13642.5, 0.137522
13678.5, 0.134593
13714.7, 0.131138
13751.1, 0.127533
13787.6, 0.124228
13824.4, 0.121299
13861.4, 0.117994
13898.5, 0.114765
13935.9, 0.111234
13973.5, 0.107028
14011.2, 0.102522
14049.2, 0.0988420
14087.4, 0.0953870
14125.8, 0.0905050
14164.3, 0.0845710
14203.2, 0.0789380
14242.2, 0.0723290
14281.4, 0.0645930
14320.9, 0.0565560
14360.5, 0.0490450
14400.4, 0.0437130
14440.5, 0.0416100
14480.9, 0.0424360
14521.4, 0.0460410
14562.2, 0.0530260
14603.3, 0.0624900
14644.5, 0.0693990
14686.0, 0.0706010
14727.7, 0.0675220
14769.7, 0.0635410
14811.9, 0.0601610
14854.3, 0.0573820
14897.0, 0.0546780
14939.9, 0.0518990
14983.1, 0.0491200
15026.5, 0.0462660
15070.2, 0.0431870
15114.2, 0.0402580
15158.3, 0.0378540
15202.8, 0.0375540
15247.5, 0.0424360
15292.5, 0.0559550
15337.7, 0.0778120
15383.2, 0.100419
15429.0, 0.115741
15475.1, 0.123026
15521.4, 0.123477
15568.0, 0.117393
15614.9, 0.107855
15662.1, 0.0983910
15709.6, 0.0907300
15757.3, 0.0857730
15805.4, 0.0819420
15853.7, 0.0788630
15902.3, 0.0769850
15951.2, 0.0751080
16000.5, 0.0731550
16050.0, 0.0718780
16099.8, 0.0710520
16150.0, 0.0697000
16200.5, 0.0678220
16251.3, 0.0660200
16302.4, 0.0639920
16353.8, 0.0621890
16405.5, 0.0603110
16457.6, 0.0583590
16510.0, 0.0561810
16562.8, 0.0542280
16615.9, 0.0525750
16669.3, 0.0510730
16723.1, 0.0497210
16777.2, 0.0490450
16831.7, 0.0484440
16886.5, 0.0479940
16941.7, 0.0482940
16997.2, 0.0492710
17053.1, 0.0511480
17109.4, 0.0548290
17166.1, 0.0613630
17223.1, 0.0711270
17280.5, 0.0835950
17338.3, 0.0977900
17396.5, 0.111610
17455.1, 0.124378
17514.0, 0.136095
17573.4, 0.148488
17633.2, 0.162758
17693.4, 0.179057
17754.0, 0.196331
17815.0, 0.213456
17876.4, 0.228553
17938.3, 0.242448
18000.5, 0.255967
18063.3, 0.267759
18126.4, 0.277823
18190.0, 0.286761
18254.1, 0.293295
18318.6, 0.298478
18383.5, 0.302909
18449.0, 0.306439
18514.9, 0.308317
18581.2, 0.308843
18648.0, 0.309594
18715.4, 0.309744
18783.2, 0.307641
18851.5, 0.305388
18920.3, 0.302233
18989.6, 0.297276
19059.4, 0.290892
19129.7, 0.283682
19200.6, 0.275570
19272.0, 0.265205
19343.9, 0.251986
19416.3, 0.236589
19489.3, 0.218563
19562.8, 0.199636
19637.0, 0.181836
19711.6, 0.170269
19786.8, 0.169443
19862.6, 0.180784
19939.0, 0.198284
20016.0, 0.217737
20093.6, 0.235763
20171.8, 0.250409
20250.6, 0.259422
20330.0, 0.261600
20410.0, 0.261600
20490.7, 0.263778
20572.0, 0.266707
20654.0, 0.269486
20736.6, 0.270012
20819.9, 0.267158
20903.8, 0.260999
20988.5, 0.252963
21073.8, 0.241471
21159.8, 0.224422
21246.5, 0.202490
21334.0, 0.183263
21422.1, 0.178982
21511.0, 0.195881
21600.7, 0.222018
21691.0, 0.243499
21782.1, 0.253864
21874.0, 0.254915
21966.7, 0.248156
22060.2, 0.236063
22154.5, 0.225872
22249.6, 0.210941
22345.5, 0.204191
22442.2, 0.202146
22539.8, 0.202351
22638.2, 0.202555
22737.5, 0.199692
22837.7, 0.192669
22938.7, 0.182647
23040.7, 0.177602
23143.5, 0.175693
23247.3, 0.170716
23352.1, 0.165058
23457.7, 0.158172
23564.4, 0.152240
23672.0, 0.146309
23780.5, 0.134446
23890.1, 0.124015
24000.7, 0.115288
24112.3, 0.107379
24225.0, 0.103016
24338.7, 0.100357
24453.5, 0.100903
24569.4, 0.103357
24686.4, 0.0983120
24804.5, 0.0919710
24923.8, 0.0889030
25044.2, 0.0959940
25165.8, 0.106084
25288.6, 0.110720
25412.5, 0.121629
25537.7, 0.136150
25664.1, 0.149240
25791.8, 0.159944
25920.8, 0.171193
26051.1, 0.190215
26182.6, 0.211486
26315.5, 0.229076
26449.8, 0.244143
26585.4, 0.263983
26722.5, 0.279868
26860.9, 0.294186
27000.8, 0.305094
27142.1, 0.308162
27285.0, 0.309389
27429.4, 0.310344
27575.3, 0.303185
27722.7, 0.296231
27871.8, 0.295549
28022.4, 0.291322
28174.7, 0.284845
28328.7, 0.275028
28484.4, 0.265415
28641.7, 0.258733
28800.9, 0.253552
28961.8, 0.244416
29124.5, 0.237053
29289.0, 0.230167
29455.4, 0.217554
29623.8, 0.202010
29794.0, 0.182579
29966.3, 0.162126
30140.5, 0.150536
30316.7, 0.158308
30495.1, 0.173443
30675.5, 0.184215
30858.1, 0.185988
31042.8, 0.179170
31229.8, 0.163626
31419.1, 0.148081
31610.7, 0.142082
31804.6, 0.147331
32000.9, 0.161444
32199.7, 0.169966
32400.9, 0.170034
32604.8, 0.169353
32811.1, 0.171807
33020.1, 0.180125
33231.8, 0.186942
33446.2, 0.190010
33663.4, 0.188442
33883.4, 0.189329
34106.3, 0.194715
34332.1, 0.198055
34561.0, 0.197646
34792.9, 0.195669
35028.0, 0.189056
35266.3, 0.181011
35507.8, 0.173239
35752.7, 0.170171
36001.0, 0.169353
36252.8, 0.165671
36508.1, 0.158717
36767.0, 0.157490
37029.7, 0.170853
37296.1, 0.195396
37566.3, 0.209986
37840.5, 0.214623
38118.8, 0.211964
38401.2, 0.204464
38687.8, 0.195942
38978.6, 0.188306
39273.9, 0.176102
39573.7, 0.163558
39878.1, 0.153808
40187.3, 0.138741
40501.2, 0.133900
40820.0, 0.140377
41144.0, 0.143786
41473.2, 0.150127
41807.6, 0.171739
42147.5, 0.199555
42493.0, 0.224576
42844.2, 0.237257
43201.2, 0.237666
43564.3, 0.239916
43933.5, 0.233849
44309.0, 0.220486
44691.0, 0.209577
45079.6, 0.198669
45475.0, 0.185443
45877.5, 0.178693
46287.1, 0.179102
46704.2, 0.185102
47128.7, 0.200578
47561.1, 0.217895
48001.5, 0.226485
48450.1, 0.228190
48907.2, 0.230712
49373.0, 0.239371
49847.7, 0.243802
50331.5, 0.248643
50825.0, 0.253756
51328.2, 0.253620
51841.5, 0.240666
52365.1, 0.227235
52899.4, 0.225599
53444.8, 0.223690
54001.5, 0.225599
54570.1, 0.246461
55150.6, 0.256756
55743.6, 0.260370
56349.5, 0.269914
56968.7, 0.274482
57601.7, 0.280891
58248.9, 0.280346
58910.9, 0.265006
59588.1, 0.251847
60281.0, 0.244961
60990.2, 0.246120
61716.3, 0.244825
62459.8, 0.226894
63221.6, 0.197101
64002.1, 0.189806
64802.1, 0.192260
65622.1, 0.194647
66463.4, 0.208896
67326.6, 0.247143
68212.4, 0.239303
69121.9, 0.215032
70056.0, 0.190624
71015.7, 0.181420
72002.0, 0.219122
73016.3, 0.252802
74059.4, 0.258665
75132.7, 0.265960
76237.6, 0.276187
77375.5, 0.294595
78547.9, 0.308980
79756.3, 0.329161
81002.5, 0.350500
82288.5, 0.353227
83615.7, 0.352750
84986.5, 0.378112
86402.9, 0.415882
87867.4, 0.546783
89382.4, 0.515353
90950.5, 0.309525
92574.6, 0.305094
94257.2, 0.403133
96002.7, 0.473151
97814.1, 0.492991
99695.1, 0.537170
101650.0, 0.576645
103683.0, 0.607597
105799.0, 0.607734
108003.0, 0.600848
110301.0, 0.614960
112699.0, 0.618028
115204.0, 0.609302
117822.0, 0.660571
120562.0, 0.714977
123433.0, 0.755406
126443.0, 0.767882
129604.0, 0.743066
132926.0, 0.749815
136424.0, 0.802312
140111.0, 0.822970
144003.0, 0.831356
148118.0, 0.921963
