Database of Origin, USGS Spectral Database
Sample Description, See USGS database for additional info
Date Added,2017-07-03 06:06:54.193413

Data ID,USGS_oli06          
Sample ID, olivine_gds70.16357
Mineral Name, olivine
Material Class,Nesosilicate

Wavelength
1280.99, 0.276716
1281.3, 0.276872
1281.62, 0.277006
1281.94, 0.277180
1282.25, 0.277274
1282.57, 0.277476
1282.89, 0.277746
1283.21, 0.277890
1283.52, 0.277985
1283.84, 0.278141
1284.16, 0.278344
1284.48, 0.278494
1284.8, 0.278567
1285.11, 0.278752
1285.43, 0.278937
1285.75, 0.279121
1286.07, 0.279275
1286.39, 0.279347
1286.71, 0.279442
1287.03, 0.279648
1287.35, 0.279823
1287.67, 0.279972
1287.99, 0.280093
1288.31, 0.280246
1288.63, 0.280459
1288.95, 0.280697
1289.27, 0.280868
1289.59, 0.281013
1289.91, 0.281175
1290.23, 0.281301
1290.55, 0.281392
1290.88, 0.281512
1291.2, 0.281679
1291.52, 0.281861
1291.84, 0.282013
1292.16, 0.282151
1292.48, 0.282341
1292.81, 0.282516
1293.13, 0.282722
1293.45, 0.282897
1293.77, 0.283034
1294.1, 0.283183
1294.42, 0.283343
1294.74, 0.283478
1295.07, 0.283666
1295.39, 0.283858
1295.71, 0.284010
1296.04, 0.284153
1296.36, 0.284315
1296.69, 0.284467
1297.01, 0.284508
1297.34, 0.284645
1297.66, 0.284926
1297.98, 0.285149
1298.31, 0.285287
1298.64, 0.285415
1298.96, 0.285641
1299.29, 0.285863
1299.61, 0.286002
1299.94, 0.286181
1300.26, 0.286348
1300.59, 0.286544
1300.92, 0.286724
1301.24, 0.286874
1301.57, 0.287018
1301.9, 0.287189
1302.22, 0.287344
1302.55, 0.287479
1302.88, 0.287645
1303.21, 0.287892
1303.53, 0.288108
1303.86, 0.288351
1304.19, 0.288512
1304.52, 0.288585
1304.85, 0.288757
1305.17, 0.289032
1305.5, 0.289265
1305.83, 0.289433
1306.16, 0.289597
1306.49, 0.289698
1306.82, 0.289862
1307.15, 0.290113
1307.48, 0.290267
1307.81, 0.290418
1308.14, 0.290590
1308.47, 0.290761
1308.8, 0.290938
1309.13, 0.291130
1309.46, 0.291377
1309.79, 0.291588
1310.12, 0.291700
1310.45, 0.291897
1310.79, 0.292138
1311.12, 0.292310
1311.45, 0.292488
1311.78, 0.292684
1312.11, 0.292860
1312.44, 0.293052
1312.78, 0.293159
1313.11, 0.293211
1313.44, 0.293452
1313.77, 0.293776
1314.11, 0.294012
1314.44, 0.294211
1314.77, 0.294330
1315.11, 0.294536
1315.44, 0.294757
1315.78, 0.294992
1316.11, 0.295175
1316.44, 0.295316
1316.78, 0.295540
1317.11, 0.295747
1317.45, 0.295895
1317.78, 0.296092
1318.12, 0.296321
1318.45, 0.296499
1318.79, 0.296688
1319.12, 0.296940
1319.46, 0.297152
1319.8, 0.297329
1320.13, 0.297526
1320.47, 0.297738
1320.8, 0.297963
1321.14, 0.298145
1321.48, 0.298377
1321.81, 0.298568
1322.15, 0.298664
1322.49, 0.298819
1322.83, 0.299015
1323.16, 0.299227
1323.5, 0.299459
1323.84, 0.299671
1324.18, 0.299913
1324.52, 0.300166
1324.85, 0.300412
1325.19, 0.300621
1325.53, 0.300780
1325.87, 0.300977
1326.21, 0.301189
1326.55, 0.301382
1326.89, 0.301567
1327.23, 0.301800
1327.57, 0.302083
1327.91, 0.302327
1328.25, 0.302496
1328.59, 0.302630
1328.93, 0.302847
1329.27, 0.303122
1329.61, 0.303352
1329.95, 0.303553
1330.29, 0.303784
1330.64, 0.303993
1330.98, 0.304134
1331.32, 0.304378
1331.66, 0.304642
1332.0, 0.304813
1332.34, 0.304926
1332.69, 0.305157
1333.03, 0.305452
1333.37, 0.305571
1333.72, 0.305808
1334.06, 0.306147
1334.4, 0.306382
1334.75, 0.306576
1335.09, 0.306727
1335.43, 0.306931
1335.78, 0.307233
1336.12, 0.307502
1336.47, 0.307719
1336.81, 0.307971
1337.16, 0.308254
1337.5, 0.308386
1337.85, 0.308524
1338.19, 0.308779
1338.54, 0.309014
1338.88, 0.309268
1339.23, 0.309585
1339.58, 0.309830
1339.92, 0.309991
1340.27, 0.310164
1340.61, 0.310435
1340.96, 0.310696
1341.31, 0.310916
1341.66, 0.311138
1342.0, 0.311316
1342.35, 0.311533
1342.7, 0.311749
1343.05, 0.312004
1343.39, 0.312316
1343.74, 0.312550
1344.09, 0.312745
1344.44, 0.312984
1344.79, 0.313192
1345.14, 0.313394
1345.48, 0.313621
1345.83, 0.313875
1346.18, 0.314174
1346.53, 0.314454
1346.88, 0.314604
1347.23, 0.314682
1347.58, 0.314923
1347.93, 0.315289
1348.28, 0.315589
1348.64, 0.315808
1348.99, 0.316070
1349.34, 0.316295
1349.69, 0.316533
1350.04, 0.316762
1350.39, 0.316940
1350.74, 0.317162
1351.1, 0.317457
1351.45, 0.317706
1351.8, 0.317901
1352.15, 0.318169
1352.51, 0.318420
1352.86, 0.318646
1353.21, 0.318907
1353.56, 0.319106
1353.92, 0.319259
1354.27, 0.319433
1354.63, 0.319684
1354.98, 0.320044
1355.33, 0.320359
1355.69, 0.320520
1356.04, 0.320747
1356.4, 0.321007
1356.75, 0.321222
1357.11, 0.321457
1357.46, 0.321776
1357.82, 0.322071
1358.18, 0.322304
1358.53, 0.322558
1358.89, 0.322801
1359.24, 0.323029
1359.6, 0.323351
1359.96, 0.323649
1360.31, 0.323885
1360.67, 0.324120
1361.03, 0.324391
1361.39, 0.324681
1361.74, 0.324854
1362.1, 0.325062
1362.46, 0.325370
1362.82, 0.325755
1363.18, 0.326049
1363.53, 0.326328
1363.89, 0.326567
1364.25, 0.326762
1364.61, 0.326970
1364.97, 0.327292
1365.33, 0.327590
1365.69, 0.327849
1366.05, 0.328135
1366.41, 0.328447
1366.77, 0.328693
1367.13, 0.328917
1367.49, 0.329209
1367.85, 0.329446
1368.21, 0.329688
1368.57, 0.329934
1368.93, 0.330317
1369.3, 0.330739
1369.66, 0.330931
1370.02, 0.331114
1370.38, 0.331414
1370.74, 0.331636
1371.11, 0.331968
1371.47, 0.332391
1371.83, 0.332671
1372.19, 0.332898
1372.56, 0.333147
1372.92, 0.333447
1373.29, 0.333721
1373.65, 0.334027
1374.01, 0.334313
1374.38, 0.334576
1374.74, 0.334852
1375.11, 0.335123
1375.47, 0.335404
1375.84, 0.335668
1376.2, 0.335902
1376.57, 0.336207
1376.93, 0.336513
1377.3, 0.336825
1377.67, 0.337128
1378.03, 0.337360
1378.4, 0.337606
1378.76, 0.337926
1379.13, 0.338268
1379.5, 0.338570
1379.87, 0.338881
1380.23, 0.339053
1380.6, 0.339199
1380.97, 0.339586
1381.34, 0.340014
1381.7, 0.340347
1382.07, 0.340567
1382.44, 0.340669
1382.81, 0.340930
1383.18, 0.341380
1383.55, 0.341673
1383.92, 0.341940
1384.29, 0.342359
1384.66, 0.342660
1385.03, 0.342882
1385.4, 0.343200
1385.77, 0.343569
1386.14, 0.343831
1386.51, 0.344100
1386.88, 0.344463
1387.25, 0.344759
1387.62, 0.344961
1387.99, 0.345231
1388.36, 0.345629
1388.74, 0.345988
1389.11, 0.346291
1389.48, 0.346535
1389.85, 0.346803
1390.23, 0.347131
1390.6, 0.347401
1390.97, 0.347714
1391.35, 0.348044
1391.72, 0.348293
1392.09, 0.348486
1392.47, 0.348723
1392.84, 0.349134
1393.21, 0.349516
1393.59, 0.349841
1393.96, 0.350182
1394.34, 0.350499
1394.71, 0.350745
1395.09, 0.350922
1395.46, 0.351211
1395.84, 0.351568
1396.22, 0.351833
1396.59, 0.352163
1396.97, 0.352615
1397.35, 0.352946
1397.72, 0.353204
1398.1, 0.353514
1398.48, 0.353849
1398.85, 0.354121
1399.23, 0.354350
1399.61, 0.354664
1399.99, 0.355031
1400.37, 0.355311
1400.74, 0.355564
1401.12, 0.355900
1401.5, 0.356265
1401.88, 0.356573
1402.26, 0.356917
1402.64, 0.357247
1403.02, 0.357540
1403.4, 0.357844
1403.78, 0.358157
1404.16, 0.358491
1404.54, 0.358800
1404.92, 0.359013
1405.3, 0.359353
1405.68, 0.359747
1406.06, 0.360086
1406.44, 0.360383
1406.83, 0.360647
1407.21, 0.360995
1407.59, 0.361368
1407.97, 0.361684
1408.35, 0.361989
1408.74, 0.362294
1409.12, 0.362563
1409.5, 0.362847
1409.89, 0.363187
1410.27, 0.363593
1410.65, 0.363914
1411.04, 0.364152
1411.42, 0.364496
1411.81, 0.364868
1412.19, 0.365150
1412.58, 0.365445
1412.96, 0.365837
1413.35, 0.366168
1413.73, 0.366509
1414.12, 0.366817
1414.5, 0.367109
1414.89, 0.367478
1415.28, 0.367817
1415.66, 0.368069
1416.05, 0.368394
1416.44, 0.368795
1416.82, 0.369098
1417.21, 0.369346
1417.6, 0.369684
1417.98, 0.370065
1418.37, 0.370401
1418.76, 0.370670
1419.15, 0.370999
1419.54, 0.371373
1419.93, 0.371687
1420.32, 0.371976
1420.71, 0.372281
1421.09, 0.372659
1421.48, 0.372990
1421.88, 0.373275
1422.27, 0.373621
1422.66, 0.373948
1423.05, 0.374281
1423.44, 0.374624
1423.83, 0.374918
1424.22, 0.375236
1424.61, 0.375611
1425.0, 0.375966
1425.39, 0.376276
1425.78, 0.376599
1426.18, 0.376968
1426.57, 0.377279
1426.96, 0.377557
1427.36, 0.377919
1427.75, 0.378278
1428.14, 0.378590
1428.54, 0.378947
1428.93, 0.379292
1429.32, 0.379624
1429.72, 0.379929
1430.11, 0.380239
1430.51, 0.380626
1430.9, 0.380982
1431.3, 0.381262
1431.69, 0.381543
1432.09, 0.381920
1432.48, 0.382272
1432.88, 0.382578
1433.28, 0.382906
1433.67, 0.383235
1434.07, 0.383531
1434.46, 0.383881
1434.86, 0.384239
1435.26, 0.384592
1435.66, 0.384956
1436.05, 0.385286
1436.45, 0.385560
1436.85, 0.385809
1437.25, 0.386130
1437.65, 0.386522
1438.05, 0.386870
1438.44, 0.387182
1438.84, 0.387544
1439.24, 0.387901
1439.64, 0.388194
1440.04, 0.388481
1440.44, 0.388858
1440.84, 0.389249
1441.24, 0.389589
1441.65, 0.389939
1442.05, 0.390279
1442.45, 0.390593
1442.85, 0.390959
1443.25, 0.391308
1443.65, 0.391606
1444.05, 0.391926
1444.46, 0.392261
1444.86, 0.392594
1445.26, 0.392927
1445.67, 0.393222
1446.07, 0.393545
1446.47, 0.393941
1446.88, 0.394322
1447.28, 0.394638
1447.68, 0.394890
1448.09, 0.395174
1448.49, 0.395554
1448.9, 0.395936
1449.3, 0.396274
1449.71, 0.396580
1450.11, 0.396912
1450.52, 0.397253
1450.93, 0.397598
1451.33, 0.397967
1451.74, 0.398297
1452.14, 0.398603
1452.55, 0.398939
1452.96, 0.399248
1453.36, 0.399590
1453.77, 0.399980
1454.18, 0.400358
1454.59, 0.400693
1455.0, 0.400953
1455.41, 0.401264
1455.81, 0.401612
1456.22, 0.401915
1456.63, 0.402249
1457.04, 0.402643
1457.45, 0.403024
1457.86, 0.403322
1458.27, 0.403635
1458.68, 0.404001
1459.09, 0.404343
1459.5, 0.404681
1459.91, 0.404975
1460.32, 0.405298
1460.74, 0.405687
1461.15, 0.406006
1461.56, 0.406243
1461.97, 0.406570
1462.39, 0.406929
1462.8, 0.407284
1463.21, 0.407691
1463.62, 0.408041
1464.04, 0.408329
1464.45, 0.408636
1464.86, 0.408988
1465.28, 0.409350
1465.69, 0.409641
1466.11, 0.409939
1466.52, 0.410279
1466.94, 0.410635
1467.35, 0.411011
1467.77, 0.411367
1468.18, 0.411674
1468.6, 0.411957
1469.02, 0.412292
1469.43, 0.412639
1469.85, 0.412930
1470.27, 0.413220
1470.68, 0.413540
1471.1, 0.413880
1471.52, 0.414275
1471.94, 0.414647
1472.35, 0.414957
1472.77, 0.415296
1473.19, 0.415651
1473.61, 0.415964
1474.03, 0.416278
1474.45, 0.416629
1474.87, 0.416935
1475.29, 0.417241
1475.71, 0.417587
1476.13, 0.417925
1476.55, 0.418224
1476.97, 0.418549
1477.39, 0.418889
1477.81, 0.419226
1478.23, 0.419577
1478.65, 0.419898
1479.07, 0.420204
1479.5, 0.420564
1479.92, 0.420906
1480.34, 0.421202
1480.76, 0.421492
1481.19, 0.421807
1481.61, 0.422117
1482.03, 0.422432
1482.46, 0.422754
1482.88, 0.423106
1483.31, 0.423482
1483.73, 0.423810
1484.16, 0.424108
1484.58, 0.424451
1485.01, 0.424774
1485.43, 0.425069
1485.86, 0.425395
1486.28, 0.425726
1486.71, 0.426035
1487.14, 0.426355
1487.56, 0.426709
1487.99, 0.427077
1488.42, 0.427377
1488.84, 0.427643
1489.27, 0.427943
1489.7, 0.428263
1490.13, 0.428601
1490.56, 0.428945
1490.98, 0.429270
1491.41, 0.429607
1491.84, 0.429885
1492.27, 0.430163
1492.7, 0.430535
1493.13, 0.430895
1493.56, 0.431195
1493.99, 0.431484
1494.42, 0.431830
1494.85, 0.432153
1495.29, 0.432430
1495.72, 0.432718
1496.15, 0.433013
1496.58, 0.433336
1497.01, 0.433639
1497.44, 0.433922
1497.88, 0.434254
1498.31, 0.434668
1498.74, 0.435014
1499.18, 0.435270
1499.61, 0.435554
1500.04, 0.435923
1500.48, 0.436288
1500.91, 0.436551
1501.35, 0.436831
1501.78, 0.437174
1502.22, 0.437469
1502.65, 0.437724
1503.09, 0.438000
1503.53, 0.438310
1503.96, 0.438679
1504.4, 0.439034
1504.83, 0.439340
1505.27, 0.439608
1505.71, 0.439871
1506.15, 0.440219
1506.58, 0.440584
1507.02, 0.440878
1507.46, 0.441146
1507.9, 0.441440
1508.34, 0.441771
1508.78, 0.442091
1509.21, 0.442389
1509.66, 0.442647
1510.09, 0.442920
1510.53, 0.443256
1510.97, 0.443598
1511.42, 0.443901
1511.86, 0.444201
1512.3, 0.444534
1512.74, 0.444879
1513.18, 0.445192
1513.62, 0.445465
1514.06, 0.445750
1514.51, 0.446043
1514.95, 0.446362
1515.39, 0.446686
1515.83, 0.446962
1516.28, 0.447253
1516.72, 0.447546
1517.16, 0.447794
1517.61, 0.448070
1518.05, 0.448405
1518.5, 0.448723
1518.94, 0.448983
1519.39, 0.449297
1519.83, 0.449641
1520.28, 0.449991
1520.73, 0.450313
1521.17, 0.450572
1521.62, 0.450819
1522.07, 0.451090
1522.51, 0.451349
1522.96, 0.451620
1523.41, 0.451950
1523.85, 0.452294
1524.3, 0.452593
1524.75, 0.452894
1525.2, 0.453186
1525.65, 0.453433
1526.1, 0.453750
1526.55, 0.454054
1527.0, 0.454276
1527.45, 0.454578
1527.9, 0.454898
1528.35, 0.455161
1528.8, 0.455439
1529.25, 0.455727
1529.7, 0.455989
1530.15, 0.456231
1530.6, 0.456538
1531.05, 0.456883
1531.51, 0.457191
1531.96, 0.457454
1532.41, 0.457714
1532.87, 0.458037
1533.32, 0.458318
1533.77, 0.458563
1534.23, 0.458859
1534.68, 0.459156
1535.14, 0.459404
1535.59, 0.459652
1536.05, 0.459942
1536.5, 0.460232
1536.96, 0.460495
1537.41, 0.460778
1537.87, 0.461054
1538.32, 0.461341
1538.78, 0.461626
1539.24, 0.461909
1539.7, 0.462180
1540.15, 0.462438
1540.61, 0.462680
1541.07, 0.462964
1541.53, 0.463265
1541.98, 0.463488
1542.44, 0.463698
1542.9, 0.463978
1543.36, 0.464296
1543.82, 0.464583
1544.28, 0.464852
1544.74, 0.465151
1545.2, 0.465405
1545.66, 0.465623
1546.12, 0.465893
1546.59, 0.466201
1547.05, 0.466463
1547.51, 0.466706
1547.97, 0.466992
1548.43, 0.467269
1548.9, 0.467490
1549.36, 0.467759
1549.82, 0.468059
1550.29, 0.468309
1550.75, 0.468561
1551.21, 0.468812
1551.68, 0.469085
1552.14, 0.469360
1552.61, 0.469617
1553.07, 0.469831
1553.54, 0.470060
1554.0, 0.470362
1554.47, 0.470626
1554.93, 0.470870
1555.4, 0.471107
1555.87, 0.471350
1556.34, 0.471581
1556.8, 0.471842
1557.27, 0.472109
1557.74, 0.472338
1558.21, 0.472583
1558.68, 0.472864
1559.14, 0.473141
1559.61, 0.473405
1560.08, 0.473663
1560.55, 0.473931
1561.02, 0.474178
1561.49, 0.474365
1561.96, 0.474576
1562.43, 0.474867
1562.9, 0.475121
1563.38, 0.475337
1563.85, 0.475546
1564.32, 0.475785
1564.79, 0.476054
1565.26, 0.476297
1565.74, 0.476564
1566.21, 0.476828
1566.68, 0.477041
1567.16, 0.477270
1567.63, 0.477533
1568.1, 0.477774
1568.58, 0.477992
1569.05, 0.478187
1569.53, 0.478445
1570.0, 0.478713
1570.48, 0.478915
1570.96, 0.479082
1571.43, 0.479299
1571.91, 0.479560
1572.39, 0.479829
1572.86, 0.480060
1573.34, 0.480263
1573.82, 0.480521
1574.3, 0.480718
1574.77, 0.480902
1575.25, 0.481158
1575.73, 0.481388
1576.21, 0.481622
1576.69, 0.481873
1577.17, 0.482108
1577.65, 0.482298
1578.13, 0.482481
1578.61, 0.482710
1579.09, 0.482951
1579.57, 0.483199
1580.05, 0.483430
1580.54, 0.483623
1581.02, 0.483835
1581.5, 0.484066
1581.98, 0.484278
1582.47, 0.484468
1582.95, 0.484653
1583.43, 0.484898
1583.92, 0.485162
1584.4, 0.485380
1584.88, 0.485608
1585.37, 0.485821
1585.85, 0.486040
1586.34, 0.486236
1586.82, 0.486447
1587.31, 0.486670
1587.8, 0.486863
1588.28, 0.487063
1588.77, 0.487279
1589.26, 0.487516
1589.74, 0.487728
1590.23, 0.487910
1590.72, 0.488138
1591.21, 0.488372
1591.7, 0.488519
1592.19, 0.488694
1592.67, 0.488924
1593.16, 0.489138
1593.65, 0.489352
1594.14, 0.489579
1594.63, 0.489753
1595.12, 0.489928
1595.61, 0.490115
1596.11, 0.490342
1596.6, 0.490602
1597.09, 0.490778
1597.58, 0.490933
1598.08, 0.491120
1598.57, 0.491299
1599.06, 0.491514
1599.55, 0.491730
1600.05, 0.491902
1600.54, 0.492077
1601.04, 0.492315
1601.53, 0.492543
1602.03, 0.492714
1602.52, 0.492878
1603.02, 0.493072
1603.51, 0.493283
1604.01, 0.493495
1604.5, 0.493646
1605.0, 0.493781
1605.5, 0.493960
1606.0, 0.494161
1606.49, 0.494397
1606.99, 0.494595
1607.49, 0.494748
1607.99, 0.494919
1608.49, 0.495129
1608.99, 0.495310
1609.49, 0.495470
1609.99, 0.495668
1610.49, 0.495869
1610.99, 0.496056
1611.49, 0.496250
1611.99, 0.496418
1612.49, 0.496553
1612.99, 0.496712
1613.49, 0.496925
1614.0, 0.497106
1614.5, 0.497250
1615.0, 0.497436
1615.51, 0.497652
1616.01, 0.497828
1616.51, 0.498017
1617.02, 0.498220
1617.52, 0.498383
1618.03, 0.498502
1618.53, 0.498637
1619.04, 0.498860
1619.54, 0.499061
1620.05, 0.499197
1620.55, 0.499381
1621.06, 0.499579
1621.57, 0.499743
1622.08, 0.499881
1622.58, 0.500035
1623.09, 0.500211
1623.6, 0.500383
1624.11, 0.500568
1624.62, 0.500730
1625.13, 0.500874
1625.64, 0.501014
1626.15, 0.501146
1626.66, 0.501314
1627.17, 0.501502
1627.68, 0.501651
1628.19, 0.501786
1628.7, 0.501949
1629.21, 0.502105
1629.72, 0.502267
1630.24, 0.502452
1630.75, 0.502592
1631.26, 0.502729
1631.78, 0.502908
1632.29, 0.503059
1632.8, 0.503211
1633.32, 0.503368
1633.83, 0.503478
1634.35, 0.503617
1634.86, 0.503817
1635.38, 0.503979
1635.9, 0.504086
1636.41, 0.504231
1636.93, 0.504379
1637.45, 0.504537
1637.96, 0.504707
1638.48, 0.504840
1639.0, 0.504969
1639.52, 0.505116
1640.04, 0.505269
1640.56, 0.505439
1641.08, 0.505584
1641.59, 0.505689
1642.11, 0.505793
1642.63, 0.505956
1643.16, 0.506105
1643.68, 0.506223
1644.2, 0.506383
1644.72, 0.506548
1645.24, 0.506681
1645.76, 0.506779
1646.29, 0.506882
1646.81, 0.507035
1647.33, 0.507190
1647.86, 0.507310
1648.38, 0.507394
1648.9, 0.507513
1649.43, 0.507704
1649.95, 0.507829
1650.48, 0.507912
1651.0, 0.508054
1651.53, 0.508188
1652.06, 0.508318
1652.58, 0.508483
1653.11, 0.508647
1653.64, 0.508767
1654.17, 0.508850
1654.69, 0.508934
1655.22, 0.509041
1655.75, 0.509158
1656.28, 0.509286
1656.81, 0.509413
1657.34, 0.509509
1657.87, 0.509621
1658.4, 0.509786
1658.93, 0.509927
1659.46, 0.510020
1659.99, 0.510118
1660.52, 0.510211
1661.05, 0.510299
1661.59, 0.510426
1662.12, 0.510576
1662.65, 0.510713
1663.19, 0.510822
1663.72, 0.510924
1664.26, 0.511025
1664.79, 0.511136
1665.32, 0.511276
1665.86, 0.511426
1666.39, 0.511544
1666.93, 0.511625
1667.47, 0.511717
1668.0, 0.511820
1668.54, 0.511910
1669.08, 0.512025
1669.61, 0.512147
1670.15, 0.512265
1670.69, 0.512363
1671.23, 0.512462
1671.77, 0.512587
1672.31, 0.512694
1672.85, 0.512777
1673.39, 0.512855
1673.93, 0.512936
1674.47, 0.513075
1675.01, 0.513210
1675.55, 0.513264
1676.09, 0.513371
1676.64, 0.513543
1677.18, 0.513649
1677.72, 0.513694
1678.26, 0.513735
1678.81, 0.513862
1679.35, 0.514009
1679.89, 0.514109
1680.44, 0.514185
1680.98, 0.514270
1681.53, 0.514374
1682.07, 0.514450
1682.62, 0.514543
1683.17, 0.514674
1683.71, 0.514754
1684.26, 0.514823
1684.81, 0.514901
1685.36, 0.514959
1685.9, 0.515031
1686.45, 0.515145
1687.0, 0.515280
1687.55, 0.515366
1688.1, 0.515391
1688.65, 0.515458
1689.2, 0.515574
1689.75, 0.515657
1690.3, 0.515752
1690.85, 0.515869
1691.41, 0.515936
1691.96, 0.515993
1692.51, 0.516091
1693.06, 0.516203
1693.61, 0.516279
1694.17, 0.516320
1694.72, 0.516386
1695.28, 0.516513
1695.83, 0.516638
1696.39, 0.516741
1696.94, 0.516782
1697.5, 0.516820
1698.05, 0.516917
1698.61, 0.517024
1699.17, 0.517091
1699.72, 0.517195
1700.28, 0.517312
1700.84, 0.517357
1701.4, 0.517408
1701.95, 0.517459
1702.51, 0.517524
1703.07, 0.517615
1703.63, 0.517718
1704.19, 0.517804
1704.75, 0.517872
1705.31, 0.517971
1705.88, 0.518088
1706.44, 0.518143
1707.0, 0.518182
1707.56, 0.518238
1708.12, 0.518265
1708.69, 0.518331
1709.25, 0.518457
1709.81, 0.518553
1710.38, 0.518597
1710.94, 0.518642
1711.51, 0.518705
1712.07, 0.518756
1712.64, 0.518840
1713.2, 0.518934
1713.77, 0.518993
1714.34, 0.519054
1714.9, 0.519156
1715.47, 0.519231
1716.04, 0.519293
1716.61, 0.519374
1717.18, 0.519438
1717.74, 0.519481
1718.31, 0.519516
1718.88, 0.519577
1719.45, 0.519646
1720.02, 0.519732
1720.59, 0.519807
1721.17, 0.519870
1721.74, 0.519891
1722.31, 0.519927
1722.88, 0.520007
1723.45, 0.520050
1724.03, 0.520105
1724.6, 0.520192
1725.18, 0.520222
1725.75, 0.520296
1726.33, 0.520380
1726.9, 0.520410
1727.48, 0.520455
1728.05, 0.520543
1728.63, 0.520592
1729.2, 0.520608
1729.78, 0.520667
1730.36, 0.520727
1730.94, 0.520781
1731.51, 0.520816
1732.09, 0.520851
1732.67, 0.520926
1733.25, 0.520979
1733.83, 0.521028
1734.41, 0.521074
1734.99, 0.521123
1735.57, 0.521183
1736.15, 0.521252
1736.73, 0.521320
1737.32, 0.521363
1737.9, 0.521396
1738.48, 0.521460
1739.07, 0.521549
1739.65, 0.521573
1740.23, 0.521579
1740.82, 0.521665
1741.4, 0.521734
1741.99, 0.521771
1742.57, 0.521848
1743.16, 0.521922
1743.74, 0.521953
1744.33, 0.521966
1744.92, 0.521985
1745.51, 0.522038
1746.09, 0.522119
1746.68, 0.522167
1747.27, 0.522220
1747.86, 0.522266
1748.45, 0.522289
1749.04, 0.522344
1749.63, 0.522404
1750.22, 0.522435
1750.81, 0.522452
1751.4, 0.522482
1751.99, 0.522561
1752.59, 0.522653
1753.18, 0.522692
1753.77, 0.522717
1754.37, 0.522817
1754.96, 0.522878
1755.56, 0.522865
1756.15, 0.522877
1756.74, 0.522914
1757.34, 0.522969
1757.94, 0.523007
1758.53, 0.523032
1759.13, 0.523074
1759.73, 0.523109
1760.32, 0.523118
1760.92, 0.523139
1761.52, 0.523183
1762.12, 0.523232
1762.72, 0.523281
1763.32, 0.523336
1763.92, 0.523387
1764.52, 0.523428
1765.12, 0.523466
1765.72, 0.523505
1766.32, 0.523511
1766.92, 0.523505
1767.53, 0.523551
1768.13, 0.523607
1768.73, 0.523623
1769.34, 0.523669
1769.94, 0.523742
1770.55, 0.523758
1771.15, 0.523788
1771.76, 0.523822
1772.36, 0.523838
1772.97, 0.523895
1773.57, 0.523947
1774.18, 0.523956
1774.79, 0.523979
1775.4, 0.524005
1776.0, 0.524031
1776.61, 0.524080
1777.22, 0.524116
1777.83, 0.524125
1778.44, 0.524110
1779.05, 0.524115
1779.66, 0.524173
1780.27, 0.524242
1780.88, 0.524244
1781.5, 0.524242
1782.11, 0.524298
1782.72, 0.524310
1783.33, 0.524334
1783.95, 0.524402
1784.56, 0.524430
1785.18, 0.524432
1785.79, 0.524476
1786.41, 0.524535
1787.02, 0.524533
1787.64, 0.524532
1788.26, 0.524590
1788.87, 0.524629
1789.49, 0.524612
1790.11, 0.524621
1790.73, 0.524659
1791.35, 0.524695
1791.96, 0.524711
1792.58, 0.524741
1793.21, 0.524764
1793.83, 0.524778
1794.45, 0.524796
1795.07, 0.524808
1795.69, 0.524817
1796.31, 0.524823
1796.93, 0.524849
1797.56, 0.524891
1798.18, 0.524923
1798.8, 0.524932
1799.43, 0.524948
1800.05, 0.524978
1800.68, 0.525017
1801.3, 0.525052
1801.93, 0.525040
1802.56, 0.525025
1803.18, 0.525093
1803.81, 0.525198
1804.44, 0.525233
1805.07, 0.525215
1805.7, 0.525193
1806.33, 0.525223
1806.95, 0.525246
1807.58, 0.525242
1808.22, 0.525262
1808.85, 0.525288
1809.48, 0.525291
1810.11, 0.525280
1810.74, 0.525268
1811.38, 0.525313
1812.01, 0.525362
1812.64, 0.525364
1813.28, 0.525394
1813.91, 0.525447
1814.55, 0.525460
1815.18, 0.525449
1815.82, 0.525483
1816.45, 0.525552
1817.09, 0.525595
1817.73, 0.525600
1818.36, 0.525561
1819.0, 0.525574
1819.64, 0.525529
1820.28, 0.525386
1820.92, 0.525418
1821.56, 0.525524
1822.2, 0.525557
1822.84, 0.525628
1823.48, 0.525673
1824.12, 0.525692
1824.76, 0.525727
1825.41, 0.525677
1826.05, 0.525498
1826.69, 0.525558
1827.34, 0.525778
1827.98, 0.525792
1828.63, 0.525717
1829.27, 0.525717
1829.92, 0.525790
1830.56, 0.525806
1831.21, 0.525760
1831.86, 0.525831
1832.5, 0.525912
1833.15, 0.525926
1833.8, 0.525910
1834.45, 0.525857
1835.1, 0.525815
1835.75, 0.525753
1836.4, 0.525720
1837.05, 0.525791
1837.7, 0.525772
1838.35, 0.525885
1839.01, 0.525941
1839.66, 0.525721
1840.31, 0.525797
1840.96, 0.525957
1841.62, 0.525767
1842.27, 0.525743
1842.93, 0.526013
1843.58, 0.526135
1844.24, 0.526151
1844.9, 0.526149
1845.55, 0.526142
1846.21, 0.526056
1846.87, 0.525879
1847.53, 0.525894
1848.18, 0.526004
1848.84, 0.526086
1849.5, 0.526217
1850.16, 0.526244
1850.82, 0.526250
1851.48, 0.526280
1852.14, 0.526289
1852.81, 0.526233
1853.47, 0.526111
1854.13, 0.526086
1854.8, 0.526301
1855.46, 0.526409
1856.12, 0.526298
1856.79, 0.526185
1857.45, 0.526298
1858.12, 0.526434
1858.79, 0.526408
1859.45, 0.526228
1860.12, 0.526213
1860.79, 0.526372
1861.46, 0.526436
1862.12, 0.526435
1862.79, 0.526476
1863.46, 0.526499
1864.13, 0.526441
1864.8, 0.526452
1865.48, 0.526498
1866.15, 0.526533
1866.82, 0.526482
1867.49, 0.526283
1868.16, 0.526267
1868.84, 0.526441
1869.51, 0.526449
1870.19, 0.526327
1870.86, 0.526166
1871.54, 0.526335
1872.21, 0.526489
1872.89, 0.526262
1873.56, 0.526293
1874.24, 0.526534
1874.92, 0.526579
1875.6, 0.526580
1876.28, 0.526539
1876.96, 0.526393
1877.64, 0.526473
1878.32, 0.526645
1879.0, 0.526670
1879.68, 0.526705
1880.36, 0.526737
1881.04, 0.526717
1881.73, 0.526718
1882.41, 0.526734
1883.09, 0.526710
1883.78, 0.526631
1884.46, 0.526674
1885.15, 0.526794
1885.83, 0.526762
1886.52, 0.526724
1887.21, 0.526763
1887.89, 0.526812
1888.58, 0.526815
1889.27, 0.526748
1889.96, 0.526607
1890.65, 0.526639
1891.34, 0.526753
1892.03, 0.526759
1892.72, 0.526795
1893.41, 0.526791
1894.1, 0.526766
1894.79, 0.526804
1895.49, 0.526821
1896.18, 0.526840
1896.87, 0.526830
1897.57, 0.526806
1898.26, 0.526783
1898.96, 0.526629
1899.65, 0.526464
1900.35, 0.526563
1901.05, 0.526737
1901.74, 0.526781
1902.44, 0.526617
1903.14, 0.526533
1903.84, 0.526745
1904.54, 0.526740
1905.24, 0.526513
1905.94, 0.526533
1906.64, 0.526596
1907.34, 0.526657
1908.04, 0.526754
1908.75, 0.526772
1909.45, 0.526790
1910.15, 0.526750
1910.86, 0.526694
1911.56, 0.526699
1912.27, 0.526753
1912.97, 0.526691
1913.68, 0.526584
1914.39, 0.526685
1915.09, 0.526773
1915.8, 0.526719
1916.51, 0.526702
1917.22, 0.526779
1917.93, 0.526832
1918.64, 0.526841
1919.35, 0.526734
1920.06, 0.526540
1920.77, 0.526511
1921.48, 0.526668
1922.19, 0.526779
1922.91, 0.526788
1923.62, 0.526738
1924.33, 0.526687
1925.05, 0.526716
1925.76, 0.526740
1926.48, 0.526738
1927.19, 0.526751
1927.91, 0.526748
1928.63, 0.526726
1929.35, 0.526748
1930.07, 0.526742
1930.78, 0.526760
1931.5, 0.526798
1932.22, 0.526794
1932.94, 0.526789
1933.66, 0.526821
1934.39, 0.526843
1935.11, 0.526857
1935.83, 0.526833
1936.55, 0.526778
1937.28, 0.526766
1938.0, 0.526789
1938.73, 0.526820
1939.45, 0.526818
1940.18, 0.526831
1940.9, 0.526843
1941.63, 0.526869
1942.36, 0.526901
1943.09, 0.526880
1943.81, 0.526867
1944.54, 0.526876
1945.27, 0.526890
1946.0, 0.526933
1946.73, 0.526956
1947.47, 0.526956
1948.2, 0.526983
1948.93, 0.527003
1949.66, 0.526975
1950.4, 0.526955
1951.13, 0.526996
1951.86, 0.527044
1952.6, 0.527038
1953.34, 0.527004
1954.07, 0.527006
1954.81, 0.527012
1955.55, 0.527039
1956.29, 0.527059
1957.02, 0.527014
1957.76, 0.527008
1958.5, 0.527048
1959.24, 0.527061
1959.98, 0.527074
1960.72, 0.527085
1961.47, 0.527075
1962.21, 0.527095
1962.95, 0.527103
1963.7, 0.527091
1964.44, 0.527122
1965.18, 0.527133
1965.93, 0.527122
1966.67, 0.527107
1967.42, 0.527100
1968.17, 0.527112
1968.92, 0.527112
1969.66, 0.527125
1970.41, 0.527116
1971.16, 0.527103
1971.91, 0.527115
1972.66, 0.527106
1973.41, 0.527106
1974.16, 0.527130
1974.92, 0.527157
1975.67, 0.527165
1976.42, 0.527162
1977.18, 0.527172
1977.93, 0.527187
1978.69, 0.527178
1979.44, 0.527175
1980.2, 0.527204
1980.95, 0.527228
1981.71, 0.527226
1982.47, 0.527240
1983.23, 0.527259
1983.99, 0.527262
1984.74, 0.527295
1985.51, 0.527312
1986.27, 0.527296
1987.03, 0.527318
1987.79, 0.527340
1988.55, 0.527346
1989.32, 0.527350
1990.08, 0.527350
1990.84, 0.527350
1991.61, 0.527366
1992.37, 0.527386
1993.14, 0.527401
1993.9, 0.527424
1994.67, 0.527453
1995.44, 0.527474
1996.21, 0.527483
1996.98, 0.527489
1997.75, 0.527483
1998.52, 0.527453
1999.29, 0.527446
2000.06, 0.527488
2000.83, 0.527523
2001.6, 0.527551
2002.38, 0.527561
2003.15, 0.527561
2003.93, 0.527553
2004.7, 0.527538
2005.48, 0.527556
2006.25, 0.527561
2007.03, 0.527585
2007.81, 0.527659
2008.58, 0.527676
2009.36, 0.527669
2010.14, 0.527663
2010.92, 0.527619
2011.7, 0.527649
2012.48, 0.527712
2013.26, 0.527712
2014.05, 0.527708
2014.83, 0.527705
2015.61, 0.527707
2016.4, 0.527728
2017.18, 0.527748
2017.97, 0.527750
2018.75, 0.527732
2019.54, 0.527768
2020.32, 0.527816
2021.11, 0.527773
2021.9, 0.527725
2022.69, 0.527740
2023.48, 0.527752
2024.27, 0.527780
2025.06, 0.527812
2025.85, 0.527808
2026.64, 0.527794
2027.44, 0.527777
2028.23, 0.527770
2029.02, 0.527793
2029.82, 0.527830
2030.61, 0.527855
2031.41, 0.527857
2032.2, 0.527855
2033.0, 0.527876
2033.8, 0.527880
2034.6, 0.527877
2035.4, 0.527884
2036.2, 0.527865
2037.0, 0.527846
2037.8, 0.527848
2038.6, 0.527865
2039.4, 0.527907
2040.2, 0.527946
2041.01, 0.527924
2041.81, 0.527915
2042.61, 0.527936
2043.42, 0.527923
2044.22, 0.527918
2045.03, 0.527905
2045.84, 0.527904
2046.65, 0.527940
2047.46, 0.527936
2048.26, 0.527934
2049.07, 0.527942
2049.88, 0.527947
2050.69, 0.527974
2051.51, 0.528000
2052.32, 0.528012
2053.13, 0.528002
2053.94, 0.527995
2054.76, 0.528002
2055.57, 0.528009
2056.39, 0.528015
2057.2, 0.528021
2058.02, 0.528002
2058.84, 0.527981
2059.66, 0.528017
2060.48, 0.528073
2061.29, 0.528093
2062.11, 0.528098
2062.94, 0.528142
2063.76, 0.528161
2064.58, 0.528142
2065.4, 0.528154
2066.22, 0.528208
2067.05, 0.528262
2067.87, 0.528255
2068.7, 0.528235
2069.52, 0.528236
2070.35, 0.528257
2071.18, 0.528293
2072.0, 0.528336
2072.83, 0.528341
2073.66, 0.528338
2074.49, 0.528376
2075.32, 0.528415
2076.15, 0.528433
2076.98, 0.528437
2077.82, 0.528467
2078.65, 0.528492
2079.48, 0.528487
2080.32, 0.528503
2081.15, 0.528539
2081.99, 0.528558
2082.83, 0.528562
2083.66, 0.528546
2084.5, 0.528524
2085.34, 0.528528
2086.18, 0.528564
2087.02, 0.528604
2087.86, 0.528616
2088.7, 0.528618
2089.54, 0.528632
2090.39, 0.528660
2091.23, 0.528666
2092.07, 0.528673
2092.92, 0.528686
2093.76, 0.528717
2094.61, 0.528742
2095.45, 0.528733
2096.3, 0.528711
2097.15, 0.528679
2098.0, 0.528696
2098.85, 0.528709
2099.7, 0.528683
2100.55, 0.528672
2101.4, 0.528689
2102.25, 0.528722
2103.1, 0.528755
2103.96, 0.528766
2104.81, 0.528751
2105.67, 0.528729
2106.52, 0.528730
2107.38, 0.528753
2108.24, 0.528756
2109.09, 0.528760
2109.95, 0.528762
2110.81, 0.528749
2111.67, 0.528766
2112.53, 0.528774
2113.39, 0.528752
2114.25, 0.528763
2115.12, 0.528790
2115.98, 0.528796
2116.84, 0.528791
2117.71, 0.528787
2118.58, 0.528779
2119.44, 0.528768
2120.31, 0.528770
2121.18, 0.528761
2122.04, 0.528768
2122.91, 0.528802
2123.78, 0.528802
2124.65, 0.528779
2125.52, 0.528772
2126.4, 0.528765
2127.27, 0.528778
2128.14, 0.528795
2129.02, 0.528778
2129.89, 0.528769
2130.77, 0.528786
2131.64, 0.528790
2132.52, 0.528770
2133.4, 0.528762
2134.27, 0.528801
2135.15, 0.528803
2136.03, 0.528739
2136.91, 0.528703
2137.79, 0.528694
2138.68, 0.528681
2139.56, 0.528703
2140.44, 0.528750
2141.33, 0.528765
2142.21, 0.528722
2143.1, 0.528685
2143.99, 0.528724
2144.87, 0.528760
2145.76, 0.528759
2146.65, 0.528729
2147.54, 0.528723
2148.43, 0.528736
2149.32, 0.528722
2150.21, 0.528736
2151.1, 0.528751
2151.99, 0.528696
2152.89, 0.528661
2153.78, 0.528679
2154.68, 0.528665
2155.57, 0.528644
2156.47, 0.528635
2157.37, 0.528606
2158.27, 0.528595
2159.16, 0.528592
2160.06, 0.528600
2160.96, 0.528610
2161.86, 0.528590
2162.77, 0.528586
2163.67, 0.528583
2164.57, 0.528547
2165.48, 0.528518
2166.38, 0.528510
2167.29, 0.528518
2168.2, 0.528510
2169.1, 0.528491
2170.01, 0.528534
2170.92, 0.528602
2171.83, 0.528620
2172.74, 0.528618
2173.65, 0.528588
2174.56, 0.528548
2175.47, 0.528542
2176.39, 0.528532
2177.3, 0.528507
2178.22, 0.528528
2179.13, 0.528560
2180.05, 0.528572
2180.96, 0.528566
2181.88, 0.528538
2182.8, 0.528507
2183.72, 0.528480
2184.64, 0.528504
2185.56, 0.528559
2186.48, 0.528570
2187.41, 0.528579
2188.33, 0.528592
2189.25, 0.528565
2190.18, 0.528554
2191.1, 0.528591
2192.03, 0.528621
2192.96, 0.528581
2193.89, 0.528539
2194.82, 0.528547
2195.74, 0.528567
2196.68, 0.528594
2197.61, 0.528607
2198.54, 0.528594
2199.47, 0.528572
2200.4, 0.528549
2201.34, 0.528553
2202.28, 0.528589
2203.21, 0.528625
2204.15, 0.528635
2205.08, 0.528613
2206.02, 0.528616
2206.96, 0.528603
2207.9, 0.528562
2208.84, 0.528559
2209.78, 0.528581
2210.73, 0.528606
2211.67, 0.528593
2212.61, 0.528593
2213.56, 0.528607
2214.5, 0.528575
2215.45, 0.528572
2216.4, 0.528589
2217.35, 0.528586
2218.3, 0.528597
2219.24, 0.528616
2220.2, 0.528618
2221.15, 0.528604
2222.1, 0.528615
2223.05, 0.528639
2224.0, 0.528643
2224.96, 0.528647
2225.91, 0.528665
2226.87, 0.528669
2227.83, 0.528651
2228.79, 0.528621
2229.74, 0.528604
2230.7, 0.528595
2231.66, 0.528594
2232.63, 0.528611
2233.59, 0.528639
2234.55, 0.528638
2235.51, 0.528606
2236.48, 0.528580
2237.44, 0.528547
2238.41, 0.528563
2239.38, 0.528618
2240.34, 0.528607
2241.31, 0.528577
2242.28, 0.528578
2243.25, 0.528572
2244.22, 0.528569
2245.19, 0.528589
2246.17, 0.528586
2247.14, 0.528547
2248.12, 0.528506
2249.09, 0.528503
2250.07, 0.528528
2251.04, 0.528551
2252.02, 0.528555
2253.0, 0.528524
2253.98, 0.528501
2254.96, 0.528488
2255.94, 0.528442
2256.92, 0.528409
2257.91, 0.528396
2258.89, 0.528369
2259.88, 0.528333
2260.86, 0.528330
2261.85, 0.528331
2262.83, 0.528311
2263.82, 0.528259
2264.81, 0.528213
2265.8, 0.528217
2266.79, 0.528223
2267.78, 0.528209
2268.78, 0.528187
2269.77, 0.528163
2270.76, 0.528149
2271.76, 0.528146
2272.75, 0.528123
2273.75, 0.528097
2274.75, 0.528070
2275.75, 0.528043
2276.75, 0.528033
2277.75, 0.528025
2278.75, 0.528013
2279.75, 0.527966
2280.75, 0.527912
2281.76, 0.527920
2282.76, 0.527940
2283.77, 0.527906
2284.77, 0.527847
2285.78, 0.527828
2286.79, 0.527860
2287.8, 0.527828
2288.81, 0.527767
2289.82, 0.527754
2290.83, 0.527722
2291.84, 0.527697
2292.86, 0.527719
2293.87, 0.527728
2294.89, 0.527707
2295.91, 0.527702
2296.92, 0.527718
2297.94, 0.527728
2298.96, 0.527731
2299.98, 0.527711
2301.0, 0.527719
2302.02, 0.527742
2303.04, 0.527740
2304.07, 0.527732
2305.09, 0.527716
2306.12, 0.527735
2307.15, 0.527753
2308.17, 0.527730
2309.2, 0.527736
2310.23, 0.527722
2311.26, 0.527672
2312.29, 0.527647
2313.32, 0.527637
2314.35, 0.527649
2315.39, 0.527687
2316.42, 0.527708
2317.46, 0.527713
2318.5, 0.527753
2319.53, 0.527791
2320.57, 0.527808
2321.61, 0.527799
2322.65, 0.527782
2323.69, 0.527802
2324.73, 0.527806
2325.78, 0.527794
2326.82, 0.527783
2327.86, 0.527756
2328.91, 0.527724
2329.96, 0.527682
2331.01, 0.527691
2332.05, 0.527707
2333.1, 0.527653
2334.15, 0.527628
2335.21, 0.527652
2336.26, 0.527657
2337.31, 0.527615
2338.36, 0.527590
2339.42, 0.527601
2340.48, 0.527578
2341.53, 0.527568
2342.59, 0.527583
2343.65, 0.527596
2344.71, 0.527610
2345.77, 0.527573
2346.83, 0.527483
2347.9, 0.527436
2348.96, 0.527430
2350.02, 0.527412
2351.09, 0.527393
2352.16, 0.527372
2353.23, 0.527360
2354.29, 0.527367
2355.36, 0.527385
2356.43, 0.527425
2357.51, 0.527453
2358.58, 0.527430
2359.65, 0.527417
2360.73, 0.527434
2361.8, 0.527422
2362.88, 0.527406
2363.96, 0.527423
2365.03, 0.527418
2366.11, 0.527365
2367.19, 0.527328
2368.27, 0.527337
2369.36, 0.527343
2370.44, 0.527341
2371.53, 0.527308
2372.61, 0.527260
2373.7, 0.527233
2374.78, 0.527212
2375.87, 0.527199
2376.96, 0.527202
2378.05, 0.527231
2379.14, 0.527258
2380.24, 0.527265
2381.33, 0.527262
2382.42, 0.527242
2383.52, 0.527212
2384.61, 0.527200
2385.71, 0.527194
2386.81, 0.527180
2387.91, 0.527225
2389.01, 0.527263
2390.11, 0.527261
2391.22, 0.527272
2392.32, 0.527250
2393.42, 0.527215
2394.53, 0.527168
2395.64, 0.527125
2396.74, 0.527160
2397.85, 0.527183
2398.96, 0.527159
2400.07, 0.527173
2401.18, 0.527185
2402.3, 0.527154
2403.41, 0.527126
2404.52, 0.527102
2405.64, 0.527090
2406.76, 0.527134
2407.88, 0.527191
2408.99, 0.527180
2410.11, 0.527106
2411.23, 0.527061
2412.36, 0.527069
2413.48, 0.527094
2414.6, 0.527086
2415.73, 0.527080
2416.85, 0.527102
2417.98, 0.527063
2419.11, 0.527020
2420.24, 0.527002
2421.37, 0.526988
2422.5, 0.527000
2423.64, 0.527005
2424.77, 0.526997
2425.9, 0.526979
2427.04, 0.526947
2428.18, 0.526913
2429.31, 0.526898
2430.45, 0.526924
2431.59, 0.526918
2432.73, 0.526878
2433.88, 0.526853
2435.02, 0.526819
2436.16, 0.526828
2437.31, 0.526870
2438.45, 0.526874
2439.6, 0.526829
2440.75, 0.526788
2441.9, 0.526754
2443.05, 0.526707
2444.2, 0.526695
2445.35, 0.526707
2446.51, 0.526728
2447.67, 0.526715
2448.82, 0.526679
2449.98, 0.526617
2451.14, 0.526546
2452.3, 0.526545
2453.46, 0.526545
2454.62, 0.526508
2455.78, 0.526476
2456.94, 0.526483
2458.11, 0.526493
2459.28, 0.526455
2460.44, 0.526415
2461.61, 0.526419
2462.78, 0.526431
2463.95, 0.526408
2465.12, 0.526382
2466.3, 0.526339
2467.47, 0.526306
2468.65, 0.526329
2469.82, 0.526344
2471.0, 0.526314
2472.18, 0.526269
2473.36, 0.526236
2474.54, 0.526209
2475.72, 0.526171
2476.9, 0.526175
2478.08, 0.526241
2479.27, 0.526284
2480.46, 0.526262
2481.64, 0.526221
2482.83, 0.526165
2484.02, 0.526132
2485.21, 0.526165
2486.4, 0.526172
2487.6, 0.526158
2488.79, 0.526174
2489.99, 0.526155
2491.18, 0.526162
2492.38, 0.526195
2493.58, 0.526113
2494.78, 0.526017
2495.98, 0.526071
2497.18, 0.526128
2498.39, 0.526108
2499.59, 0.526089
2500.8, 0.526058
2502.01, 0.526028
2503.21, 0.525996
2504.42, 0.525949
2505.63, 0.525919
2506.84, 0.525912
2508.06, 0.525941
2509.27, 0.525948
2510.49, 0.525901
2511.7, 0.525882
2512.92, 0.525886
2514.14, 0.525866
2515.36, 0.525797
2516.58, 0.525749
2517.8, 0.525783
2519.03, 0.525798
2520.25, 0.525781
2521.48, 0.525770
2522.7, 0.525730
2523.93, 0.525688
2525.16, 0.525700
2526.39, 0.525701
2527.62, 0.525629
2528.86, 0.525563
2530.09, 0.525529
2531.33, 0.525459
2532.56, 0.525423
2533.8, 0.525479
2535.04, 0.525396
2536.28, 0.525277
2537.52, 0.525424
2538.76, 0.525515
2540.01, 0.525468
2541.25, 0.525352
2542.5, 0.525099
2543.75, 0.525038
2544.99, 0.525201
2546.24, 0.525240
2547.49, 0.525095
2548.75, 0.525115
2550.0, 0.525093
2551.26, 0.524825
2552.51, 0.524643
2553.77, 0.524904
2555.03, 0.525271
2556.29, 0.525322
2557.55, 0.525316
2558.81, 0.525154
2560.08, 0.524453
2561.34, 0.523687
2562.61, 0.523607
2563.88, 0.523818
2565.14, 0.524351
2566.41, 0.525048
2567.68, 0.525033
2568.96, 0.524290
2570.23, 0.524221
2571.51, 0.524722
2572.78, 0.523916
2574.06, 0.523759
2575.34, 0.524480
2576.62, 0.524131
2577.9, 0.524322
2579.18, 0.524880
2580.47, 0.524465
2581.75, 0.524217
2583.04, 0.523357
2584.32, 0.522912
2585.61, 0.523880
2586.9, 0.523823
2588.2, 0.523719
2589.49, 0.524254
2590.78, 0.524654
2592.08, 0.524567
2593.37, 0.522184
2594.67, 0.519359
2595.97, 0.520805
2597.27, 0.523862
2598.57, 0.524895
2599.88, 0.524745
2601.18, 0.524162
2602.49, 0.523831
2603.79, 0.523229
2605.1, 0.521966
2606.41, 0.522187
2607.72, 0.523413
2609.03, 0.523683
2610.35, 0.523906
2611.66, 0.524249
2612.98, 0.524086
2614.3, 0.524099
2615.62, 0.523224
2616.94, 0.522224
2618.26, 0.522997
2619.58, 0.522473
2620.91, 0.522114
2622.23, 0.523794
2623.56, 0.524508
2624.89, 0.523890
2626.22, 0.522647
2627.55, 0.522946
2628.88, 0.523132
2630.21, 0.521606
2631.55, 0.522259
2632.89, 0.523477
2634.22, 0.523473
2635.56, 0.523887
2636.9, 0.524115
2638.25, 0.524015
2639.59, 0.523925
2640.93, 0.523726
2642.28, 0.523610
2643.63, 0.523650
2644.98, 0.523282
2646.33, 0.523161
2647.68, 0.523584
2649.03, 0.523726
2650.39, 0.523485
2651.74, 0.522816
2653.1, 0.522618
2654.46, 0.522804
2655.82, 0.522768
2657.18, 0.523059
2658.54, 0.522807
2659.9, 0.522319
2661.27, 0.522450
2662.64, 0.522511
2664.01, 0.520997
2665.38, 0.519133
2666.74, 0.519041
2668.12, 0.520378
2669.49, 0.519227
2670.87, 0.518272
2672.24, 0.520841
2673.62, 0.522041
2675.0, 0.520967
2676.38, 0.519917
2677.76, 0.519900
2679.15, 0.520060
2680.54, 0.520796
2681.92, 0.521227
2683.31, 0.520611
2684.7, 0.520310
2686.09, 0.520097
2687.48, 0.519862
2688.88, 0.519647
2690.27, 0.519319
2691.67, 0.518498
2693.07, 0.516738
2694.47, 0.515705
2695.87, 0.515927
2697.27, 0.516083
2698.67, 0.515670
2700.08, 0.514539
2701.49, 0.513390
2702.9, 0.512960
2704.31, 0.512454
2705.72, 0.511711
2707.13, 0.510824
2708.54, 0.509510
2709.96, 0.507666
2711.38, 0.506931
2712.8, 0.508111
2714.22, 0.508590
2715.64, 0.508098
2717.06, 0.507523
2718.49, 0.506387
2719.91, 0.504220
2721.34, 0.504191
2722.77, 0.505092
2724.2, 0.504022
2725.63, 0.504305
2727.07, 0.505552
2728.5, 0.505728
2729.94, 0.505450
2731.38, 0.505175
2732.82, 0.504607
2734.26, 0.503385
2735.7, 0.503094
2737.15, 0.503246
2738.59, 0.501617
2740.04, 0.500012
2741.49, 0.500371
2742.94, 0.501431
2744.39, 0.501732
2745.84, 0.501440
2747.3, 0.500995
2748.76, 0.500553
2750.21, 0.500090
2751.67, 0.499534
2753.14, 0.498714
2754.6, 0.496666
2756.06, 0.495856
2757.53, 0.497052
2759.0, 0.497410
2760.46, 0.496622
2761.94, 0.495260
2763.41, 0.494571
2764.88, 0.494845
2766.36, 0.494593
2767.83, 0.493934
2769.31, 0.493277
2770.79, 0.492377
2772.27, 0.491990
2773.76, 0.492007
2775.24, 0.491788
2776.73, 0.491443
2778.22, 0.491219
2779.71, 0.490933
2781.2, 0.490510
2782.69, 0.490338
2784.18, 0.490218
2785.68, 0.489370
2787.18, 0.488473
2788.68, 0.488451
2790.18, 0.488516
2791.68, 0.488243
2793.19, 0.487969
2794.69, 0.487712
2796.2, 0.487361
2797.71, 0.486984
2799.22, 0.486731
2800.73, 0.486308
2802.24, 0.485501
2803.76, 0.485088
2805.28, 0.485250
2806.8, 0.485274
2808.32, 0.485059
2809.84, 0.484866
2811.36, 0.484747
2812.89, 0.484583
2814.42, 0.484293
2815.94, 0.484041
2817.48, 0.483735
2819.01, 0.483281
2820.54, 0.483051
2822.08, 0.483087
2823.61, 0.483110
2825.15, 0.483004
2826.69, 0.482768
2828.23, 0.482564
2829.78, 0.482419
2831.32, 0.482166
2832.87, 0.481765
2834.42, 0.481387
2835.97, 0.481120
2837.52, 0.480876
2839.08, 0.480746
2840.63, 0.480663
2842.19, 0.480482
2843.75, 0.480327
2845.31, 0.480198
2846.87, 0.480016
2848.44, 0.479761
2850.0, 0.479557
2851.57, 0.479441
2853.14, 0.479219
2854.71, 0.478955
2856.28, 0.478823
2857.86, 0.478707
2859.43, 0.478520
2861.01, 0.478376
2862.59, 0.478246
2864.17, 0.478072
2865.76, 0.477883
2867.34, 0.477711
2868.93, 0.477555
2870.52, 0.477286
2872.11, 0.476986
2873.7, 0.476814
2875.29, 0.476689
2876.89, 0.476562
2878.49, 0.476425
2880.08, 0.476238
2881.69, 0.476045
2883.29, 0.475877
2884.89, 0.475731
2886.5, 0.475589
2888.11, 0.475415
2889.72, 0.475244
2891.33, 0.475072
2892.94, 0.474921
2894.56, 0.474793
2896.17, 0.474609
2897.79, 0.474405
2899.42, 0.474190
2901.04, 0.473990
2902.66, 0.473894
2904.29, 0.473794
2905.92, 0.473696
2907.55, 0.473583
2909.18, 0.473433
2910.81, 0.473290
2912.45, 0.473172
2914.08, 0.473032
2915.72, 0.472866
2917.36, 0.472735
2919.01, 0.472638
2920.65, 0.472543
2922.3, 0.472441
2923.94, 0.472346
2925.59, 0.472254
2927.25, 0.472147
2928.9, 0.472061
2930.56, 0.472013
2932.21, 0.471949
2933.87, 0.471892
2935.53, 0.471807
2937.2, 0.471691
2938.86, 0.471634
2940.53, 0.471621
2942.2, 0.471598
2943.87, 0.471536
2945.54, 0.471429
2947.22, 0.471340
2948.89, 0.471338
2950.57, 0.471331
2952.25, 0.471240
2953.93, 0.471208
2955.62, 0.471241
2957.3, 0.471198
2958.99, 0.471114
2960.68, 0.471091
2962.37, 0.471087
2964.07, 0.471069
2965.76, 0.471028
2967.46, 0.470932
2969.16, 0.470860
2970.86, 0.470837
2972.56, 0.470791
2974.27, 0.470742
2975.98, 0.470734
2977.69, 0.470721
2979.4, 0.470720
2981.11, 0.470734
2982.83, 0.470731
2984.54, 0.470736
2986.26, 0.470736
2987.98, 0.470723
2989.71, 0.470750
2991.43, 0.470763
2993.16, 0.470747
2994.89, 0.470747
2996.62, 0.470727
2998.35, 0.470718
3000.09, 0.470691
3001.83, 0.470650
3003.57, 0.470659
3005.31, 0.470666
3007.05, 0.470673
3008.79, 0.470693
3010.54, 0.470730
3012.29, 0.470781
3014.04, 0.470813
3015.8, 0.470831
3017.55, 0.470817
3019.31, 0.470782
3021.07, 0.470739
3022.83, 0.470745
3024.59, 0.470802
3026.36, 0.470879
3028.13, 0.470921
3029.9, 0.470927
3031.67, 0.470912
3033.44, 0.470901
3035.22, 0.470952
3037.0, 0.471013
3038.78, 0.471019
3040.56, 0.471025
3042.34, 0.471049
3044.13, 0.471093
3045.92, 0.471146
3047.71, 0.471159
3049.5, 0.471134
3051.3, 0.471161
3053.09, 0.471218
3054.89, 0.471211
3056.69, 0.471165
3058.5, 0.471177
3060.3, 0.471257
3062.11, 0.471276
3063.92, 0.471249
3065.73, 0.471259
3067.55, 0.471360
3069.36, 0.471431
3071.18, 0.471406
3073.0, 0.471399
3074.82, 0.471411
3076.65, 0.471405
3078.48, 0.471407
3080.31, 0.471429
3082.14, 0.471522
3083.97, 0.471568
3085.8, 0.471515
3087.64, 0.471502
3089.48, 0.471560
3091.33, 0.471584
3093.17, 0.471582
3095.02, 0.471640
3096.87, 0.471708
3098.72, 0.471755
3100.57, 0.471775
3102.43, 0.471771
3104.28, 0.471798
3106.14, 0.471831
3108.01, 0.471818
3109.87, 0.471857
3111.74, 0.471950
3113.61, 0.472006
3115.48, 0.472046
3117.35, 0.472092
3119.23, 0.472141
3121.1, 0.472185
3122.98, 0.472219
3124.87, 0.472234
3126.75, 0.472249
3128.64, 0.472277
3130.53, 0.472298
3132.42, 0.472301
3134.31, 0.472338
3136.21, 0.472422
3138.11, 0.472484
3140.01, 0.472543
3141.91, 0.472573
3143.82, 0.472535
3145.73, 0.472486
3147.64, 0.472541
3149.55, 0.472651
3151.46, 0.472750
3153.38, 0.472812
3155.3, 0.472798
3157.22, 0.472822
3159.14, 0.472897
3161.07, 0.472901
3163.0, 0.472856
3164.93, 0.472905
3166.86, 0.473029
3168.8, 0.473109
3170.74, 0.473127
3172.68, 0.473126
3174.62, 0.473161
3176.56, 0.473206
3178.51, 0.473223
3180.46, 0.473189
3182.42, 0.473169
3184.37, 0.473211
3186.33, 0.473247
3188.29, 0.473260
3190.25, 0.473271
3192.21, 0.473322
3194.18, 0.473355
3196.15, 0.473355
3198.12, 0.473356
3200.09, 0.473348
3202.07, 0.473371
3204.05, 0.473357
3206.03, 0.473335
3208.02, 0.473369
3210.0, 0.473424
3211.99, 0.473453
3213.98, 0.473401
3215.98, 0.473370
3217.97, 0.473369
3219.97, 0.473364
3221.97, 0.473343
3223.98, 0.473270
3225.98, 0.473200
3227.99, 0.473198
3230.0, 0.473205
3232.02, 0.473185
3234.03, 0.473141
3236.05, 0.473050
3238.07, 0.472991
3240.1, 0.472979
3242.12, 0.472927
3244.15, 0.472897
3246.18, 0.472855
3248.22, 0.472801
3250.25, 0.472772
3252.29, 0.472662
3254.33, 0.472584
3256.38, 0.472593
3258.43, 0.472557
3260.47, 0.472462
3262.53, 0.472348
3264.58, 0.472282
3266.64, 0.472243
3268.7, 0.472209
3270.76, 0.472106
3272.82, 0.471963
3274.89, 0.471916
3276.96, 0.471894
3279.04, 0.471809
3281.11, 0.471732
3283.19, 0.471666
3285.27, 0.471539
3287.35, 0.471434
3289.44, 0.471340
3291.53, 0.471217
3293.62, 0.471094
3295.71, 0.470908
3297.81, 0.470778
3299.91, 0.470739
3302.01, 0.470639
3304.11, 0.470523
3306.22, 0.470417
3308.33, 0.470250
3310.44, 0.470128
3312.56, 0.470105
3314.68, 0.469969
3316.8, 0.469707
3318.92, 0.469483
3321.05, 0.469241
3323.18, 0.468973
3325.31, 0.468717
3327.44, 0.468457
3329.58, 0.468209
3331.72, 0.468008
3333.86, 0.467797
3336.01, 0.467535
3338.16, 0.467284
3340.31, 0.467042
3342.46, 0.466727
3344.61, 0.466383
3346.77, 0.466068
3348.94, 0.465741
3351.1, 0.465383
3353.27, 0.465074
3355.44, 0.464812
3357.61, 0.464482
3359.79, 0.464117
3361.97, 0.463702
3364.15, 0.463192
3366.33, 0.462698
3368.52, 0.462182
3370.71, 0.461652
3372.9, 0.461240
3375.1, 0.460925
3377.3, 0.460723
3379.5, 0.460680
3381.71, 0.460764
3383.91, 0.460914
3386.12, 0.461054
3388.34, 0.461090
3390.55, 0.461065
3392.77, 0.460948
3394.99, 0.460684
3397.22, 0.460327
3399.45, 0.459919
3401.68, 0.459501
3403.91, 0.459060
3406.15, 0.458529
3408.39, 0.457966
3410.63, 0.457476
3412.87, 0.457024
3415.12, 0.456628
3417.37, 0.456367
3419.63, 0.456303
3421.88, 0.456353
3424.14, 0.456403
3426.41, 0.456531
3428.67, 0.456835
3430.94, 0.457361
3433.21, 0.458011
3435.49, 0.458548
3437.77, 0.458847
3440.05, 0.458999
3442.33, 0.459103
3444.62, 0.459141
3446.91, 0.459119
3449.2, 0.459049
3451.5, 0.458973
3453.8, 0.458913
3456.1, 0.458859
3458.41, 0.458778
3460.72, 0.458661
3463.03, 0.458511
3465.34, 0.458292
3467.66, 0.458013
3469.98, 0.457731
3472.31, 0.457416
3474.63, 0.457118
3476.96, 0.456885
3479.3, 0.456596
3481.64, 0.456305
3483.97, 0.456056
3486.32, 0.455780
3488.66, 0.455442
3491.01, 0.455133
3493.36, 0.454816
3495.72, 0.454387
3498.08, 0.453931
3500.44, 0.453585
3502.81, 0.453313
3505.18, 0.453082
3507.55, 0.452906
3509.92, 0.452941
3512.3, 0.453452
3514.68, 0.454194
3517.06, 0.454669
3519.45, 0.454872
3521.84, 0.454980
3524.24, 0.454981
3526.64, 0.454925
3529.04, 0.454874
3531.44, 0.454818
3533.85, 0.454604
3536.26, 0.454340
3538.67, 0.454186
3541.09, 0.454147
3543.51, 0.454173
3545.93, 0.454155
3548.36, 0.454064
3550.79, 0.453989
3553.22, 0.453914
3555.66, 0.453761
3558.1, 0.453580
3560.54, 0.453446
3562.99, 0.453295
3565.44, 0.453152
3567.9, 0.452962
3570.35, 0.452753
3572.81, 0.452655
3575.28, 0.452485
3577.75, 0.452185
3580.22, 0.451970
3582.69, 0.451832
3585.17, 0.451712
3587.65, 0.451606
3590.14, 0.451318
3592.62, 0.451029
3595.11, 0.450818
3597.61, 0.450532
3600.11, 0.450229
3602.61, 0.449925
3605.11, 0.449648
3607.62, 0.449407
3610.14, 0.449124
3612.65, 0.448786
3615.17, 0.448464
3617.69, 0.448202
3620.22, 0.447948
3622.75, 0.447618
3625.28, 0.447251
3627.82, 0.446888
3630.36, 0.446574
3632.9, 0.446245
3635.45, 0.445949
3638.0, 0.445641
3640.56, 0.445264
3643.12, 0.444915
3645.68, 0.444563
3648.24, 0.444139
3650.81, 0.443827
3653.39, 0.443706
3655.96, 0.443500
3658.54, 0.443206
3661.13, 0.442911
3663.71, 0.442634
3666.3, 0.442343
3668.9, 0.442026
3671.5, 0.441705
3674.1, 0.441383
3676.7, 0.441049
3679.31, 0.440682
3681.93, 0.440317
3684.54, 0.439952
3687.17, 0.439574
3689.79, 0.439160
3692.42, 0.438753
3695.05, 0.438353
3697.69, 0.437940
3700.32, 0.437522
3702.97, 0.437105
3705.61, 0.436672
3708.27, 0.436237
3710.92, 0.435790
3713.58, 0.435363
3716.24, 0.434935
3718.91, 0.434510
3721.58, 0.434086
3724.25, 0.433660
3726.93, 0.433226
3729.61, 0.432788
3732.29, 0.432356
3734.98, 0.431935
3737.67, 0.431504
3740.37, 0.431067
3743.07, 0.430619
3745.78, 0.430182
3748.49, 0.429733
3751.2, 0.429281
3753.91, 0.428829
3756.63, 0.428365
3759.36, 0.427900
3762.09, 0.427451
3764.82, 0.426990
3767.55, 0.426532
3770.29, 0.426066
3773.04, 0.425596
3775.78, 0.425133
3778.54, 0.424689
3781.29, 0.424214
3784.05, 0.423732
3786.82, 0.423251
3789.59, 0.422797
3792.36, 0.422359
3795.13, 0.421894
3797.92, 0.421423
3800.7, 0.420992
3803.49, 0.420551
3806.28, 0.420115
3809.08, 0.419702
3811.88, 0.419294
3814.68, 0.418885
3817.49, 0.418505
3820.31, 0.418125
3823.12, 0.417754
3825.94, 0.417387
3828.77, 0.417027
3831.6, 0.416691
3834.43, 0.416419
3837.27, 0.416163
3840.11, 0.415913
3842.96, 0.415672
3845.81, 0.415437
3848.67, 0.415217
3851.53, 0.415002
3854.39, 0.414774
3857.26, 0.414552
3860.13, 0.414321
3863.01, 0.414094
3865.89, 0.413872
3868.77, 0.413646
3871.66, 0.413402
3874.55, 0.413183
3877.45, 0.412956
3880.35, 0.412738
3883.26, 0.412525
3886.17, 0.412298
3889.09, 0.412059
3892.01, 0.411820
3894.93, 0.411557
3897.86, 0.411302
3900.79, 0.411042
3903.73, 0.410765
3906.67, 0.410478
3909.62, 0.410185
3912.57, 0.409856
3915.52, 0.409525
3918.48, 0.409207
3921.45, 0.408892
3924.42, 0.408555
3927.39, 0.408213
3930.37, 0.407859
3933.35, 0.407516
3936.34, 0.407149
3939.33, 0.406751
3942.32, 0.406332
3945.32, 0.405898
3948.33, 0.405434
3951.34, 0.404962
3954.35, 0.404462
3957.37, 0.403954
3960.39, 0.403407
3963.42, 0.402826
3966.45, 0.402214
3969.49, 0.401573
3972.53, 0.400911
3975.58, 0.400228
3978.63, 0.399493
3981.68, 0.398725
3984.75, 0.397927
3987.81, 0.397122
3990.88, 0.396299
3993.95, 0.395467
3997.03, 0.394629
4000.12, 0.393848
4003.21, 0.393129
4006.3, 0.392457
4009.4, 0.391842
4012.5, 0.391339
4015.61, 0.390932
4018.72, 0.390649
4021.84, 0.390484
4024.96, 0.390402
4028.09, 0.390397
4031.22, 0.390460
4034.36, 0.390568
4037.5, 0.390733
4040.65, 0.390881
4043.8, 0.390992
4046.96, 0.391064
4050.12, 0.391104
4053.29, 0.391105
4056.46, 0.391074
4059.64, 0.390999
4062.82, 0.390872
4066.0, 0.390666
4069.19, 0.390458
4072.39, 0.390212
4075.59, 0.389919
4078.8, 0.389606
4082.01, 0.389283
4085.23, 0.388916
4088.45, 0.388512
4091.68, 0.388089
4094.91, 0.387674
4098.15, 0.387244
4101.39, 0.386795
4104.63, 0.386326
4107.89, 0.385850
4111.14, 0.385356
4114.41, 0.384870
4117.67, 0.384370
4120.95, 0.383867
4124.23, 0.383348
4127.51, 0.382840
4130.8, 0.382318
4134.09, 0.381797
4137.39, 0.381277
4140.7, 0.380741
4144.01, 0.380162
4147.32, 0.379597
4150.64, 0.379043
4153.97, 0.378498
4157.3, 0.377939
4160.64, 0.377374
4163.98, 0.376796
4167.33, 0.376232
4170.68, 0.375660
4174.04, 0.375080
4177.4, 0.374501
4180.77, 0.373924
4184.14, 0.373331
4187.52, 0.372759
4190.91, 0.372193
4194.3, 0.371634
4197.69, 0.371068
4201.1, 0.370503
4204.5, 0.369959
4207.92, 0.369452
4211.34, 0.368961
4214.76, 0.368484
4218.19, 0.368004
4221.62, 0.367525
4225.06, 0.367025
4228.51, 0.366523
4231.96, 0.365973
4235.42, 0.365381
4238.88, 0.364739
4242.35, 0.364061
4245.83, 0.363347
4249.31, 0.362624
4252.79, 0.361891
4256.28, 0.361210
4259.78, 0.360633
4263.29, 0.360132
4266.79, 0.359618
4270.31, 0.359089
4273.83, 0.358533
4277.35, 0.357957
4280.89, 0.357346
4284.42, 0.356725
4287.97, 0.356085
4291.52, 0.355442
4295.07, 0.354784
4298.63, 0.354136
4302.2, 0.353473
4305.78, 0.352793
4309.35, 0.352089
4312.94, 0.351413
4316.53, 0.350754
4320.13, 0.350101
4323.73, 0.349440
4327.34, 0.348758
4330.96, 0.348067
4334.58, 0.347412
4338.21, 0.346757
4341.84, 0.346112
4345.48, 0.345460
4349.12, 0.344796
4352.77, 0.344126
4356.43, 0.343459
4360.1, 0.342790
4363.76, 0.342126
4367.44, 0.341455
4371.12, 0.340793
4374.81, 0.340128
4378.51, 0.339476
4382.21, 0.338811
4385.92, 0.338163
4389.63, 0.337518
4393.35, 0.336889
4397.08, 0.336272
4400.81, 0.335660
4404.55, 0.335014
4408.29, 0.334377
4412.04, 0.333739
4415.8, 0.333127
4419.57, 0.332512
4423.34, 0.331898
4427.12, 0.331260
4430.9, 0.330622
4434.69, 0.329977
4438.49, 0.329328
4442.29, 0.328685
4446.1, 0.328045
4449.92, 0.327384
4453.74, 0.326728
4457.57, 0.326068
4461.41, 0.325398
4465.25, 0.324713
4469.1, 0.324060
4472.95, 0.323410
4476.82, 0.322756
4480.69, 0.322092
4484.56, 0.321447
4488.44, 0.320801
4492.33, 0.320141
4496.23, 0.319462
4500.13, 0.318794
4504.04, 0.318104
4507.96, 0.317415
4511.88, 0.316736
4515.81, 0.316049
4519.75, 0.315331
4523.69, 0.314612
4527.65, 0.313875
4531.6, 0.313141
4535.57, 0.312403
4539.54, 0.311669
4543.52, 0.310919
4547.5, 0.310172
4551.5, 0.309420
4555.5, 0.308658
4559.5, 0.307897
4563.52, 0.307163
4567.54, 0.306410
4571.56, 0.305661
4575.6, 0.304916
4579.64, 0.304175
4583.69, 0.303444
4587.75, 0.302732
4591.81, 0.302007
4595.88, 0.301306
4599.96, 0.300630
4604.04, 0.299952
4608.14, 0.299272
4612.24, 0.298624
4616.34, 0.297970
4620.46, 0.297307
4624.58, 0.296654
4628.71, 0.296026
4632.84, 0.295391
4636.99, 0.294769
4641.14, 0.294159
4645.3, 0.293534
4649.47, 0.292895
4653.64, 0.292277
4657.82, 0.291653
4662.01, 0.291036
4666.21, 0.290411
4670.41, 0.289830
4674.62, 0.289242
4678.84, 0.288634
4683.07, 0.287985
4687.3, 0.287324
4691.54, 0.286653
4695.79, 0.285984
4700.05, 0.285309
4704.31, 0.284614
4708.59, 0.283913
4712.87, 0.283193
4717.15, 0.282475
4721.45, 0.281734
4725.76, 0.280965
4730.07, 0.280164
4734.39, 0.279377
4738.72, 0.278564
4743.05, 0.277719
4747.39, 0.276851
4751.75, 0.275978
4756.1, 0.275090
4760.47, 0.274159
4764.85, 0.273213
4769.23, 0.272201
4773.62, 0.271154
4778.02, 0.270053
4782.43, 0.268936
4786.85, 0.267743
4791.27, 0.266499
4795.7, 0.265175
4800.14, 0.263786
4804.59, 0.262316
4809.05, 0.260775
4813.51, 0.259154
4817.99, 0.257435
4822.47, 0.255608
4826.96, 0.253652
4831.46, 0.251513
4835.96, 0.249156
4840.48, 0.246541
4845.0, 0.243636
4849.54, 0.240330
4854.08, 0.236580
4858.63, 0.232317
4863.18, 0.227540
4867.75, 0.222231
4872.33, 0.216422
4876.91, 0.210244
4881.5, 0.203870
4886.1, 0.197471
4890.71, 0.191250
4895.33, 0.185392
4899.96, 0.180004
4904.59, 0.175108
4909.24, 0.170684
4913.89, 0.166636
4918.55, 0.162883
4923.22, 0.159373
4927.9, 0.156086
4932.59, 0.153087
4937.29, 0.150503
4942.0, 0.148501
4946.71, 0.147213
4951.44, 0.146667
4956.17, 0.146800
4960.91, 0.147441
4965.67, 0.148424
4970.43, 0.149598
4975.2, 0.150852
4979.98, 0.152114
4984.76, 0.153341
4989.56, 0.154533
4994.37, 0.155668
4999.18, 0.156710
5004.01, 0.157660
5008.84, 0.158526
5013.69, 0.159316
5018.54, 0.160007
5023.4, 0.160602
5028.28, 0.161090
5033.16, 0.161462
5038.05, 0.161718
5042.95, 0.161854
5047.86, 0.161874
5052.78, 0.161778
5057.71, 0.161550
5062.65, 0.161196
5067.6, 0.160693
5072.56, 0.160049
5077.53, 0.159259
5082.5, 0.158324
5087.49, 0.157288
5092.49, 0.156167
5097.5, 0.154922
5102.51, 0.153546
5107.54, 0.152108
5112.58, 0.150635
5117.62, 0.149081
5122.68, 0.147426
5127.75, 0.145675
5132.82, 0.143831
5137.91, 0.141879
5143.01, 0.139864
5148.12, 0.137848
5153.23, 0.135944
5158.36, 0.134125
5163.5, 0.132353
5168.65, 0.130598
5173.81, 0.128847
5178.98, 0.127085
5184.15, 0.125303
5189.34, 0.123469
5194.54, 0.121622
5199.75, 0.119816
5204.98, 0.118163
5210.21, 0.116680
5215.45, 0.115463
5220.7, 0.114593
5225.96, 0.113989
5231.23, 0.113579
5236.52, 0.113357
5241.81, 0.113271
5247.12, 0.113242
5252.44, 0.113259
5257.76, 0.113313
5263.1, 0.113362
5268.45, 0.113389
5273.81, 0.113382
5279.18, 0.113336
5284.56, 0.113194
5289.95, 0.112921
5295.36, 0.112575
5300.77, 0.112191
5306.2, 0.111767
5311.63, 0.111334
5317.08, 0.110921
5322.54, 0.110499
5328.01, 0.110022
5333.49, 0.109402
5338.98, 0.108573
5344.49, 0.107505
5350.0, 0.106204
5355.53, 0.104818
5361.07, 0.103402
5366.62, 0.102002
5372.18, 0.100665
5377.75, 0.0994150
5383.34, 0.0982120
5388.93, 0.0969690
5394.54, 0.0956360
5400.16, 0.0942200
5405.79, 0.0927330
5411.44, 0.0912390
5417.09, 0.0897490
5422.76, 0.0883450
5428.43, 0.0872020
5434.12, 0.0861810
5439.83, 0.0852610
5445.54, 0.0845420
5451.26, 0.0840290
5457.0, 0.0837060
5462.75, 0.0835420
5468.52, 0.0835620
5474.29, 0.0836880
5480.08, 0.0838390
5485.88, 0.0840410
5491.69, 0.0841950
5497.51, 0.0842660
5503.35, 0.0842170
5509.2, 0.0840570
5515.06, 0.0837520
5520.93, 0.0832800
5526.82, 0.0826910
5532.71, 0.0819680
5538.63, 0.0810400
5544.55, 0.0798800
5550.49, 0.0784220
5556.44, 0.0766420
5562.4, 0.0745050
5568.37, 0.0720330
5574.36, 0.0692670
5580.36, 0.0664230
5586.37, 0.0637760
5592.4, 0.0614460
5598.44, 0.0595020
5604.49, 0.0581050
5610.56, 0.0572550
5616.63, 0.0569020
5622.73, 0.0569800
5628.83, 0.0573470
5634.95, 0.0578880
5641.08, 0.0586360
5647.23, 0.0597020
5653.39, 0.0609860
5659.56, 0.0624810
5665.74, 0.0641870
5671.94, 0.0659640
5678.15, 0.0678990
5684.38, 0.0699350
5690.62, 0.0719570
5696.87, 0.0740180
5703.14, 0.0760750
5709.42, 0.0780990
5715.72, 0.0802180
5722.03, 0.0823010
5728.35, 0.0842720
5734.69, 0.0860540
5741.03, 0.0875670
5747.4, 0.0887350
5753.78, 0.0896290
5760.17, 0.0899340
5766.58, 0.0897640
5773.0, 0.0895870
5779.44, 0.0891930
5785.88, 0.0885340
5792.35, 0.0877760
5798.83, 0.0869640
5805.32, 0.0861840
5811.83, 0.0854310
5818.35, 0.0846340
5824.89, 0.0840390
5831.45, 0.0836920
5838.01, 0.0832870
5844.59, 0.0827700
5851.19, 0.0821780
5857.8, 0.0816030
5864.43, 0.0811360
5871.07, 0.0808500
5877.73, 0.0804660
5884.4, 0.0804090
5891.09, 0.0805700
5897.79, 0.0807450
5904.5, 0.0812030
5911.23, 0.0815300
5917.98, 0.0816050
5924.75, 0.0815010
5931.53, 0.0809750
5938.32, 0.0803510
5945.13, 0.0799520
5951.96, 0.0793880
5958.8, 0.0786510
5965.65, 0.0777750
5972.53, 0.0770050
5979.42, 0.0764340
5986.32, 0.0759940
5993.24, 0.0759800
6000.18, 0.0765570
6007.13, 0.0776980
6014.1, 0.0795550
6021.08, 0.0823620
6028.09, 0.0861100
6035.1, 0.0907700
6042.14, 0.0958710
6049.19, 0.101695
6056.25, 0.108529
6063.34, 0.115164
6070.44, 0.121213
6077.55, 0.127157
6084.69, 0.132756
6091.84, 0.137619
6099.0, 0.141812
6106.19, 0.145257
6113.39, 0.148116
6120.61, 0.150996
6127.84, 0.153421
6135.09, 0.155201
6142.36, 0.156589
6149.65, 0.157746
6156.95, 0.158531
6164.27, 0.159210
6171.61, 0.159747
6178.97, 0.159736
6186.34, 0.159571
6193.73, 0.159817
6201.14, 0.159807
6208.57, 0.159502
6216.01, 0.159108
6223.47, 0.158709
6230.95, 0.158217
6238.45, 0.157733
6245.97, 0.157297
6253.5, 0.156938
6261.06, 0.156652
6268.63, 0.156543
6276.21, 0.156601
6283.82, 0.156913
6291.45, 0.157458
6299.1, 0.158251
6306.76, 0.159184
6314.44, 0.160244
6322.14, 0.161325
6329.86, 0.162392
6337.6, 0.163034
6345.35, 0.163534
6353.13, 0.164356
6360.92, 0.164775
6368.74, 0.164675
6376.57, 0.164682
6384.43, 0.164641
6392.3, 0.164478
6400.19, 0.164243
6408.1, 0.163582
6416.03, 0.163316
6423.98, 0.163852
6431.95, 0.164153
6439.94, 0.164309
6447.95, 0.164353
6455.98, 0.164276
6464.03, 0.164086
6472.1, 0.163720
6480.19, 0.163253
6488.31, 0.162609
6496.44, 0.162223
6504.59, 0.162459
6512.76, 0.162451
6520.95, 0.162192
6529.16, 0.162241
6537.4, 0.162320
6545.65, 0.162327
6553.92, 0.162423
6562.22, 0.162579
6570.54, 0.162537
6578.88, 0.162805
6587.23, 0.163110
6595.61, 0.163205
6604.02, 0.163177
6612.44, 0.162864
6620.89, 0.162355
6629.35, 0.161373
6637.84, 0.160179
6646.35, 0.159517
6654.88, 0.158763
6663.44, 0.157470
6672.01, 0.155906
6680.61, 0.154233
6689.23, 0.152734
6697.88, 0.151163
6706.54, 0.149219
6715.23, 0.147212
6723.94, 0.145223
6732.67, 0.143173
6741.42, 0.141021
6750.2, 0.138793
6759.0, 0.136634
6767.82, 0.134566
6776.67, 0.132649
6785.54, 0.130926
6794.44, 0.129721
6803.35, 0.129075
6812.29, 0.128637
6821.26, 0.128292
6830.24, 0.128230
6839.25, 0.128427
6848.29, 0.128512
6857.35, 0.128282
6866.43, 0.128152
6875.54, 0.128241
6884.67, 0.127910
6893.82, 0.127155
6903.0, 0.126073
6912.2, 0.124811
6921.43, 0.123371
6930.69, 0.121779
6939.96, 0.120087
6949.27, 0.118264
6958.59, 0.116259
6967.95, 0.114432
6977.33, 0.112557
6986.73, 0.110451
6996.16, 0.108236
7005.61, 0.106019
7015.09, 0.103785
7024.6, 0.101743
7034.13, 0.0999630
7043.69, 0.0984540
7053.27, 0.0974790
7062.88, 0.0969430
7072.52, 0.0966050
7082.18, 0.0964160
7091.87, 0.0962750
7101.58, 0.0960950
7111.32, 0.0957670
7121.09, 0.0952890
7130.88, 0.0946530
7140.71, 0.0937830
7150.56, 0.0927550
7160.43, 0.0916690
7170.33, 0.0905150
7180.27, 0.0894540
7190.23, 0.0884380
7200.21, 0.0874720
7210.23, 0.0866450
7220.27, 0.0860800
7230.34, 0.0856620
7240.44, 0.0853580
7250.56, 0.0851090
7260.72, 0.0848530
7270.9, 0.0844710
7281.12, 0.0840000
7291.36, 0.0833890
7301.63, 0.0825430
7311.93, 0.0814350
7322.25, 0.0801510
7332.61, 0.0787160
7343.0, 0.0772670
7353.41, 0.0758760
7363.86, 0.0745850
7374.33, 0.0733640
7384.83, 0.0722260
7395.37, 0.0711140
7405.93, 0.0700230
7416.53, 0.0689270
7427.15, 0.0678090
7437.81, 0.0666540
7448.5, 0.0655020
7459.22, 0.0643440
7469.96, 0.0632720
7480.74, 0.0622670
7491.55, 0.0613380
7502.39, 0.0604390
7513.27, 0.0595900
7524.17, 0.0587910
7535.11, 0.0580840
7546.08, 0.0575000
7557.08, 0.0570880
7568.11, 0.0568360
7579.17, 0.0567600
7590.27, 0.0567950
7601.4, 0.0569400
7612.56, 0.0571340
7623.76, 0.0573570
7634.98, 0.0575560
7646.24, 0.0577350
7657.54, 0.0578610
7668.87, 0.0579170
7680.23, 0.0578810
7691.62, 0.0577870
7703.05, 0.0575930
7714.51, 0.0573290
7726.01, 0.0569850
7737.54, 0.0565450
7749.11, 0.0560470
7760.71, 0.0555580
7772.35, 0.0550680
7784.02, 0.0546230
7795.72, 0.0542330
7807.46, 0.0539360
7819.23, 0.0537420
7831.04, 0.0536290
7842.89, 0.0535530
7854.77, 0.0535150
7866.69, 0.0534200
7878.65, 0.0532640
7890.64, 0.0530420
7902.67, 0.0527500
7914.74, 0.0524030
7926.84, 0.0519930
7938.98, 0.0515180
7951.16, 0.0510400
7963.37, 0.0505030
7975.62, 0.0498610
7987.91, 0.0491220
8000.24, 0.0483080
8012.6, 0.0474080
8025.01, 0.0464610
8037.45, 0.0455030
8049.93, 0.0445530
8062.45, 0.0435970
8075.01, 0.0426730
8087.61, 0.0417600
8100.24, 0.0408280
8112.91, 0.0398520
8125.63, 0.0388770
8138.39, 0.0378560
8151.18, 0.0368110
8164.02, 0.0357980
8176.9, 0.0348690
8189.81, 0.0340450
8202.77, 0.0333160
8215.77, 0.0326650
8228.82, 0.0321410
8241.9, 0.0316850
8255.02, 0.0312500
8268.19, 0.0308340
8281.39, 0.0304470
8294.65, 0.0300360
8307.94, 0.0296350
8321.28, 0.0291740
8334.66, 0.0286780
8348.08, 0.0281430
8361.54, 0.0275780
8375.05, 0.0269810
8388.6, 0.0263650
8402.2, 0.0257280
8415.84, 0.0251310
8429.52, 0.0245800
8443.25, 0.0241060
8457.02, 0.0236900
8470.84, 0.0233150
8484.7, 0.0229840
8498.61, 0.0227100
8512.57, 0.0224140
8526.57, 0.0220720
8540.62, 0.0217090
8554.71, 0.0213770
8568.85, 0.0209920
8583.04, 0.0205680
8597.27, 0.0201220
8611.55, 0.0196880
8625.88, 0.0192480
8640.26, 0.0188250
8654.68, 0.0183900
8669.16, 0.0179780
8683.68, 0.0175870
8698.25, 0.0172300
8712.87, 0.0168790
8727.53, 0.0165680
8742.25, 0.0162440
8757.02, 0.0158900
8771.83, 0.0155700
8786.7, 0.0153270
8801.62, 0.0150960
8816.59, 0.0148990
8831.61, 0.0147250
8846.68, 0.0145930
8861.8, 0.0144500
8876.97, 0.0143260
8892.2, 0.0142570
8907.48, 0.0143450
8922.81, 0.0147770
8938.2, 0.0155950
8953.63, 0.0165930
8969.13, 0.0176920
8984.67, 0.0189140
9000.27, 0.0203410
9015.92, 0.0220260
9031.63, 0.0240440
9047.39, 0.0263560
9063.21, 0.0290150
9079.08, 0.0320530
9095.01, 0.0355130
9111.0, 0.0394840
9127.04, 0.0440010
9143.13, 0.0490950
9159.28, 0.0548440
9175.49, 0.0613060
9191.76, 0.0685570
9208.09, 0.0765990
9224.47, 0.0854640
9240.92, 0.0952530
9257.42, 0.106061
9273.98, 0.117831
9290.6, 0.130619
9307.28, 0.144347
9324.02, 0.158408
9340.82, 0.171361
9357.68, 0.181407
9374.6, 0.187943
9391.58, 0.191699
9408.62, 0.193769
9425.73, 0.195080
9442.9, 0.196146
9460.13, 0.197050
9477.42, 0.197780
9494.78, 0.198405
9512.2, 0.198915
9529.69, 0.199223
9547.24, 0.199328
9564.86, 0.199219
9582.54, 0.198957
9600.28, 0.198603
9618.1, 0.198199
9635.97, 0.197743
9653.92, 0.197317
9671.93, 0.196899
9690.01, 0.196429
9708.16, 0.195932
9726.37, 0.195426
9744.65, 0.194897
9763.0, 0.194255
9781.43, 0.193534
9799.92, 0.192847
9818.48, 0.192122
9837.1, 0.191412
9855.8, 0.190766
9874.58, 0.190196
9893.42, 0.189723
9912.34, 0.189403
9931.33, 0.189246
9950.39, 0.189195
9969.52, 0.189183
9988.74, 0.189383
10008.0, 0.190198
10027.4, 0.191946
10046.8, 0.194993
10066.3, 0.200110
10085.9, 0.208559
10105.6, 0.221481
10125.3, 0.237818
10145.1, 0.252868
10165.0, 0.261282
10185.0, 0.261125
10205.0, 0.254010
10225.2, 0.243285
10245.4, 0.232115
10265.7, 0.222585
10286.0, 0.215512
10306.5, 0.211109
10327.0, 0.209469
10347.6, 0.210737
10368.3, 0.214488
10389.1, 0.220046
10409.9, 0.229075
10430.9, 0.249734
10451.9, 0.286652
10473.0, 0.328060
10494.2, 0.360080
10515.5, 0.379944
10536.9, 0.390664
10558.4, 0.395643
10579.9, 0.397223
10601.5, 0.396790
10623.3, 0.394940
10645.1, 0.392180
10667.0, 0.388751
10689.0, 0.384771
10711.1, 0.380187
10733.2, 0.375020
10755.5, 0.369152
10777.9, 0.362574
10800.3, 0.355403
10822.9, 0.348000
10845.5, 0.340730
10868.2, 0.333871
10891.1, 0.327567
10914.0, 0.321923
10937.0, 0.316817
10960.2, 0.312150
10983.4, 0.307824
11006.7, 0.303786
11030.1, 0.299959
11053.6, 0.296339
11077.3, 0.292803
11101.0, 0.289381
11124.8, 0.286065
11148.7, 0.282903
11172.7, 0.279771
11196.9, 0.276527
11221.1, 0.272941
11245.4, 0.268745
11269.9, 0.263880
11294.4, 0.258337
11319.1, 0.251991
11343.9, 0.244939
11368.8, 0.237126
11393.7, 0.228301
11418.8, 0.217919
11444.0, 0.205477
11469.4, 0.191082
11494.8, 0.175704
11520.3, 0.160854
11546.0, 0.147749
11571.8, 0.136665
11597.7, 0.127465
11623.7, 0.119922
11649.8, 0.113648
11676.0, 0.108170
11702.4, 0.103187
11728.9, 0.0984530
11755.5, 0.0938160
11782.2, 0.0894800
11809.0, 0.0862890
11836.0, 0.0856220
11863.0, 0.0880600
11890.3, 0.0920100
11917.6, 0.0949810
11945.0, 0.0954610
11972.6, 0.0936050
12000.4, 0.0905000
12028.2, 0.0871480
12056.2, 0.0840090
12084.3, 0.0811590
12112.5, 0.0785270
12140.9, 0.0760730
12169.4, 0.0738220
12198.0, 0.0717630
12226.8, 0.0698600
12255.7, 0.0681620
12284.7, 0.0665730
12313.9, 0.0650590
12343.2, 0.0636600
12372.7, 0.0623510
12402.3, 0.0611660
12432.0, 0.0600470
12461.9, 0.0589110
12491.9, 0.0578710
12522.1, 0.0568600
12552.4, 0.0558710
12582.9, 0.0549820
12613.5, 0.0541620
12644.3, 0.0533310
12675.2, 0.0524950
12706.3, 0.0517180
12737.5, 0.0510210
12768.9, 0.0503260
12800.4, 0.0496810
12832.1, 0.0490960
12863.9, 0.0484960
12895.9, 0.0478720
12928.1, 0.0472090
12960.4, 0.0465140
12992.9, 0.0458900
13025.5, 0.0452630
13058.3, 0.0446060
13091.3, 0.0439840
13124.4, 0.0433600
13157.8, 0.0427020
13191.2, 0.0419880
13224.9, 0.0413360
13258.7, 0.0407850
13292.7, 0.0402520
13326.9, 0.0397200
13361.2, 0.0391850
13395.7, 0.0386890
13430.4, 0.0382130
13465.3, 0.0376800
13500.4, 0.0371380
13535.7, 0.0367010
13571.1, 0.0362460
13606.7, 0.0357050
13642.5, 0.0351240
13678.5, 0.0345540
13714.7, 0.0339830
13751.1, 0.0333940
13787.6, 0.0327620
13824.4, 0.0321320
13861.4, 0.0315150
13898.5, 0.0309020
13935.9, 0.0303240
13973.5, 0.0297900
14011.2, 0.0292360
14049.2, 0.0286740
14087.4, 0.0281470
14125.8, 0.0276390
14164.3, 0.0270480
14203.2, 0.0264350
14242.2, 0.0259360
14281.4, 0.0254790
14320.9, 0.0250070
14360.5, 0.0245360
14400.4, 0.0240700
14440.5, 0.0236510
14480.9, 0.0232320
14521.4, 0.0227720
14562.2, 0.0223460
14603.3, 0.0216620
14644.5, 0.0211540
14686.0, 0.0207430
14727.7, 0.0203010
14769.7, 0.0199420
14811.9, 0.0195390
14854.3, 0.0191680
14897.0, 0.0191040
14939.9, 0.0190850
14983.1, 0.0193500
15026.5, 0.0195550
15070.2, 0.0199870
15114.2, 0.0207790
15158.3, 0.0221010
15202.8, 0.0239590
15247.5, 0.0265510
15292.5, 0.0299340
15337.7, 0.0343730
15383.2, 0.0400700
15429.0, 0.0468620
15475.1, 0.0544380
15521.4, 0.0626850
15568.0, 0.0710040
15614.9, 0.0789390
15662.1, 0.0860930
15709.6, 0.0922380
15757.3, 0.0970460
15805.4, 0.100615
15853.7, 0.102663
15902.3, 0.103406
15951.2, 0.103019
16000.5, 0.101981
16050.0, 0.100169
16099.8, 0.0977170
16150.0, 0.0949920
16200.5, 0.0920710
16251.3, 0.0886200
16302.4, 0.0845830
16353.8, 0.0801820
16405.5, 0.0759190
16457.6, 0.0716790
16510.0, 0.0676720
16562.8, 0.0637630
16615.9, 0.0599510
16669.3, 0.0559010
16723.1, 0.0520450
16777.2, 0.0484600
16831.7, 0.0453080
16886.5, 0.0426440
16941.7, 0.0411100
16997.2, 0.0407660
17053.1, 0.0416510
17109.4, 0.0440970
17166.1, 0.0478420
17223.1, 0.0526810
17280.5, 0.0587220
17338.3, 0.0657250
17396.5, 0.0737940
17455.1, 0.0827900
17514.0, 0.0928380
17573.4, 0.103432
17633.2, 0.114051
17693.4, 0.123980
17754.0, 0.132902
17815.0, 0.140696
17876.4, 0.147490
17938.3, 0.153449
18000.5, 0.159261
18063.3, 0.165498
18126.4, 0.172740
18190.0, 0.180200
18254.1, 0.186395
18318.6, 0.189146
18383.5, 0.188754
18449.0, 0.187624
18514.9, 0.187914
18581.2, 0.190450
18648.0, 0.197127
18715.4, 0.208610
18783.2, 0.222861
18851.5, 0.236338
18920.3, 0.245655
18989.6, 0.248490
19059.4, 0.245583
19129.7, 0.239139
19200.6, 0.231502
19272.0, 0.223692
19343.9, 0.215961
19416.3, 0.208300
19489.3, 0.200822
19562.8, 0.193891
19637.0, 0.188718
19711.6, 0.186366
19786.8, 0.186406
19862.6, 0.185300
19939.0, 0.179360
20016.0, 0.168215
20093.6, 0.154036
20171.8, 0.138772
20250.6, 0.123791
20330.0, 0.109659
20410.0, 0.0965710
20490.7, 0.0849800
20572.0, 0.0755010
20654.0, 0.0687060
20736.6, 0.0656910
20819.9, 0.0672060
20903.8, 0.0725280
20988.5, 0.0796780
21073.8, 0.0863330
21159.8, 0.0919910
21246.5, 0.0961110
21334.0, 0.0976210
21422.1, 0.0960860
21511.0, 0.0921280
21600.7, 0.0871990
21691.0, 0.0833990
21782.1, 0.0825190
21874.0, 0.0870080
21966.7, 0.0972920
22060.2, 0.111881
22154.5, 0.130023
22249.6, 0.150769
22345.5, 0.170948
22442.2, 0.186916
22539.8, 0.197362
22638.2, 0.203439
22737.5, 0.207433
22837.7, 0.211945
22938.7, 0.220238
23040.7, 0.234511
23143.5, 0.253063
23247.3, 0.272220
23352.1, 0.289100
23457.7, 0.302283
23564.4, 0.311747
23672.0, 0.318443
23780.5, 0.322094
23890.1, 0.324185
24000.7, 0.325646
24112.3, 0.321559
24225.0, 0.309926
24338.7, 0.291556
24453.5, 0.269317
24569.4, 0.248132
24686.4, 0.231153
24804.5, 0.218689
24923.8, 0.210366
25044.2, 0.205097
25165.8, 0.200817
25288.6, 0.194373
25412.5, 0.184226
25537.7, 0.171392
25664.1, 0.157628
25791.8, 0.144094
25920.8, 0.132698
26051.1, 0.125962
26182.6, 0.125683
26315.5, 0.128753
26449.8, 0.131792
26585.4, 0.131890
26722.5, 0.131225
26860.9, 0.131327
27000.8, 0.134070
27142.1, 0.139279
27285.0, 0.145713
27429.4, 0.151384
27575.3, 0.155452
27722.7, 0.157767
27871.8, 0.158308
28022.4, 0.157072
28174.7, 0.154209
28328.7, 0.150577
28484.4, 0.146834
28641.7, 0.143048
28800.9, 0.139088
28961.8, 0.134355
29124.5, 0.129599
29289.0, 0.124980
29455.4, 0.120754
29623.8, 0.116442
29794.0, 0.111657
29966.3, 0.106989
30140.5, 0.102904
30316.7, 0.0985090
30495.1, 0.0938970
30675.5, 0.0898170
30858.1, 0.0856150
31042.8, 0.0820120
31229.8, 0.0790450
31419.1, 0.0758380
31610.7, 0.0736730
31804.6, 0.0723340
32000.9, 0.0724390
32199.7, 0.0732430
32400.9, 0.0761520
32604.8, 0.0821660
32811.1, 0.0904730
33020.1, 0.101838
33231.8, 0.115535
33446.2, 0.126067
33663.4, 0.134069
33883.4, 0.140049
34106.3, 0.144688
34332.1, 0.147282
34561.0, 0.147746
34792.9, 0.147384
35028.0, 0.144785
35266.3, 0.139427
35507.8, 0.133206
35752.7, 0.128247
36001.0, 0.124443
36252.8, 0.123152
36508.1, 0.122038
36767.0, 0.120316
37029.7, 0.118803
37296.1, 0.116851
37566.3, 0.114161
37840.5, 0.112131
38118.8, 0.110362
38401.2, 0.108563
38687.8, 0.106800
38978.6, 0.105217
39273.9, 0.102499
39573.7, 0.101155
39878.1, 0.100534
40187.3, 0.0985220
40501.2, 0.0964760
40820.0, 0.0956690
41144.0, 0.0954940
41473.2, 0.0947830
41807.6, 0.0935590
42147.5, 0.0924260
42493.0, 0.0914090
42844.2, 0.0899630
43201.2, 0.0886320
43564.3, 0.0872270
43933.5, 0.0854590
44309.0, 0.0852380
44691.0, 0.0850490
45079.6, 0.0843170
45475.0, 0.0842070
45877.5, 0.0836840
46287.1, 0.0828840
46704.2, 0.0818420
47128.7, 0.0817380
47561.1, 0.0831070
48001.5, 0.0823140
48450.1, 0.0805330
48907.2, 0.0794970
49373.0, 0.0777530
49847.7, 0.0777820
50331.5, 0.0775700
50825.0, 0.0767780
51328.2, 0.0761600
51841.5, 0.0759770
52365.1, 0.0758900
52899.4, 0.0754040
53444.8, 0.0751060
54001.5, 0.0748990
54570.1, 0.0742200
55150.6, 0.0734520
55743.6, 0.0730990
56349.5, 0.0727940
56968.7, 0.0728340
57601.7, 0.0733460
58248.9, 0.0732120
58910.9, 0.0734390
59588.1, 0.0737610
60281.0, 0.0738040
60990.2, 0.0741720
61716.3, 0.0740890
62459.8, 0.0735320
63221.6, 0.0726460
64002.1, 0.0727020
64802.1, 0.0730490
65622.1, 0.0725180
66463.4, 0.0718750
67326.6, 0.0735640
68212.4, 0.0763600
69121.9, 0.0770530
70056.0, 0.0751260
71015.7, 0.0729540
72002.0, 0.0714410
73016.3, 0.0706150
74059.4, 0.0716510
75132.7, 0.0746760
76237.6, 0.0808620
77375.5, 0.0857300
78547.9, 0.0899220
79756.3, 0.0934520
81002.5, 0.0954400
82288.5, 0.0959000
83615.7, 0.100762
84986.5, 0.105610
86402.9, 0.110687
87867.4, 0.115396
89382.4, 0.116242
90950.5, 0.119053
92574.6, 0.123304
94257.2, 0.122229
96002.7, 0.120109
97814.1, 0.118685
99695.1, 0.117866
101650.0, 0.120224
103683.0, 0.124906
105799.0, 0.127942
108003.0, 0.131719
110301.0, 0.133191
112699.0, 0.140690
115204.0, 0.139189
117822.0, 0.136114
120562.0, 0.138933
123433.0, 0.133617
126443.0, 0.129230
129604.0, 0.135690
132926.0, 0.138460
136424.0, 0.126538
140111.0, 0.121606
144003.0, 0.110555
148118.0, 0.104265
152474.0, 0.135188
157095.0, 0.135535
162004.0, 0.135535
167231.0, 0.135535
172805.0, 0.135535
178764.0, 0.135535
185148.0, 0.135535
192005.0, 0.135535
199390.0, 0.135535
207366.0, 0.135535
216006.0, 0.135535
