Database of Origin, USGS Spectral Database
Sample Description, See USGS database for additional info
Date Added,2016-08-03 21:10:38.387987

Data ID,USGS_cal05          
Sample ID, calcite_ws272.4172
Mineral Name, calcite
Material Class,Carbonate

Wavelength
1582.95, 0.546358
1583.43, 0.546705
1583.92, 0.546860
1584.4, 0.546821
1584.88, 0.547208
1585.37, 0.547324
1585.85, 0.547440
1586.34, 0.547594
1586.82, 0.547671
1587.31, 0.547671
1587.8, 0.547749
1588.28, 0.548212
1588.77, 0.548328
1589.26, 0.548289
1589.74, 0.548328
1590.23, 0.548444
1590.72, 0.548753
1591.21, 0.548714
1591.7, 0.548791
1592.19, 0.548907
1592.67, 0.549139
1593.16, 0.549255
1593.65, 0.549371
1594.14, 0.549603
1594.63, 0.549873
1595.12, 0.549989
1595.61, 0.550066
1596.11, 0.550182
1596.6, 0.550105
1597.09, 0.550143
1597.58, 0.550530
1598.08, 0.550761
1598.57, 0.550877
1599.06, 0.550877
1599.55, 0.551148
1600.05, 0.551148
1600.54, 0.551302
1601.04, 0.551495
1601.53, 0.551766
1602.03, 0.551843
1602.52, 0.551920
1603.02, 0.551843
1603.51, 0.552113
1604.01, 0.552461
1604.5, 0.552538
1605.0, 0.552732
1605.5, 0.552963
1606.0, 0.553272
1606.49, 0.553388
1606.99, 0.553427
1607.49, 0.553543
1607.99, 0.553620
1608.49, 0.553736
1608.99, 0.553774
1609.49, 0.554122
1609.99, 0.554045
1610.49, 0.554122
1610.99, 0.554277
1611.49, 0.554663
1611.99, 0.554895
1612.49, 0.555011
1612.99, 0.554972
1613.49, 0.555126
1614.0, 0.555165
1614.5, 0.555242
1615.0, 0.555474
1615.51, 0.555706
1616.01, 0.555860
1616.51, 0.556092
1617.02, 0.556131
1617.52, 0.556517
1618.03, 0.556710
1618.53, 0.556672
1619.04, 0.556672
1619.54, 0.556672
1620.05, 0.556749
1620.55, 0.557058
1621.06, 0.557135
1621.57, 0.557406
1622.08, 0.557406
1622.58, 0.557521
1623.09, 0.557367
1623.6, 0.557753
1624.11, 0.558101
1624.62, 0.558371
1625.13, 0.558371
1625.64, 0.558410
1626.15, 0.558564
1626.66, 0.558680
1627.17, 0.558796
1627.68, 0.558989
1628.19, 0.559028
1628.7, 0.559376
1629.21, 0.559453
1629.72, 0.559530
1630.24, 0.559723
1630.75, 0.559800
1631.26, 0.559800
1631.78, 0.559839
1632.29, 0.559916
1632.8, 0.560148
1633.32, 0.560341
1633.83, 0.560534
1634.35, 0.560496
1634.86, 0.560805
1635.38, 0.560959
1635.9, 0.561075
1636.41, 0.561037
1636.93, 0.561152
1637.45, 0.561539
1637.96, 0.561655
1638.48, 0.561732
1639.0, 0.561655
1639.52, 0.561577
1640.04, 0.561886
1640.56, 0.562041
1641.08, 0.562311
1641.59, 0.562195
1642.11, 0.562234
1642.63, 0.562350
1643.16, 0.562505
1643.68, 0.562620
1644.2, 0.562814
1644.72, 0.562814
1645.24, 0.562929
1645.76, 0.562891
1646.29, 0.563007
1646.81, 0.563161
1647.33, 0.563354
1647.86, 0.563432
1648.38, 0.563470
1648.9, 0.563663
1649.43, 0.563779
1649.95, 0.563895
1650.48, 0.563895
1651.0, 0.563972
1651.53, 0.564088
1652.06, 0.564397
1652.58, 0.564629
1653.11, 0.564668
1653.64, 0.564822
1654.17, 0.564861
1654.69, 0.565015
1655.22, 0.564977
1655.75, 0.564977
1656.28, 0.564977
1656.81, 0.565054
1657.34, 0.565093
1657.87, 0.565363
1658.4, 0.565479
1658.93, 0.565556
1659.46, 0.565556
1659.99, 0.565711
1660.52, 0.565865
1661.05, 0.565942
1661.59, 0.566058
1662.12, 0.566136
1662.65, 0.566174
1663.19, 0.566406
1663.72, 0.566483
1664.26, 0.566638
1664.79, 0.566638
1665.32, 0.566754
1665.86, 0.566792
1666.39, 0.567217
1666.93, 0.567217
1667.47, 0.567256
1668.0, 0.567256
1668.54, 0.567333
1669.08, 0.567449
1669.61, 0.567526
1670.15, 0.567372
1670.69, 0.567526
1671.23, 0.567719
1671.77, 0.567874
1672.31, 0.567912
1672.85, 0.567990
1673.39, 0.568183
1673.93, 0.568222
1674.47, 0.568376
1675.01, 0.568569
1675.55, 0.568608
1676.09, 0.568608
1676.64, 0.568724
1677.18, 0.569033
1677.72, 0.569226
1678.26, 0.569380
1678.81, 0.569458
1679.35, 0.569651
1679.89, 0.569767
1680.44, 0.569728
1680.98, 0.569728
1681.53, 0.569921
1682.07, 0.570153
1682.62, 0.570191
1683.17, 0.570230
1683.71, 0.570500
1684.26, 0.570462
1684.81, 0.570655
1685.36, 0.570887
1685.9, 0.571041
1686.45, 0.571080
1687.0, 0.571196
1687.55, 0.571273
1688.1, 0.571389
1688.65, 0.571466
1689.2, 0.571428
1689.75, 0.571582
1690.3, 0.571930
1690.85, 0.572123
1691.41, 0.572084
1691.96, 0.572162
1692.51, 0.572432
1693.06, 0.572625
1693.61, 0.572780
1694.17, 0.572586
1694.72, 0.572664
1695.28, 0.572780
1695.83, 0.573050
1696.39, 0.573205
1696.94, 0.573359
1697.5, 0.573282
1698.05, 0.573243
1698.61, 0.573166
1699.17, 0.573398
1699.72, 0.573591
1700.28, 0.573861
1700.84, 0.573938
1701.4, 0.574054
1701.95, 0.573938
1702.51, 0.574132
1703.07, 0.574286
1703.63, 0.574363
1704.19, 0.574286
1704.75, 0.574441
1705.31, 0.574363
1705.88, 0.574479
1706.44, 0.574518
1707.0, 0.574788
1707.56, 0.574866
1708.12, 0.574904
1708.69, 0.574904
1709.25, 0.575097
1709.81, 0.575136
1710.38, 0.575252
1710.94, 0.575290
1711.51, 0.575445
1712.07, 0.575406
1712.64, 0.575561
1713.2, 0.575522
1713.77, 0.575638
1714.34, 0.575754
1714.9, 0.575986
1715.47, 0.576140
1716.04, 0.576217
1716.61, 0.576179
1717.18, 0.576179
1717.74, 0.576140
1718.31, 0.576372
1718.88, 0.576411
1719.45, 0.576372
1720.02, 0.576295
1720.59, 0.576449
1721.17, 0.576604
1721.74, 0.576681
1722.31, 0.576758
1722.88, 0.576836
1723.45, 0.576874
1724.03, 0.576951
1724.6, 0.576990
1725.18, 0.576951
1725.75, 0.576913
1726.33, 0.577183
1726.9, 0.577260
1727.48, 0.577376
1728.05, 0.577531
1728.63, 0.577569
1729.2, 0.577531
1729.78, 0.577531
1730.36, 0.577492
1730.94, 0.577569
1731.51, 0.577763
1732.09, 0.577840
1732.67, 0.577917
1733.25, 0.578110
1733.83, 0.578033
1734.41, 0.578110
1734.99, 0.578226
1735.57, 0.578265
1736.15, 0.578226
1736.73, 0.578381
1737.32, 0.578497
1737.9, 0.578574
1738.48, 0.578612
1739.07, 0.578767
1739.65, 0.578883
1740.23, 0.578960
1740.82, 0.579076
1741.4, 0.579231
1741.99, 0.579424
1742.57, 0.579462
1743.16, 0.579501
1743.74, 0.579617
1744.33, 0.579617
1744.92, 0.579617
1745.51, 0.579810
1746.09, 0.580003
1746.68, 0.580312
1747.27, 0.580273
1747.86, 0.580119
1748.45, 0.580389
1749.04, 0.580428
1749.63, 0.580621
1750.22, 0.580776
1750.81, 0.580814
1751.4, 0.580814
1751.99, 0.580814
1752.59, 0.580969
1753.18, 0.581200
1753.77, 0.581200
1754.37, 0.581278
1754.96, 0.581316
1755.56, 0.581471
1756.15, 0.581625
1756.74, 0.581857
1757.34, 0.581741
1757.94, 0.581857
1758.53, 0.581896
1759.13, 0.582050
1759.73, 0.582089
1760.32, 0.582050
1760.92, 0.582205
1761.52, 0.582359
1762.12, 0.582591
1762.72, 0.582862
1763.32, 0.582977
1763.92, 0.583016
1764.52, 0.583171
1765.12, 0.583441
1765.72, 0.583480
1766.32, 0.583673
1766.92, 0.583789
1767.53, 0.584020
1768.13, 0.584020
1768.73, 0.584175
1769.34, 0.584329
1769.94, 0.584407
1770.55, 0.584484
1771.15, 0.584754
1771.76, 0.584832
1772.36, 0.584870
1772.97, 0.584870
1773.57, 0.585025
1774.18, 0.585102
1774.79, 0.585334
1775.4, 0.585411
1776.0, 0.585450
1776.61, 0.585450
1777.22, 0.585450
1777.83, 0.585566
1778.44, 0.585566
1779.05, 0.585681
1779.66, 0.585759
1780.27, 0.585759
1780.88, 0.585913
1781.5, 0.585797
1782.11, 0.585913
1782.72, 0.586068
1783.33, 0.586068
1783.95, 0.586145
1784.56, 0.586184
1785.18, 0.585952
1785.79, 0.586068
1786.41, 0.586184
1787.02, 0.586299
1787.64, 0.586261
1788.26, 0.586338
1788.87, 0.586454
1789.49, 0.586724
1790.11, 0.586724
1790.73, 0.586879
1791.35, 0.586840
1791.96, 0.586802
1792.58, 0.586879
1793.21, 0.586995
1793.83, 0.587111
1794.45, 0.587265
1795.07, 0.586995
1795.69, 0.587072
1796.31, 0.587149
1796.93, 0.587342
1797.56, 0.587265
1798.18, 0.587381
1798.8, 0.587458
1799.43, 0.587458
1800.05, 0.587420
1800.68, 0.587497
1801.3, 0.587497
1801.93, 0.587613
1802.56, 0.587536
1803.18, 0.587574
1803.81, 0.587651
1804.44, 0.587806
1805.07, 0.587729
1805.7, 0.587806
1806.33, 0.587960
1806.95, 0.588154
1807.58, 0.588115
1808.22, 0.588154
1808.85, 0.588076
1809.48, 0.588308
1810.11, 0.588347
1810.74, 0.588270
1811.38, 0.588115
1812.01, 0.588231
1812.64, 0.588424
1813.28, 0.588463
1813.91, 0.588463
1814.55, 0.588579
1815.18, 0.588540
1815.82, 0.588579
1816.45, 0.588501
1817.09, 0.588617
1817.73, 0.588733
1818.36, 0.588965
1819.0, 0.589081
1819.64, 0.589119
1820.28, 0.589197
1820.92, 0.589158
1821.56, 0.589158
1822.2, 0.589274
1822.84, 0.589197
1823.48, 0.589197
1824.12, 0.589158
1824.76, 0.589312
1825.41, 0.589158
1826.05, 0.589467
1826.69, 0.589390
1827.34, 0.589312
1827.98, 0.589467
1828.63, 0.589776
1829.27, 0.589583
1829.92, 0.589583
1830.56, 0.589737
1831.21, 0.589892
1831.86, 0.589660
1832.5, 0.589583
1833.15, 0.589583
1833.8, 0.589699
1834.45, 0.590008
1835.1, 0.590201
1835.75, 0.590162
1836.4, 0.590162
1837.05, 0.589969
1837.7, 0.590124
1838.35, 0.590124
1839.01, 0.590008
1839.66, 0.590278
1840.31, 0.590240
1840.96, 0.590085
1841.62, 0.590317
1842.27, 0.590433
1842.93, 0.590240
1843.58, 0.590124
1844.24, 0.590008
1844.9, 0.589930
1845.55, 0.590046
1846.21, 0.590355
1846.87, 0.590780
1847.53, 0.590664
1848.18, 0.590626
1848.84, 0.590587
1849.5, 0.590433
1850.16, 0.590278
1850.82, 0.590433
1851.48, 0.590394
1852.14, 0.590510
1852.81, 0.590664
1853.47, 0.590703
1854.13, 0.590742
1854.8, 0.590626
1855.46, 0.590394
1856.12, 0.590510
1856.79, 0.590742
1857.45, 0.590510
1858.12, 0.590278
1858.79, 0.590433
1859.45, 0.590703
1860.12, 0.590858
1860.79, 0.590549
1861.46, 0.590278
1862.12, 0.590201
1862.79, 0.590278
1863.46, 0.590240
1864.13, 0.590278
1864.8, 0.590124
1865.48, 0.589930
1866.15, 0.589815
1866.82, 0.589699
1867.49, 0.589892
1868.16, 0.589815
1868.84, 0.589312
1869.51, 0.589158
1870.19, 0.589158
1870.86, 0.589467
1871.54, 0.589042
1872.21, 0.588694
1872.89, 0.588810
1873.56, 0.588617
1874.24, 0.588192
1874.92, 0.587999
1875.6, 0.587690
1876.28, 0.587536
1876.96, 0.587690
1877.64, 0.587690
1878.32, 0.587613
1879.0, 0.587806
1879.68, 0.587883
1880.36, 0.588115
1881.04, 0.588385
1881.73, 0.588617
1882.41, 0.588810
1883.09, 0.589042
1883.78, 0.589351
1884.46, 0.589622
1885.15, 0.589699
1885.83, 0.589699
1886.52, 0.589892
1887.21, 0.590162
1887.89, 0.590201
1888.58, 0.590085
1889.27, 0.590240
1889.96, 0.590703
1890.65, 0.590819
1891.34, 0.590664
1892.03, 0.590664
1892.72, 0.590742
1893.41, 0.590664
1894.1, 0.590858
1894.79, 0.590742
1895.49, 0.590703
1896.18, 0.590549
1896.87, 0.590626
1897.57, 0.590664
1898.26, 0.590742
1898.96, 0.590858
1899.65, 0.591167
1900.35, 0.591012
1901.05, 0.590780
1901.74, 0.590549
1902.44, 0.590703
1903.14, 0.590858
1903.84, 0.590664
1904.54, 0.590626
1905.24, 0.590935
1905.94, 0.590896
1906.64, 0.590858
1907.34, 0.590703
1908.04, 0.590510
1908.75, 0.590471
1909.45, 0.590317
1910.15, 0.590317
1910.86, 0.590510
1911.56, 0.590626
1912.27, 0.590703
1912.97, 0.590896
1913.68, 0.591205
1914.39, 0.591012
1915.09, 0.590935
1915.8, 0.590896
1916.51, 0.590896
1917.22, 0.590780
1917.93, 0.590742
1918.64, 0.590819
1919.35, 0.591167
1920.06, 0.591514
1920.77, 0.591630
1921.48, 0.591321
1922.19, 0.591051
1922.91, 0.591051
1923.62, 0.591244
1924.33, 0.591360
1925.05, 0.591282
1925.76, 0.591205
1926.48, 0.591360
1927.19, 0.591360
1927.91, 0.591360
1928.63, 0.591437
1929.35, 0.591476
1930.07, 0.591553
1930.78, 0.591592
1931.5, 0.591630
1932.22, 0.591746
1932.94, 0.591746
1933.66, 0.591785
1934.39, 0.591669
1935.11, 0.591669
1935.83, 0.591746
1936.55, 0.591862
1937.28, 0.591901
1938.0, 0.591862
1938.73, 0.591823
1939.45, 0.591939
1940.18, 0.591901
1940.9, 0.591823
1941.63, 0.591939
1942.36, 0.592210
1943.09, 0.592055
1943.81, 0.592016
1944.54, 0.592132
1945.27, 0.592171
1946.0, 0.592016
1946.73, 0.592055
1947.47, 0.592016
1948.2, 0.592132
1948.93, 0.592055
1949.66, 0.591939
1950.4, 0.591978
1951.13, 0.592132
1951.86, 0.591901
1952.6, 0.591862
1953.34, 0.591823
1954.07, 0.591939
1954.81, 0.591746
1955.55, 0.591669
1956.29, 0.591669
1957.02, 0.591785
1957.76, 0.591630
1958.5, 0.591553
1959.24, 0.591553
1959.98, 0.591592
1960.72, 0.591437
1961.47, 0.591437
1962.21, 0.591244
1962.95, 0.591205
1963.7, 0.591205
1964.44, 0.591244
1965.18, 0.591089
1965.93, 0.591051
1966.67, 0.591167
1967.42, 0.591205
1968.17, 0.591128
1968.92, 0.591089
1969.66, 0.590935
1970.41, 0.590858
1971.16, 0.590780
1971.91, 0.590703
1972.66, 0.590587
1973.41, 0.590664
1974.16, 0.590664
1974.92, 0.590626
1975.67, 0.590394
1976.42, 0.590433
1977.18, 0.590549
1977.93, 0.590626
1978.69, 0.590510
1979.44, 0.590510
1980.2, 0.590433
1980.95, 0.590433
1981.71, 0.590317
1982.47, 0.590124
1983.23, 0.590085
1983.99, 0.590201
1984.74, 0.590317
1985.51, 0.590162
1986.27, 0.589930
1987.03, 0.589930
1987.79, 0.589660
1988.55, 0.589467
1989.32, 0.589274
1990.08, 0.589235
1990.84, 0.589042
1991.61, 0.588733
1992.37, 0.588501
1993.14, 0.588540
1993.9, 0.588540
1994.67, 0.588501
1995.44, 0.588192
1996.21, 0.588115
1996.98, 0.588154
1997.75, 0.588192
1998.52, 0.588308
1999.29, 0.588424
2000.06, 0.588385
2000.83, 0.588347
2001.6, 0.588656
2002.38, 0.589119
2003.15, 0.589351
2003.93, 0.589622
2004.7, 0.590008
2005.48, 0.590394
2006.25, 0.590587
2007.03, 0.590742
2007.81, 0.590819
2008.58, 0.591167
2009.36, 0.591360
2010.14, 0.591592
2010.92, 0.591630
2011.7, 0.591707
2012.48, 0.591862
2013.26, 0.592132
2014.05, 0.592325
2014.83, 0.592519
2015.61, 0.592596
2016.4, 0.592866
2017.18, 0.592828
2017.97, 0.592905
2018.75, 0.592943
2019.54, 0.593059
2020.32, 0.593137
2021.11, 0.593368
2021.9, 0.593330
2022.69, 0.593407
2023.48, 0.593523
2024.27, 0.593639
2025.06, 0.593755
2025.85, 0.594064
2026.64, 0.594064
2027.44, 0.594180
2028.23, 0.594218
2029.02, 0.594373
2029.82, 0.594373
2030.61, 0.594411
2031.41, 0.594450
2032.2, 0.594643
2033.0, 0.594682
2033.8, 0.594566
2034.6, 0.594720
2035.4, 0.594914
2036.2, 0.594875
2037.0, 0.594914
2037.8, 0.595068
2038.6, 0.595029
2039.4, 0.594991
2040.2, 0.595068
2041.01, 0.595029
2041.81, 0.595145
2042.61, 0.595029
2043.42, 0.595184
2044.22, 0.595261
2045.03, 0.595338
2045.84, 0.595377
2046.65, 0.595107
2047.46, 0.594991
2048.26, 0.595184
2049.07, 0.595338
2049.88, 0.595454
2050.69, 0.595338
2051.51, 0.595338
2052.32, 0.595300
2053.13, 0.595493
2053.94, 0.595416
2054.76, 0.595493
2055.57, 0.595416
2056.39, 0.595300
2057.2, 0.595300
2058.02, 0.595338
2058.84, 0.595145
2059.66, 0.595107
2060.48, 0.595068
2061.29, 0.595107
2062.11, 0.595223
2062.94, 0.595261
2063.76, 0.595416
2064.58, 0.595454
2065.4, 0.595068
2066.22, 0.594952
2067.05, 0.594914
2067.87, 0.594952
2068.7, 0.594875
2069.52, 0.594914
2070.35, 0.594914
2071.18, 0.594991
2072.0, 0.594652
2072.83, 0.594567
2073.66, 0.594101
2074.49, 0.594694
2075.32, 0.595203
2076.15, 0.595033
2076.98, 0.594991
2077.82, 0.594949
2078.65, 0.594737
2079.48, 0.594737
2080.32, 0.594525
2081.15, 0.594694
2081.99, 0.595118
2082.83, 0.594991
2083.66, 0.594398
2084.5, 0.594144
2085.34, 0.594017
2086.18, 0.593974
2087.02, 0.593974
2087.86, 0.593847
2088.7, 0.593593
2089.54, 0.594101
2090.39, 0.594017
2091.23, 0.593720
2092.07, 0.593720
2092.92, 0.593466
2093.76, 0.593551
2094.61, 0.593551
2095.45, 0.593593
2096.3, 0.593381
2097.15, 0.592915
2098.0, 0.592831
2098.85, 0.593000
2099.7, 0.592407
2100.55, 0.592365
2101.4, 0.592576
2102.25, 0.592831
2103.1, 0.592534
2103.96, 0.592153
2104.81, 0.592280
2105.67, 0.592449
2106.52, 0.591772
2107.38, 0.591814
2108.24, 0.591814
2109.09, 0.591772
2109.95, 0.591729
2110.81, 0.591899
2111.67, 0.591772
2112.53, 0.591348
2113.39, 0.591517
2114.25, 0.591687
2115.12, 0.591263
2115.98, 0.590924
2116.84, 0.590882
2117.71, 0.590797
2118.58, 0.590967
2119.44, 0.590840
2120.31, 0.590713
2121.18, 0.590755
2122.04, 0.590797
2122.91, 0.590755
2123.78, 0.590797
2124.65, 0.591051
2125.52, 0.591009
2126.4, 0.590797
2127.27, 0.590840
2128.14, 0.590670
2129.02, 0.590670
2129.89, 0.590628
2130.77, 0.590501
2131.64, 0.590374
2132.52, 0.590543
2133.4, 0.590585
2134.27, 0.590289
2135.15, 0.590035
2136.03, 0.589950
2136.91, 0.589823
2137.79, 0.589823
2138.68, 0.589908
2139.56, 0.589611
2140.44, 0.589399
2141.33, 0.589145
2142.21, 0.588806
2143.1, 0.588933
2143.99, 0.588806
2144.87, 0.588679
2145.76, 0.588637
2146.65, 0.588552
2147.54, 0.588298
2148.43, 0.587917
2149.32, 0.588086
2150.21, 0.588129
2151.1, 0.587874
2151.99, 0.587578
2152.89, 0.587620
2153.78, 0.587917
2154.68, 0.588044
2155.57, 0.587578
2156.47, 0.587451
2157.37, 0.587536
2158.27, 0.588044
2159.16, 0.587917
2160.06, 0.587451
2160.96, 0.587620
2161.86, 0.588086
2162.77, 0.588510
2163.67, 0.588425
2164.57, 0.588129
2165.48, 0.588129
2166.38, 0.588510
2167.29, 0.588637
2168.2, 0.588467
2169.1, 0.588806
2170.01, 0.588933
2170.92, 0.589230
2171.83, 0.589611
2172.74, 0.589865
2173.65, 0.589823
2174.56, 0.589526
2175.47, 0.589526
2176.39, 0.589950
2177.3, 0.590289
2178.22, 0.590119
2179.13, 0.589908
2180.05, 0.590204
2180.96, 0.590289
2181.88, 0.590247
2182.8, 0.590035
2183.72, 0.590077
2184.64, 0.590162
2185.56, 0.590670
2186.48, 0.590416
2187.41, 0.590204
2188.33, 0.590077
2189.25, 0.590247
2190.18, 0.590247
2191.1, 0.590374
2192.03, 0.590416
2192.96, 0.589950
2193.89, 0.589950
2194.82, 0.590119
2195.74, 0.589992
2196.68, 0.589865
2197.61, 0.589738
2198.54, 0.589823
2199.47, 0.589781
2200.4, 0.589696
2201.34, 0.589654
2202.28, 0.589315
2203.21, 0.589230
2204.15, 0.589230
2205.08, 0.589060
2206.02, 0.588933
2206.96, 0.588891
2207.9, 0.588594
2208.84, 0.588552
2209.78, 0.588340
2210.73, 0.588213
2211.67, 0.588044
2212.61, 0.588129
2213.56, 0.587917
2214.5, 0.587408
2215.45, 0.587324
2216.4, 0.587366
2217.35, 0.587112
2218.3, 0.587070
2219.24, 0.587197
2220.2, 0.586942
2221.15, 0.586392
2222.1, 0.586011
2223.05, 0.585629
2224.0, 0.585333
2224.96, 0.585587
2225.91, 0.585502
2226.87, 0.585375
2227.83, 0.584867
2228.79, 0.584613
2229.74, 0.584401
2230.7, 0.584062
2231.66, 0.583935
2232.63, 0.583723
2233.59, 0.583554
2234.55, 0.583045
2235.51, 0.582833
2236.48, 0.582749
2237.44, 0.582579
2238.41, 0.582029
2239.38, 0.581902
2240.34, 0.581732
2241.31, 0.581266
2242.28, 0.581012
2243.25, 0.580631
2244.22, 0.580843
2245.19, 0.580546
2246.17, 0.579911
2247.14, 0.579868
2248.12, 0.579826
2249.09, 0.579445
2250.07, 0.578809
2251.04, 0.578555
2252.02, 0.578174
2253.0, 0.577750
2253.98, 0.577369
2254.96, 0.577242
2255.94, 0.576903
2256.92, 0.576437
2257.91, 0.576014
2258.89, 0.575548
2259.88, 0.575082
2260.86, 0.574912
2261.85, 0.574658
2262.83, 0.574404
2263.82, 0.574023
2264.81, 0.573430
2265.8, 0.572964
2266.79, 0.572540
2267.78, 0.572116
2268.78, 0.572074
2269.77, 0.571354
2270.76, 0.570464
2271.76, 0.570337
2272.75, 0.570168
2273.75, 0.569321
2274.75, 0.568728
2275.75, 0.568007
2276.75, 0.567372
2277.75, 0.566737
2278.75, 0.566271
2279.75, 0.565678
2280.75, 0.564957
2281.76, 0.563856
2282.76, 0.562967
2283.77, 0.562289
2284.77, 0.561696
2285.78, 0.560764
2286.79, 0.560086
2287.8, 0.559705
2288.81, 0.559070
2289.82, 0.558985
2290.83, 0.558392
2291.84, 0.557714
2292.86, 0.557375
2293.87, 0.557079
2294.89, 0.556570
2295.91, 0.556147
2296.92, 0.555638
2297.94, 0.555257
2298.96, 0.554749
2299.98, 0.554240
2301.0, 0.554325
2302.02, 0.553944
2303.04, 0.553690
2304.07, 0.553436
2305.09, 0.553097
2306.12, 0.552546
2307.15, 0.552377
2308.17, 0.552080
2309.2, 0.552080
2310.23, 0.551868
2311.26, 0.551741
2312.29, 0.551360
2313.32, 0.551063
2314.35, 0.550386
2315.39, 0.549962
2316.42, 0.549369
2317.46, 0.548903
2318.5, 0.548352
2319.53, 0.547548
2320.57, 0.546870
2321.61, 0.545768
2322.65, 0.544879
2323.69, 0.544201
2324.73, 0.543100
2325.78, 0.541956
2326.82, 0.540685
2327.86, 0.539584
2328.91, 0.538525
2329.96, 0.537466
2331.01, 0.536237
2332.05, 0.534839
2333.1, 0.533780
2334.15, 0.532976
2335.21, 0.532001
2336.26, 0.531069
2337.31, 0.530730
2338.36, 0.530222
2339.42, 0.529968
2340.48, 0.529926
2341.53, 0.529968
2342.59, 0.530053
2343.65, 0.530561
2344.71, 0.531408
2345.77, 0.532044
2346.83, 0.532891
2347.9, 0.534119
2348.96, 0.535560
2350.02, 0.537296
2351.09, 0.539075
2352.16, 0.540431
2353.23, 0.542125
2354.29, 0.544201
2355.36, 0.546404
2356.43, 0.548098
2357.51, 0.550004
2358.58, 0.552038
2359.65, 0.554113
2360.73, 0.556358
2361.8, 0.558392
2362.88, 0.560552
2363.96, 0.562712
2365.03, 0.564237
2366.11, 0.565593
2367.19, 0.567033
2368.27, 0.568516
2369.36, 0.569660
2370.44, 0.570380
2371.53, 0.571227
2372.61, 0.571905
2373.7, 0.572582
2374.78, 0.573260
2375.87, 0.573641
2376.96, 0.573980
2378.05, 0.574404
2379.14, 0.574616
2380.24, 0.574955
2381.33, 0.575463
2382.42, 0.575590
2383.52, 0.575420
2384.61, 0.575759
2385.71, 0.575886
2386.81, 0.576141
2387.91, 0.576098
2389.01, 0.575929
2390.11, 0.575886
2391.22, 0.575759
2392.32, 0.575802
2393.42, 0.575759
2394.53, 0.575336
2395.64, 0.575293
2396.74, 0.575632
2397.85, 0.575548
2398.96, 0.575166
2400.07, 0.574785
2401.18, 0.574785
2402.3, 0.574743
2403.41, 0.574955
2404.52, 0.574870
2405.64, 0.574912
2406.76, 0.574870
2407.88, 0.574997
2408.99, 0.574997
2410.11, 0.574955
2411.23, 0.574785
2412.36, 0.574658
2413.48, 0.574531
2414.6, 0.574573
2415.73, 0.574489
2416.85, 0.574234
2417.98, 0.573768
2419.11, 0.573387
2420.24, 0.573218
2421.37, 0.572964
2422.5, 0.572837
2423.64, 0.572159
2424.77, 0.571735
2425.9, 0.571354
2427.04, 0.570888
2428.18, 0.570464
2429.31, 0.569998
2430.45, 0.569363
2431.59, 0.568982
2432.73, 0.568601
2433.88, 0.567965
2435.02, 0.567499
2436.16, 0.566821
2437.31, 0.566144
2438.45, 0.565678
2439.6, 0.565127
2440.75, 0.564788
2441.9, 0.564026
2443.05, 0.563433
2444.2, 0.562628
2445.35, 0.561992
2446.51, 0.561442
2447.67, 0.560764
2448.82, 0.560256
2449.98, 0.559620
2451.14, 0.558731
2452.3, 0.557841
2453.46, 0.557163
2454.62, 0.556231
2455.78, 0.555638
2456.94, 0.555045
2458.11, 0.553774
2459.28, 0.552673
2460.44, 0.551487
2461.61, 0.550428
2462.78, 0.549030
2463.95, 0.547802
2465.12, 0.546573
2466.3, 0.545429
2467.47, 0.544074
2468.65, 0.542761
2469.82, 0.541490
2471.0, 0.539753
2472.18, 0.537889
2473.36, 0.536449
2474.54, 0.535178
2475.72, 0.533780
2476.9, 0.532256
2478.08, 0.530942
2479.27, 0.529756
2480.46, 0.528274
2481.64, 0.526960
2482.83, 0.525859
2484.02, 0.524800
2485.21, 0.523783
2486.4, 0.522767
2487.6, 0.521835
2488.79, 0.520945
2489.99, 0.520225
2491.18, 0.519590
2492.38, 0.518954
2493.58, 0.518573
2494.78, 0.518361
2495.98, 0.517768
2497.18, 0.517345
2498.39, 0.516836
2499.59, 0.516625
2500.8, 0.516201
2502.01, 0.515904
2503.21, 0.515227
2504.42, 0.514634
2505.63, 0.514083
2506.84, 0.514041
2508.06, 0.513659
2509.27, 0.513109
2510.49, 0.512177
2511.7, 0.511668
2512.92, 0.511118
2514.14, 0.510186
2515.36, 0.509084
2516.58, 0.508025
2517.8, 0.506797
2519.03, 0.505357
2520.25, 0.503959
2521.48, 0.502603
2522.7, 0.500485
2523.93, 0.498071
2525.16, 0.495826
2526.39, 0.493496
2527.62, 0.491208
2528.86, 0.488921
2530.09, 0.486083
2531.33, 0.483372
2532.56, 0.481381
2533.8, 0.480491
2535.04, 0.478797
2536.28, 0.477992
2537.52, 0.478839
2538.76, 0.479729
2540.01, 0.480873
2541.25, 0.481889
2542.5, 0.482821
2543.75, 0.486041
2544.99, 0.490361
2546.24, 0.494047
2547.49, 0.497139
2548.75, 0.501799
2550.0, 0.505653
2551.26, 0.508703
2552.51, 0.512600
2553.77, 0.518743
2555.03, 0.524292
2556.29, 0.528401
2557.55, 0.532128
2558.81, 0.533992
2560.08, 0.532594
2561.34, 0.532128
2562.61, 0.534924
2563.88, 0.538186
2565.14, 0.543820
2566.41, 0.549157
2567.68, 0.549538
2568.96, 0.547124
2570.23, 0.549708
2571.51, 0.552334
2572.78, 0.548183
2574.06, 0.550894
2575.34, 0.553393
2576.62, 0.552038
2577.9, 0.555299
2579.18, 0.557417
2580.47, 0.554791
2581.75, 0.554029
2583.04, 0.549200
2584.32, 0.550343
2585.61, 0.555045
2586.9, 0.553478
2588.2, 0.555342
2589.49, 0.558688
2590.78, 0.561781
2592.08, 0.559747
2593.37, 0.546446
2594.67, 0.536788
2595.97, 0.548945
2597.27, 0.561145
2598.57, 0.565593
2599.88, 0.564703
2601.18, 0.562374
2602.49, 0.560849
2603.79, 0.557121
2605.1, 0.552800
2606.41, 0.556655
2607.72, 0.560976
2609.03, 0.562246
2610.35, 0.564407
2611.66, 0.565932
2612.98, 0.565424
2614.3, 0.565551
2615.62, 0.558942
2616.94, 0.556104
2618.26, 0.561230
2619.58, 0.557375
2620.91, 0.559366
2622.23, 0.567245
2623.56, 0.568728
2624.89, 0.565169
2626.22, 0.559239
2627.55, 0.562755
2628.88, 0.560425
2630.21, 0.554579
2631.55, 0.561103
2632.89, 0.564237
2634.22, 0.564830
2635.56, 0.567923
2636.9, 0.568558
2638.25, 0.568558
2639.59, 0.568007
2640.93, 0.567203
2642.28, 0.566652
2643.63, 0.566694
2644.98, 0.564110
2646.33, 0.564703
2647.68, 0.566779
2649.03, 0.567372
2650.39, 0.565296
2651.74, 0.561230
2653.1, 0.561272
2654.46, 0.562374
2655.82, 0.562543
2657.18, 0.564449
2658.54, 0.561145
2659.9, 0.559324
2661.27, 0.559959
2662.64, 0.559493
2664.01, 0.550428
2665.38, 0.542846
2666.74, 0.543820
2668.12, 0.549581
2669.49, 0.540982
2670.87, 0.541236
2672.24, 0.553774
2673.62, 0.555426
2675.0, 0.549793
2676.38, 0.544201
2677.76, 0.545218
2679.15, 0.546827
2680.54, 0.552334
2681.92, 0.552546
2683.31, 0.550004
2684.7, 0.549411
2686.09, 0.548649
2687.48, 0.548776
2688.88, 0.548988
2690.27, 0.548479
2691.67, 0.544455
2693.07, 0.536492
2694.47, 0.534797
2695.87, 0.538271
2697.27, 0.541575
2698.67, 0.541448
2700.08, 0.537593
2701.49, 0.535433
2702.9, 0.537042
2704.31, 0.536661
2705.72, 0.535602
2707.13, 0.532679
2708.54, 0.527045
2709.96, 0.520734
2711.38, 0.521623
2712.8, 0.528613
2714.22, 0.529926
2715.64, 0.528613
2717.06, 0.525563
2718.49, 0.519886
2719.91, 0.509974
2721.34, 0.512855
2722.77, 0.514845
2724.2, 0.510101
2725.63, 0.513998
2727.07, 0.518870
2728.5, 0.519590
2729.94, 0.518488
2731.38, 0.517260
2732.82, 0.513998
2734.26, 0.508619
2735.7, 0.509084
2737.15, 0.508195
2738.59, 0.499172
2740.04, 0.494555
2741.49, 0.498283
2742.94, 0.504001
2744.39, 0.505314
2745.84, 0.504552
2747.3, 0.503366
2748.76, 0.501841
2750.21, 0.499681
2751.67, 0.497393
2753.14, 0.493326
2754.6, 0.483499
2756.06, 0.483457
2757.53, 0.490107
2759.0, 0.491293
2760.46, 0.488286
2761.94, 0.482059
2763.41, 0.479983
2764.88, 0.480195
2766.36, 0.477018
2767.83, 0.473248
2769.31, 0.469732
2770.79, 0.466004
2772.27, 0.465623
2773.76, 0.464606
2775.24, 0.461429
2776.73, 0.457236
2778.22, 0.453932
2779.71, 0.450204
2781.2, 0.446264
2782.69, 0.443469
2784.18, 0.440503
2785.68, 0.434658
2787.18, 0.431142
2788.68, 0.433217
2790.18, 0.435971
2791.68, 0.437453
2793.19, 0.439529
2794.69, 0.442367
2796.2, 0.445417
2797.71, 0.448382
2799.22, 0.450543
2800.73, 0.450627
2802.24, 0.448891
2803.76, 0.450162
2805.28, 0.453804
2806.8, 0.455795
2808.32, 0.456981
2809.84, 0.457998
2811.36, 0.458845
2812.89, 0.458634
2814.42, 0.458379
2815.94, 0.459227
2817.48, 0.459523
2819.01, 0.458718
2820.54, 0.459057
2822.08, 0.460158
2823.61, 0.460879
2825.15, 0.460667
2826.69, 0.460328
2828.23, 0.460286
2829.78, 0.460497
2831.32, 0.460201
2832.87, 0.459608
2834.42, 0.459184
2835.97, 0.459227
2837.52, 0.458676
2839.08, 0.458803
2840.63, 0.459057
2842.19, 0.458888
2843.75, 0.458591
2845.31, 0.458252
2846.87, 0.457659
2848.44, 0.456939
2850.0, 0.456643
2851.57, 0.456431
2853.14, 0.455329
2854.71, 0.454863
2856.28, 0.454948
2857.86, 0.454567
2859.43, 0.453889
2861.01, 0.453550
2862.59, 0.453296
2864.17, 0.452830
2865.76, 0.452068
2867.34, 0.451559
2868.93, 0.451178
2870.52, 0.450500
2872.11, 0.450204
2873.7, 0.450119
2875.29, 0.449696
2876.89, 0.449018
2878.49, 0.448552
2880.08, 0.448425
2881.69, 0.447959
2883.29, 0.447366
2884.89, 0.447027
2886.5, 0.446561
2888.11, 0.446010
2889.72, 0.445587
2891.33, 0.445078
2892.94, 0.444782
2894.56, 0.444485
2896.17, 0.444189
2897.79, 0.443765
2899.42, 0.442791
2901.04, 0.442113
2902.66, 0.442155
2904.29, 0.441986
2905.92, 0.441901
2907.55, 0.441562
2909.18, 0.441181
2910.81, 0.440885
2912.45, 0.440758
2914.08, 0.440376
2915.72, 0.440207
2917.36, 0.440037
2919.01, 0.439741
2920.65, 0.439148
2922.3, 0.438597
2923.94, 0.438385
2925.59, 0.438470
2927.25, 0.438174
2928.9, 0.437962
2930.56, 0.437708
2932.21, 0.437369
2933.87, 0.437115
2935.53, 0.437115
2937.2, 0.436776
2938.86, 0.436394
2940.53, 0.436183
2942.2, 0.435928
2943.87, 0.435590
2945.54, 0.435335
2947.22, 0.434912
2948.89, 0.434658
2950.57, 0.434488
2952.25, 0.434192
2953.93, 0.433938
2955.62, 0.434022
2957.3, 0.433938
2958.99, 0.433641
2960.68, 0.433387
2962.37, 0.433302
2964.07, 0.433048
2965.76, 0.432921
2967.46, 0.432794
2969.16, 0.432455
2970.86, 0.432074
2972.56, 0.431947
2974.27, 0.431904
2975.98, 0.431735
2977.69, 0.431523
2979.4, 0.431438
2981.11, 0.431354
2982.83, 0.431226
2984.54, 0.431057
2986.26, 0.430803
2987.98, 0.430591
2989.71, 0.430337
2991.43, 0.430210
2993.16, 0.430167
2994.89, 0.429659
2996.62, 0.429363
2998.35, 0.429236
3000.09, 0.429066
3001.83, 0.428770
3003.57, 0.428515
3005.31, 0.428304
3007.05, 0.428261
3008.79, 0.428007
3010.54, 0.427668
3012.29, 0.427541
3014.04, 0.427329
3015.8, 0.426991
3017.55, 0.426652
3019.31, 0.426313
3021.07, 0.426059
3022.83, 0.425931
3024.59, 0.425677
3026.36, 0.425296
3028.13, 0.425127
3029.9, 0.425127
3031.67, 0.424957
3033.44, 0.424491
3035.22, 0.424110
3037.0, 0.423898
3038.78, 0.423517
3040.56, 0.423178
3042.34, 0.422839
3044.13, 0.422670
3045.92, 0.422289
3047.71, 0.422034
3049.5, 0.421738
3051.3, 0.421187
3053.09, 0.420594
3054.89, 0.420255
3056.69, 0.420001
3058.5, 0.419704
3060.3, 0.419535
3062.11, 0.419112
3063.92, 0.418646
3065.73, 0.418434
3067.55, 0.418137
3069.36, 0.417671
3071.18, 0.417417
3073.0, 0.417121
3074.82, 0.416782
3076.65, 0.416273
3078.48, 0.415765
3080.31, 0.415045
3082.14, 0.414282
3083.97, 0.413435
3085.8, 0.412461
3087.64, 0.411360
3089.48, 0.410173
3091.33, 0.408903
3093.17, 0.407632
3095.02, 0.406319
3096.87, 0.405217
3098.72, 0.404031
3100.57, 0.402803
3102.43, 0.401659
3104.28, 0.400600
3106.14, 0.399626
3108.01, 0.399117
3109.87, 0.398779
3111.74, 0.398779
3113.61, 0.399245
3115.48, 0.400092
3117.35, 0.401235
3119.23, 0.402591
3121.1, 0.403862
3122.98, 0.404963
3124.87, 0.405853
3126.75, 0.406319
3128.64, 0.406488
3130.53, 0.406319
3132.42, 0.406022
3134.31, 0.405599
3136.21, 0.404963
3138.11, 0.404328
3140.01, 0.403608
3141.91, 0.402845
3143.82, 0.402294
3145.73, 0.401744
3147.64, 0.401320
3149.55, 0.400854
3151.46, 0.400642
3153.38, 0.400727
3155.3, 0.401108
3157.22, 0.402083
3159.14, 0.403396
3161.07, 0.404794
3163.0, 0.406403
3164.93, 0.408055
3166.86, 0.409496
3168.8, 0.410809
3170.74, 0.412037
3172.68, 0.412969
3174.62, 0.413562
3176.56, 0.413901
3178.51, 0.414282
3180.46, 0.414664
3182.42, 0.415003
3184.37, 0.415087
3186.33, 0.415299
3188.29, 0.415341
3190.25, 0.415257
3192.21, 0.415257
3194.18, 0.415257
3196.15, 0.415172
3198.12, 0.414960
3200.09, 0.414918
3202.07, 0.414791
3204.05, 0.414621
3206.03, 0.414537
3208.02, 0.414410
3210.0, 0.414155
3211.99, 0.413944
3213.98, 0.413605
3215.98, 0.413266
3217.97, 0.413012
3219.97, 0.412588
3221.97, 0.412207
3223.98, 0.411826
3225.98, 0.411444
3227.99, 0.411063
3230.0, 0.410639
3232.02, 0.410131
3234.03, 0.409580
3236.05, 0.409072
3238.07, 0.408564
3240.1, 0.408140
3242.12, 0.407717
3244.15, 0.407251
3246.18, 0.406827
3248.22, 0.406403
3250.25, 0.405937
3252.29, 0.405344
3254.33, 0.404751
3256.38, 0.404116
3258.43, 0.403353
3260.47, 0.402633
3262.53, 0.401956
3264.58, 0.401235
3266.64, 0.400473
3268.7, 0.399626
3270.76, 0.398652
3272.82, 0.397593
3274.89, 0.396576
3276.96, 0.395474
3279.04, 0.394119
3281.11, 0.392721
3283.19, 0.391366
3285.27, 0.390010
3287.35, 0.388782
3289.44, 0.387257
3291.53, 0.385647
3293.62, 0.383910
3295.71, 0.382089
3297.81, 0.380183
3299.91, 0.378064
3302.01, 0.375946
3304.11, 0.373786
3306.22, 0.371541
3308.33, 0.368999
3310.44, 0.366373
3312.56, 0.363493
3314.68, 0.360231
3316.8, 0.356673
3318.92, 0.352691
3321.05, 0.348370
3323.18, 0.343499
3325.31, 0.337822
3327.44, 0.331172
3329.58, 0.323293
3331.72, 0.313889
3333.86, 0.302452
3336.01, 0.288261
3338.16, 0.270639
3340.31, 0.249713
3342.46, 0.226923
3344.61, 0.205489
3346.77, 0.188757
3348.94, 0.178336
3351.1, 0.173592
3353.27, 0.172745
3355.44, 0.174693
3357.61, 0.178252
3359.79, 0.182742
3361.97, 0.187274
3364.15, 0.191341
3366.33, 0.194687
3368.52, 0.197017
3370.71, 0.198373
3372.9, 0.199093
3375.1, 0.199643
3377.3, 0.200237
3379.5, 0.200830
3381.71, 0.201634
3383.91, 0.202736
3386.12, 0.204007
3388.34, 0.205108
3390.55, 0.206252
3392.77, 0.207395
3394.99, 0.208412
3397.22, 0.209217
3399.45, 0.210064
3401.68, 0.211038
3403.91, 0.211928
3406.15, 0.212817
3408.39, 0.213749
3410.63, 0.214597
3412.87, 0.215274
3415.12, 0.215910
3417.37, 0.216418
3419.63, 0.216672
3421.88, 0.216757
3424.14, 0.216842
3426.41, 0.216884
3428.67, 0.216926
3430.94, 0.216799
3433.21, 0.216503
3435.49, 0.216249
3437.77, 0.215825
3440.05, 0.215359
3442.33, 0.214893
3444.62, 0.214215
3446.91, 0.213368
3449.2, 0.212352
3451.5, 0.211123
3453.8, 0.209386
3456.1, 0.207099
3458.41, 0.203964
3460.72, 0.199389
3463.03, 0.192908
3465.34, 0.183631
3467.66, 0.171559
3469.98, 0.158766
3472.31, 0.147964
3474.63, 0.140297
3476.96, 0.135976
3479.3, 0.135087
3481.64, 0.136781
3483.97, 0.139704
3486.32, 0.143093
3488.66, 0.146905
3491.01, 0.151183
3493.36, 0.155843
3495.72, 0.160545
3498.08, 0.165078
3500.44, 0.169568
3502.81, 0.174143
3505.18, 0.178633
3507.55, 0.183208
3509.92, 0.188164
3512.3, 0.193755
3514.68, 0.200575
3517.06, 0.209386
3519.45, 0.220866
3521.84, 0.235057
3524.24, 0.251196
3526.64, 0.267970
3529.04, 0.284279
3531.44, 0.299147
3533.85, 0.312279
3536.26, 0.323801
3538.67, 0.333798
3541.09, 0.342185
3543.51, 0.349429
3545.93, 0.355698
3548.36, 0.361078
3550.79, 0.365526
3553.22, 0.369084
3555.66, 0.371922
3558.1, 0.374040
3560.54, 0.375438
3562.99, 0.375862
3565.44, 0.375311
3567.9, 0.374167
3570.35, 0.373193
3572.81, 0.373786
3575.28, 0.376794
3577.75, 0.381750
3580.22, 0.387426
3582.69, 0.393102
3585.17, 0.398524
3587.65, 0.403396
3590.14, 0.407717
3592.62, 0.411360
3595.11, 0.414579
3597.61, 0.417290
3600.11, 0.419832
3602.61, 0.422119
3605.11, 0.424195
3607.62, 0.426059
3610.14, 0.427711
3612.65, 0.429278
3615.17, 0.430761
3617.69, 0.432116
3620.22, 0.433260
3622.75, 0.434234
3625.28, 0.435251
3627.82, 0.436225
3630.36, 0.437030
3632.9, 0.437750
3635.45, 0.438640
3638.0, 0.439360
3640.56, 0.440122
3643.12, 0.440885
3645.68, 0.441647
3648.24, 0.442367
3650.81, 0.443003
3653.39, 0.443638
3655.96, 0.444231
3658.54, 0.444824
3661.13, 0.445375
3663.71, 0.445841
3666.3, 0.446307
3668.9, 0.446730
3671.5, 0.447112
3674.1, 0.447578
3676.7, 0.447916
3679.31, 0.448043
3681.93, 0.448340
3684.54, 0.448509
3687.17, 0.448679
3689.79, 0.448637
3692.42, 0.448594
3695.05, 0.448467
3697.69, 0.448340
3700.32, 0.448128
3702.97, 0.447832
3705.61, 0.447493
3708.27, 0.447196
3710.92, 0.446773
3713.58, 0.446391
3716.24, 0.445968
3718.91, 0.445332
3721.58, 0.444528
3724.25, 0.443723
3726.93, 0.442876
3729.61, 0.441774
3732.29, 0.440673
3734.98, 0.439317
3737.67, 0.437581
3740.37, 0.435717
3743.07, 0.433853
3745.78, 0.432243
3748.49, 0.430803
3751.2, 0.429447
3753.91, 0.428219
3756.63, 0.427033
3759.36, 0.425720
3762.09, 0.424025
3764.82, 0.421907
3767.55, 0.419408
3770.29, 0.416612
3773.04, 0.413435
3775.78, 0.409750
3778.54, 0.405599
3781.29, 0.400897
3784.05, 0.395136
3786.82, 0.388146
3789.59, 0.379462
3792.36, 0.368533
3795.13, 0.355614
3797.92, 0.341719
3800.7, 0.327825
3803.49, 0.314440
3806.28, 0.301859
3809.08, 0.290337
3811.88, 0.279789
3814.68, 0.270004
3817.49, 0.260854
3820.31, 0.252128
3823.12, 0.243571
3825.94, 0.235184
3828.77, 0.227008
3831.6, 0.218960
3834.43, 0.211123
3837.27, 0.204091
3840.11, 0.198500
3842.96, 0.194476
3845.81, 0.191637
3848.67, 0.189477
3851.53, 0.187783
3854.39, 0.186385
3857.26, 0.185199
3860.13, 0.184140
3863.01, 0.183038
3865.89, 0.182064
3868.77, 0.181259
3871.66, 0.180581
3874.55, 0.180073
3877.45, 0.179692
3880.35, 0.179056
3883.26, 0.178252
3886.17, 0.177362
3889.09, 0.176472
3892.01, 0.175541
3894.93, 0.174651
3897.86, 0.173719
3900.79, 0.172660
3903.73, 0.171643
3906.67, 0.170457
3909.62, 0.169187
3912.57, 0.167831
3915.52, 0.166179
3918.48, 0.164315
3921.45, 0.162155
3924.42, 0.159401
3927.39, 0.156182
3930.37, 0.153683
3933.35, 0.152412
3936.34, 0.150294
3939.33, 0.144152
3942.32, 0.133646
3945.32, 0.122251
3948.33, 0.112085
3951.34, 0.102723
3954.35, 0.0942090
3957.37, 0.0870500
3960.39, 0.0815430
3963.42, 0.0771800
3966.45, 0.0737910
3969.49, 0.0714190
3972.53, 0.0698520
3975.58, 0.0687510
3978.63, 0.0679880
3981.68, 0.0679460
3984.75, 0.0693440
3987.81, 0.0724780
3990.88, 0.0773070
3993.95, 0.0836610
3997.03, 0.0915830
4000.12, 0.100944
4003.21, 0.111958
4006.3, 0.125132
4009.4, 0.140466
4012.5, 0.156987
4015.61, 0.172152
4018.72, 0.184224
4021.84, 0.193713
4024.96, 0.202397
4028.09, 0.211420
4031.22, 0.220866
4034.36, 0.230736
4037.5, 0.241919
4040.65, 0.254669
4043.8, 0.267886
4046.96, 0.280551
4050.12, 0.292158
4053.29, 0.302240
4056.46, 0.310712
4059.64, 0.317828
4062.82, 0.323886
4066.0, 0.329266
4069.19, 0.334434
4072.39, 0.339601
4075.59, 0.344727
4078.8, 0.349683
4082.01, 0.354343
4085.23, 0.358664
4088.45, 0.362730
4091.68, 0.366500
4094.91, 0.370101
4098.15, 0.373490
4101.39, 0.376751
4104.63, 0.379928
4107.89, 0.383105
4111.14, 0.386240
4114.41, 0.389417
4117.67, 0.392594
4120.95, 0.395729
4124.23, 0.398863
4127.51, 0.402083
4130.8, 0.405090
4134.09, 0.407971
4137.39, 0.410724
4140.7, 0.413435
4144.01, 0.416019
4147.32, 0.418391
4150.64, 0.420552
4153.97, 0.422585
4157.3, 0.424406
4160.64, 0.426059
4163.98, 0.427626
4167.33, 0.429066
4170.68, 0.430506
4174.04, 0.431904
4177.4, 0.433048
4180.77, 0.434234
4184.14, 0.435420
4187.52, 0.436479
4190.91, 0.437453
4194.3, 0.438258
4197.69, 0.438724
4201.1, 0.438682
4204.5, 0.438089
4207.92, 0.436945
4211.34, 0.435208
4214.76, 0.433090
4218.19, 0.430803
4221.62, 0.428770
4225.06, 0.427118
4228.51, 0.426186
4231.96, 0.426101
4235.42, 0.426779
4238.88, 0.428177
4242.35, 0.430422
4245.83, 0.433472
4249.31, 0.437453
4252.79, 0.442113
4256.28, 0.444994
4259.78, 0.443723
4263.29, 0.440885
4266.79, 0.439021
4270.31, 0.438258
4273.83, 0.438004
4277.35, 0.438089
4280.89, 0.438343
4284.42, 0.438597
4287.97, 0.438851
4291.52, 0.439487
4295.07, 0.440292
4298.63, 0.440969
4302.2, 0.441054
4305.78, 0.441139
4309.35, 0.441520
4312.94, 0.442198
4316.53, 0.443257
4320.13, 0.444485
4323.73, 0.445544
4327.34, 0.446391
4330.96, 0.447069
4334.58, 0.447662
4338.21, 0.448213
4341.84, 0.448764
4345.48, 0.449314
4349.12, 0.450034
4352.77, 0.451136
4356.43, 0.452915
4360.1, 0.454821
4363.76, 0.456727
4367.44, 0.458337
4371.12, 0.459481
4374.81, 0.460286
4378.51, 0.460624
4382.21, 0.460455
4385.92, 0.459989
4389.63, 0.459354
4393.35, 0.458676
4397.08, 0.457871
4400.81, 0.457193
4404.55, 0.456558
4408.29, 0.455922
4412.04, 0.455033
4415.8, 0.454101
4419.57, 0.453084
4423.34, 0.452068
4427.12, 0.451009
4430.9, 0.449738
4434.69, 0.448340
4438.49, 0.446688
4442.29, 0.444782
4446.1, 0.442876
4449.92, 0.440969
4453.74, 0.439275
4457.57, 0.437750
4461.41, 0.436267
4465.25, 0.434615
4469.1, 0.432794
4472.95, 0.430633
4476.82, 0.428219
4480.69, 0.425677
4484.56, 0.423220
4488.44, 0.420891
4492.33, 0.418773
4496.23, 0.416782
4500.13, 0.415214
4504.04, 0.414028
4507.96, 0.413223
4511.88, 0.412546
4515.81, 0.412080
4519.75, 0.411656
4523.69, 0.411190
4527.65, 0.410767
4531.6, 0.410470
4535.57, 0.410258
4539.54, 0.410173
4543.52, 0.410089
4547.5, 0.409919
4551.5, 0.409623
4555.5, 0.409326
4559.5, 0.409072
4563.52, 0.408649
4567.54, 0.408183
4571.56, 0.407801
4575.6, 0.407251
4579.64, 0.406700
4583.69, 0.406065
4587.75, 0.405429
4591.81, 0.404582
4595.88, 0.403311
4599.96, 0.401786
4604.04, 0.400558
4608.14, 0.399287
4612.24, 0.397254
4616.34, 0.393992
4620.46, 0.389459
4624.58, 0.384122
4628.71, 0.378319
4632.84, 0.371329
4636.99, 0.362772
4641.14, 0.353411
4645.3, 0.344049
4649.47, 0.335111
4653.64, 0.327190
4657.82, 0.321090
4662.01, 0.317108
4666.21, 0.314821
4670.41, 0.313889
4674.62, 0.313931
4678.84, 0.314905
4683.07, 0.317108
4687.3, 0.320751
4691.54, 0.325665
4695.79, 0.332061
4700.05, 0.339983
4704.31, 0.349726
4708.59, 0.360993
4712.87, 0.373193
4717.15, 0.385605
4721.45, 0.397254
4725.76, 0.406700
4730.07, 0.413732
4734.39, 0.418603
4738.72, 0.422204
4743.05, 0.425127
4747.39, 0.427711
4751.75, 0.429871
4756.1, 0.431820
4760.47, 0.433683
4764.85, 0.435547
4769.23, 0.437199
4773.62, 0.438512
4778.02, 0.439487
4782.43, 0.440164
4786.85, 0.440546
4791.27, 0.440800
4795.7, 0.440800
4800.14, 0.440758
4804.59, 0.440673
4809.05, 0.440546
4813.51, 0.440334
4817.99, 0.440292
4822.47, 0.440164
4826.96, 0.439995
4831.46, 0.439699
4835.96, 0.439275
4840.48, 0.438851
4845.0, 0.438597
4849.54, 0.438216
4854.08, 0.437877
4858.63, 0.437496
4863.18, 0.437115
4867.75, 0.436691
4872.33, 0.436310
4876.91, 0.435886
4881.5, 0.435420
4886.1, 0.434912
4890.71, 0.434488
4895.33, 0.433980
4899.96, 0.433599
4904.59, 0.433133
4909.24, 0.432582
4913.89, 0.432116
4918.55, 0.431735
4923.22, 0.431226
4927.9, 0.430803
4932.59, 0.430464
4937.29, 0.430167
4942.0, 0.429829
4946.71, 0.429617
4951.44, 0.429320
4956.17, 0.428939
4960.91, 0.429024
4965.67, 0.429193
4970.43, 0.429066
4975.2, 0.429151
4979.98, 0.429151
4984.76, 0.429193
4989.56, 0.429236
4994.37, 0.429236
4999.18, 0.428981
5004.01, 0.428897
5008.84, 0.428812
5013.69, 0.428473
5018.54, 0.427753
5023.4, 0.427795
5028.28, 0.427922
5033.16, 0.428050
5038.05, 0.427922
5042.95, 0.427711
5047.86, 0.427287
5052.78, 0.426779
5057.71, 0.426143
5062.65, 0.425381
5067.6, 0.424279
5072.56, 0.422585
5077.53, 0.419196
5082.5, 0.413520
5087.49, 0.403862
5092.49, 0.386664
5097.5, 0.368533
5102.51, 0.368703
5107.54, 0.383868
5112.58, 0.398948
5117.62, 0.407886
5122.68, 0.411105
5127.75, 0.411953
5132.82, 0.411868
5137.91, 0.411190
5143.01, 0.409750
5148.12, 0.408352
5153.23, 0.408394
5158.36, 0.407886
5163.5, 0.406573
5168.65, 0.405048
5173.81, 0.404243
5178.98, 0.403481
5184.15, 0.402422
5189.34, 0.400981
5194.54, 0.399075
5199.75, 0.396957
5204.98, 0.395602
5210.21, 0.392891
5215.45, 0.391111
5220.7, 0.391154
5225.96, 0.390010
5231.23, 0.388146
5236.52, 0.386155
5241.81, 0.384757
5247.12, 0.383063
5252.44, 0.381030
5257.76, 0.378912
5263.1, 0.376878
5268.45, 0.374718
5273.81, 0.372261
5279.18, 0.370143
5284.56, 0.367940
5289.95, 0.364679
5295.36, 0.362476
5300.77, 0.360570
5306.2, 0.357689
5311.63, 0.354682
5317.08, 0.351420
5322.54, 0.348158
5328.01, 0.344685
5333.49, 0.341169
5338.98, 0.337356
5344.49, 0.332315
5350.0, 0.327190
5355.53, 0.324945
5361.07, 0.322954
5366.62, 0.319819
5372.18, 0.315922
5377.75, 0.311983
5383.34, 0.307789
5388.93, 0.303595
5394.54, 0.299147
5400.16, 0.294742
5405.79, 0.289828
5411.44, 0.284491
5417.09, 0.277205
5422.76, 0.270300
5428.43, 0.266996
5434.12, 0.262252
5439.83, 0.255728
5445.54, 0.249205
5451.26, 0.242724
5457.0, 0.235395
5462.75, 0.227050
5468.52, 0.220442
5474.29, 0.213538
5480.08, 0.205828
5485.88, 0.198923
5491.69, 0.190790
5497.51, 0.181556
5503.35, 0.171516
5509.2, 0.160757
5515.06, 0.148218
5520.93, 0.133900
5526.82, 0.117634
5532.71, 0.0988690
5538.63, 0.0770960
5544.55, 0.0544330
5550.49, 0.0350740
5556.44, 0.0240610
5562.4, 0.0207990
5568.37, 0.0211380
5574.36, 0.0218580
5580.36, 0.0263060
5586.37, 0.0385900
5592.4, 0.0567630
5598.44, 0.0754860
5604.49, 0.0922600
5610.56, 0.105434
5616.63, 0.114965
5622.73, 0.121828
5628.83, 0.126106
5634.95, 0.127801
5641.08, 0.127885
5647.23, 0.128690
5653.39, 0.127504
5659.56, 0.124454
5665.74, 0.121192
5671.94, 0.117126
5678.15, 0.113102
5684.38, 0.109882
5690.62, 0.107129
5696.87, 0.104968
5703.14, 0.102130
5709.42, 0.0985720
5715.72, 0.0965390
5722.03, 0.0948870
5728.35, 0.0930230
5734.69, 0.0906510
5741.03, 0.0882360
5747.4, 0.0858640
5753.78, 0.0848050
5760.17, 0.0825600
5766.58, 0.0805270
5773.0, 0.0817970
5779.44, 0.0830260
5785.88, 0.0837880
5792.35, 0.0843390
5798.83, 0.0843810
5805.32, 0.0844660
5811.83, 0.0838730
5818.35, 0.0821360
5824.89, 0.0817970
5831.45, 0.0830680
5838.01, 0.0840430
5844.59, 0.0843810
5851.19, 0.0840000
5857.8, 0.0832800
5864.43, 0.0825180
5871.07, 0.0818820
5877.73, 0.0789590
5884.4, 0.0781120
5891.09, 0.0779000
5897.79, 0.0765020
5904.5, 0.0767570
5911.23, 0.0757400
5917.98, 0.0737910
5924.75, 0.0717160
5931.53, 0.0684120
5938.32, 0.0657850
5945.13, 0.0656160
5951.96, 0.0646840
5958.8, 0.0631170
5965.65, 0.0608720
5972.53, 0.0595580
5979.42, 0.0587960
5986.32, 0.0570170
5993.24, 0.0558730
6000.18, 0.0551950
6007.13, 0.0535860
6014.1, 0.0516790
6021.08, 0.0504510
6028.09, 0.0490530
6035.1, 0.0472740
6042.14, 0.0444780
6049.19, 0.0417670
6056.25, 0.0418090
6063.34, 0.0414280
6070.44, 0.0399030
6077.55, 0.0392260
6084.69, 0.0390140
6091.84, 0.0384630
6099.0, 0.0377850
6106.19, 0.0367690
6113.39, 0.0357520
6120.61, 0.0359210
6127.84, 0.0359640
6135.09, 0.0355830
6142.36, 0.0350320
6149.65, 0.0347780
6156.95, 0.0344810
6164.27, 0.0344390
6171.61, 0.0346080
6178.97, 0.0342690
6186.34, 0.0341000
6193.73, 0.0350740
6201.14, 0.0358790
6208.57, 0.0364720
6216.01, 0.0370230
6223.47, 0.0377430
6230.95, 0.0384210
6238.45, 0.0391410
6245.97, 0.0399880
6253.5, 0.0408350
6261.06, 0.0414280
6268.63, 0.0420210
6276.21, 0.0424450
6283.82, 0.0426140
6291.45, 0.0425300
6299.1, 0.0434620
6306.76, 0.0454520
6314.44, 0.0481640
6322.14, 0.0510440
6329.86, 0.0543060
6337.6, 0.0577370
6345.35, 0.0623970
6353.13, 0.0683270
6360.92, 0.0725630
6368.74, 0.0753590
6376.57, 0.0792980
6384.43, 0.0830260
6392.3, 0.0864570
6400.19, 0.0889560
6408.1, 0.0889140
6416.03, 0.0913290
6423.98, 0.0973440
6431.95, 0.101241
6439.94, 0.104079
6447.95, 0.105138
6455.98, 0.104672
6464.03, 0.102808
6472.1, 0.0995040
6480.19, 0.0960300
6488.31, 0.0919220
6496.44, 0.0895920
6504.59, 0.0899730
6512.76, 0.0885330
6520.95, 0.0858220
6529.16, 0.0845090
6537.4, 0.0827720
6545.65, 0.0803570
6553.92, 0.0780270
6562.22, 0.0757400
6570.54, 0.0727750
6578.88, 0.0715040
6587.23, 0.0703180
6595.61, 0.0685810
6604.02, 0.0672260
6612.44, 0.0654460
6620.89, 0.0635830
6629.35, 0.0608290
6637.84, 0.0587540
6646.35, 0.0591350
6654.88, 0.0592200
6663.44, 0.0579910
6672.01, 0.0565510
6680.61, 0.0552800
6689.23, 0.0548560
6697.88, 0.0543060
6706.54, 0.0529500
6715.23, 0.0519760
6723.94, 0.0515950
6732.67, 0.0512980
6741.42, 0.0507470
6750.2, 0.0500270
6759.0, 0.0495190
6767.82, 0.0487570
6776.67, 0.0479940
6785.54, 0.0469770
6794.44, 0.0466390
6803.35, 0.0470620
6812.29, 0.0468930
6821.26, 0.0461730
6830.24, 0.0458760
6839.25, 0.0457910
6848.29, 0.0451980
6857.35, 0.0439700
6866.43, 0.0435460
6875.54, 0.0443510
6884.67, 0.0444780
6893.82, 0.0442660
6903.0, 0.0438850
6912.2, 0.0438000
6921.43, 0.0438000
6930.69, 0.0437580
6939.96, 0.0437160
6949.27, 0.0433770
6958.59, 0.0427840
6967.95, 0.0432920
6977.33, 0.0439700
6986.73, 0.0440970
6996.16, 0.0441820
7005.61, 0.0445210
7015.09, 0.0446050
7024.6, 0.0447320
7034.13, 0.0447750
7043.69, 0.0444780
7053.27, 0.0450290
7062.88, 0.0458340
7072.52, 0.0463420
7082.18, 0.0465110
7091.87, 0.0465110
7101.58, 0.0461730
7111.32, 0.0452410
7121.09, 0.0439270
7130.88, 0.0429530
7140.71, 0.0424030
7150.56, 0.0426140
7160.43, 0.0433340
7170.33, 0.0442660
7180.27, 0.0456640
7190.23, 0.0471050
7200.21, 0.0484180
7210.23, 0.0502390
7220.27, 0.0525690
7230.34, 0.0548560
7240.44, 0.0570170
7250.56, 0.0589650
7260.72, 0.0607870
7270.9, 0.0626080
7281.12, 0.0650650
7291.36, 0.0682850
7301.63, 0.0718850
7311.93, 0.0759520
7322.25, 0.0800610
7332.61, 0.0838730
7343.0, 0.0878550
7353.41, 0.0920060
7363.86, 0.0956070
7374.33, 0.0987420
7384.83, 0.101495
7395.37, 0.103867
7405.93, 0.105900
7416.53, 0.107849
7427.15, 0.109840
7437.81, 0.112043
7448.5, 0.114161
7459.22, 0.116109
7469.96, 0.118227
7480.74, 0.120515
7491.55, 0.122294
7502.39, 0.123522
7513.27, 0.124412
7524.17, 0.125217
7535.11, 0.125810
7546.08, 0.126403
7557.08, 0.126953
7568.11, 0.127716
7579.17, 0.128478
7590.27, 0.129749
7601.4, 0.131444
7612.56, 0.133604
7623.76, 0.136357
7634.98, 0.139661
7646.24, 0.143347
7657.54, 0.147329
7668.87, 0.151311
7680.23, 0.155292
7691.62, 0.159020
7703.05, 0.162536
7714.51, 0.165671
7726.01, 0.168424
7737.54, 0.170373
7749.11, 0.171728
7760.71, 0.172575
7772.35, 0.173168
7784.02, 0.173338
7795.72, 0.173465
7807.46, 0.174354
7819.23, 0.176557
7831.04, 0.179056
7842.89, 0.181005
7854.77, 0.181725
7866.69, 0.181429
7878.65, 0.180581
7890.64, 0.179904
7902.67, 0.180031
7914.74, 0.181344
7926.84, 0.183462
7938.98, 0.186088
7951.16, 0.188418
7963.37, 0.190240
7975.62, 0.191256
7987.91, 0.191680
8000.24, 0.191426
8012.6, 0.190790
8025.01, 0.189477
8037.45, 0.187740
8049.93, 0.185961
8062.45, 0.184902
8075.01, 0.185326
8087.61, 0.187147
8100.24, 0.189265
8112.91, 0.191171
8125.63, 0.192315
8138.39, 0.193078
8151.18, 0.193671
8164.02, 0.194645
8176.9, 0.195916
8189.81, 0.197017
8202.77, 0.197314
8215.77, 0.196890
8228.82, 0.196000
8241.9, 0.194899
8255.02, 0.193671
8268.19, 0.192442
8281.39, 0.190960
8294.65, 0.189435
8307.94, 0.188121
8321.28, 0.186893
8334.66, 0.185622
8348.08, 0.184055
8361.54, 0.182022
8375.05, 0.179353
8388.6, 0.176049
8402.2, 0.172745
8415.84, 0.170034
8429.52, 0.168424
8443.25, 0.166772
8457.02, 0.164442
8470.84, 0.161773
8484.7, 0.160079
8498.61, 0.159910
8512.57, 0.161392
8526.57, 0.163510
8540.62, 0.164950
8554.71, 0.164908
8568.85, 0.163680
8583.04, 0.162748
8597.27, 0.163764
8611.55, 0.167577
8625.88, 0.174143
8640.26, 0.182149
8654.68, 0.190451
8669.16, 0.197737
8683.68, 0.203456
8698.25, 0.208327
8712.87, 0.213453
8727.53, 0.219002
8742.25, 0.224382
8757.02, 0.228999
8771.83, 0.233023
8786.7, 0.235988
8801.62, 0.238191
8816.59, 0.239674
8831.61, 0.240733
8846.68, 0.241284
8861.8, 0.241326
8876.97, 0.241453
8892.2, 0.242343
8907.48, 0.243613
8922.81, 0.244715
8938.2, 0.245435
8953.63, 0.246240
8969.13, 0.246790
8984.67, 0.247002
9000.27, 0.247002
9015.92, 0.247044
9031.63, 0.246960
9047.39, 0.246621
9063.21, 0.245901
9079.08, 0.245308
9095.01, 0.244842
9111.0, 0.244545
9127.04, 0.243783
9143.13, 0.242470
9159.28, 0.240860
9175.49, 0.239928
9191.76, 0.239462
9208.09, 0.240267
9224.47, 0.242427
9240.92, 0.245181
9257.42, 0.248231
9273.98, 0.250476
9290.6, 0.250687
9307.28, 0.249671
9324.02, 0.248103
9340.82, 0.246367
9357.68, 0.245138
9374.6, 0.245731
9391.58, 0.250137
9408.62, 0.255347
9425.73, 0.258524
9442.9, 0.260642
9460.13, 0.261828
9477.42, 0.262421
9494.78, 0.262972
9512.2, 0.263311
9529.69, 0.262591
9547.24, 0.260896
9564.86, 0.258694
9582.54, 0.257169
9600.28, 0.256618
9618.1, 0.256576
9635.97, 0.255898
9653.92, 0.253610
9671.93, 0.249078
9690.01, 0.242936
9708.16, 0.236370
9726.37, 0.230863
9744.65, 0.227008
9763.0, 0.224932
9781.43, 0.223365
9799.92, 0.221417
9818.48, 0.218875
9837.1, 0.216418
9855.8, 0.214470
9874.58, 0.213919
9893.42, 0.214935
9912.34, 0.217223
9931.33, 0.219849
9950.39, 0.222264
9969.52, 0.223789
9988.74, 0.224551
10008.0, 0.225060
10027.4, 0.226161
10046.8, 0.227347
10066.3, 0.229084
10085.9, 0.232218
10105.6, 0.236539
10125.3, 0.239886
10145.1, 0.241411
10165.0, 0.241156
10185.0, 0.239631
10205.0, 0.237937
10225.2, 0.238996
10245.4, 0.243529
10265.7, 0.248697
10286.0, 0.252001
10306.5, 0.253992
10327.0, 0.254839
10347.6, 0.254754
10368.3, 0.253949
10389.1, 0.252509
10409.9, 0.250433
10430.9, 0.247553
10451.9, 0.243783
10473.0, 0.239589
10494.2, 0.235184
10515.5, 0.231414
10536.9, 0.229084
10558.4, 0.228745
10579.9, 0.229296
10601.5, 0.229973
10623.3, 0.229762
10645.1, 0.228745
10667.0, 0.227474
10689.0, 0.227347
10711.1, 0.229126
10733.2, 0.232727
10755.5, 0.237429
10777.9, 0.242851
10800.3, 0.248061
10822.9, 0.252933
10845.5, 0.257169
10868.2, 0.260346
10891.1, 0.262379
10914.0, 0.263057
10937.0, 0.262294
10960.2, 0.260557
10983.4, 0.257592
11006.7, 0.254119
11030.1, 0.250391
11053.6, 0.246579
11077.3, 0.242215
11101.0, 0.237175
11124.8, 0.230228
11148.7, 0.221459
11172.7, 0.210657
11196.9, 0.198373
11221.1, 0.183928
11245.4, 0.159740
11269.9, 0.113949
11294.4, 0.0673950
11319.1, 0.0457490
11343.9, 0.0399460
11368.8, 0.0374040
11393.7, 0.0351170
11418.8, 0.0336760
11444.0, 0.0341850
11469.4, 0.0390980
11494.8, 0.0530770
11520.3, 0.0748500
11546.0, 0.0981910
11571.8, 0.119710
11597.7, 0.138772
11623.7, 0.155208
11649.8, 0.169991
11676.0, 0.182657
11702.4, 0.191849
11728.9, 0.190240
11755.5, 0.158808
11782.2, 0.114034
11809.0, 0.134366
11836.0, 0.192781
11863.0, 0.227050
11890.3, 0.243402
11917.6, 0.252170
11945.0, 0.257804
11972.6, 0.261405
12000.4, 0.264497
12028.2, 0.266149
12056.2, 0.266827
12084.3, 0.266488
12112.5, 0.265725
12140.9, 0.264539
12169.4, 0.263184
12198.0, 0.260430
12226.8, 0.256660
12255.7, 0.252636
12284.7, 0.249501
12313.9, 0.247172
12343.2, 0.245774
12372.7, 0.244079
12402.3, 0.241326
12432.0, 0.237429
12461.9, 0.233405
12491.9, 0.230143
12522.1, 0.229084
12552.4, 0.229338
12582.9, 0.229507
12613.5, 0.228152
12644.3, 0.225483
12675.2, 0.221925
12706.3, 0.218028
12737.5, 0.214300
12768.9, 0.212055
12800.4, 0.211420
12832.1, 0.212097
12863.9, 0.213156
12895.9, 0.214300
12928.1, 0.215910
12960.4, 0.219044
12992.9, 0.223577
13025.5, 0.228321
13058.3, 0.232981
13091.3, 0.237513
13124.4, 0.241156
13157.8, 0.244376
13191.2, 0.247722
13224.9, 0.250645
13258.7, 0.252128
13292.7, 0.253187
13326.9, 0.253610
13361.2, 0.253229
13395.7, 0.251662
13430.4, 0.248993
13465.3, 0.245265
13500.4, 0.240563
13535.7, 0.234421
13571.1, 0.226839
13606.7, 0.217562
13642.5, 0.207734
13678.5, 0.196975
13714.7, 0.184182
13751.1, 0.167662
13787.6, 0.146990
13824.4, 0.121785
13861.4, 0.0928110
13898.5, 0.0622270
13935.9, 0.0346080
13973.5, 0.0172830
14011.2, 0.0154190
14049.2, 0.0246960
14087.4, 0.0424870
14125.8, 0.0684960
14164.3, 0.0965390
14203.2, 0.121574
14242.2, 0.141356
14281.4, 0.154869
14320.9, 0.167365
14360.5, 0.178633
14400.4, 0.185834
14440.5, 0.194814
14480.9, 0.204007
14521.4, 0.209429
14562.2, 0.212352
14603.3, 0.214554
14644.5, 0.216079
14686.0, 0.217350
14727.7, 0.218663
14769.7, 0.219214
14811.9, 0.219214
14854.3, 0.218578
14897.0, 0.217181
14939.9, 0.212945
14983.1, 0.210149
15026.5, 0.211250
15070.2, 0.209640
15114.2, 0.206379
15158.3, 0.203075
15202.8, 0.199389
15247.5, 0.195365
15292.5, 0.191934
15337.7, 0.189350
15383.2, 0.187232
15429.0, 0.185241
15475.1, 0.182784
15521.4, 0.180285
15568.0, 0.177659
15614.9, 0.174905
15662.1, 0.171686
15709.6, 0.168000
15757.3, 0.164866
15805.4, 0.161731
15853.7, 0.158469
15902.3, 0.155674
15951.2, 0.152920
16000.5, 0.150124
16050.0, 0.147117
16099.8, 0.144236
16150.0, 0.141949
16200.5, 0.139450
16251.3, 0.136866
16302.4, 0.134197
16353.8, 0.131232
16405.5, 0.127589
16457.6, 0.123861
16510.0, 0.119922
16562.8, 0.115982
16615.9, 0.112000
16669.3, 0.107637
16723.1, 0.103444
16777.2, 0.100224
16831.7, 0.0978520
16886.5, 0.0952260
16941.7, 0.0930230
16997.2, 0.0913710
17053.1, 0.0901850
17109.4, 0.0894220
17166.1, 0.0889140
17223.1, 0.0887020
17280.5, 0.0885330
17338.3, 0.0880670
17396.5, 0.0885330
17455.1, 0.0886170
17514.0, 0.0883210
17573.4, 0.0879820
17633.2, 0.0878970
17693.4, 0.0875160
17754.0, 0.0867960
17815.0, 0.0856950
17876.4, 0.0840430
17938.3, 0.0817970
18000.5, 0.0796370
18063.3, 0.0775190
18126.4, 0.0747230
18190.0, 0.0714190
18254.1, 0.0690470
18318.6, 0.0666330
18383.5, 0.0637520
18449.0, 0.0607020
18514.9, 0.0581180
18581.2, 0.0559150
18648.0, 0.0540940
18715.4, 0.0519340
18783.2, 0.0502390
18851.5, 0.0483750
18920.3, 0.0463000
18989.6, 0.0442660
19059.4, 0.0429960
19129.7, 0.0417670
19200.6, 0.0400730
19272.0, 0.0387170
19343.9, 0.0381240
19416.3, 0.0368530
19489.3, 0.0355830
19562.8, 0.0336760
19637.0, 0.0334220
19711.6, 0.0324060
19786.8, 0.0307960
19862.6, 0.0303300
19939.0, 0.0294400
20016.0, 0.0278310
20093.6, 0.0266870
20171.8, 0.0255860
20250.6, 0.0249500
20330.0, 0.0233830
20410.0, 0.0239330
20490.7, 0.0234680
20572.0, 0.0217730
20654.0, 0.0202060
20736.6, 0.0200360
20819.9, 0.0199520
20903.8, 0.0199940
20988.5, 0.0199520
21073.8, 0.0194430
21159.8, 0.0180880
21246.5, 0.0177070
21334.0, 0.0173250
21422.1, 0.0176640
21511.0, 0.0174520
21600.7, 0.0166900
21691.0, 0.0159270
21782.1, 0.0158850
21874.0, 0.0160970
21966.7, 0.0165200
22060.2, 0.0152500
22154.5, 0.0148260
22249.6, 0.0149950
22345.5, 0.0150800
22442.2, 0.0148680
22539.8, 0.0150800
22638.2, 0.0139790
22737.5, 0.0140400
22837.7, 0.0145600
22938.7, 0.0146900
23040.7, 0.0140400
23143.5, 0.0124800
23247.3, 0.0122200
23352.1, 0.00988000
23457.7, 0.00832000
23564.4, 0.00897000
23672.0, 0.0117000
23780.5, 0.0105300
23890.1, 0.0100100
24000.7, 0.0143000
24112.3, 0.0163800
24225.0, 0.0169000
24338.7, 0.0179400
24453.5, 0.0182000
24569.4, 0.0244400
24686.4, 0.0274300
24804.5, 0.0312000
24923.8, 0.0356200
25044.2, 0.0377010
25165.8, 0.0399110
25288.6, 0.0432910
25412.5, 0.0478410
25537.7, 0.0543410
25664.1, 0.0587610
25791.8, 0.0601910
25920.8, 0.0611010
26051.1, 0.0635710
26182.6, 0.0669510
26315.5, 0.0698110
26449.8, 0.0731910
26585.4, 0.0741010
26722.5, 0.0752710
26860.9, 0.0815110
27000.8, 0.0791710
27142.1, 0.0773510
27285.0, 0.0786510
27429.4, 0.0815110
27575.3, 0.0832010
27722.7, 0.0820310
27871.8, 0.0804710
28022.4, 0.0838510
28174.7, 0.0863210
28328.7, 0.0865810
28484.4, 0.0858010
28641.7, 0.0876210
28800.9, 0.0906110
28961.8, 0.0926910
29124.5, 0.0916510
29289.0, 0.0898310
29455.4, 0.0889210
29623.8, 0.0912610
29794.0, 0.0952910
29966.3, 0.0960710
30140.5, 0.0959410
30316.7, 0.0963310
30495.1, 0.0967210
30675.5, 0.0989310
30858.1, 0.0980210
31042.8, 0.101141
31229.8, 0.105431
31419.1, 0.108031
31610.7, 0.111021
31804.6, 0.113232
32000.9, 0.114012
32199.7, 0.115182
32400.9, 0.117652
32604.8, 0.121942
32811.1, 0.122982
33020.1, 0.124412
33231.8, 0.128442
33446.2, 0.128962
33663.4, 0.126492
33883.4, 0.123242
34106.3, 0.121422
34332.1, 0.119602
34561.0, 0.117002
34792.9, 0.116872
35028.0, 0.118302
35266.3, 0.119602
35507.8, 0.121162
35752.7, 0.120382
36001.0, 0.121552
36252.8, 0.127402
36508.1, 0.127142
36767.0, 0.125582
37029.7, 0.128052
37296.1, 0.133382
37566.3, 0.134162
37840.5, 0.131952
38118.8, 0.128832
38401.2, 0.126622
38687.8, 0.123112
38978.6, 0.117262
39273.9, 0.106081
39573.7, 0.0973710
39878.1, 0.0890510
40187.3, 0.0803410
40501.2, 0.0722810
40820.0, 0.0625310
41144.0, 0.0531710
41473.2, 0.0410810
41807.6, 0.0318500
42147.5, 0.0325000
42493.0, 0.0361400
42844.2, 0.0438110
43201.2, 0.0572010
43564.3, 0.0644810
43933.5, 0.0648710
44309.0, 0.0718910
44691.0, 0.0774810
45079.6, 0.0838510
45475.0, 0.0880110
45877.5, 0.0933410
46287.1, 0.102961
46704.2, 0.117782
47128.7, 0.129612
47561.1, 0.139102
48001.5, 0.149762
48450.1, 0.158732
48907.2, 0.155742
49373.0, 0.156912
49847.7, 0.166792
50331.5, 0.175372
50825.0, 0.175762
51328.2, 0.179402
51841.5, 0.184992
52365.1, 0.182782
52899.4, 0.176412
53444.8, 0.172252
54001.5, 0.175502
54570.1, 0.177062
55150.6, 0.171602
55743.6, 0.162632
56349.5, 0.165362
56968.7, 0.184862
57601.7, 0.178752
58248.9, 0.172512
58910.9, 0.170562
59588.1, 0.164972
60281.0, 0.160292
60990.2, 0.158082
61716.3, 0.167702
62459.8, 0.160422
63221.6, 0.161202
64002.1, 0.185772
64802.1, 0.135852
65622.1, 0.116872
66463.4, 0.102571
67326.6, 0.101791
68212.4, 0.0956810
69121.9, 0.0923010
70056.0, 0.0663010
71015.7, 0.0687710
72002.0, 0.0669510
73016.3, 0.0510910
74059.4, 0.0371800
75132.7, 0.0382210
76237.6, 0.0379610
77375.5, 0.0403010
78547.9, 0.0291200
79756.3, 0.0201500
81002.5, 0.0270400
82288.5, 0.0413410
83615.7, 0.0460210
84986.5, 0.0505710
86402.9, 0.0585010
87867.4, 0.0711110
89382.4, 0.0768310
90950.5, 0.0834610
92574.6, 0.0899610
94257.2, 0.0969810
96002.7, 0.106211
97814.1, 0.116872
99695.1, 0.104131
101650.0, 0.0993210
103683.0, 0.103741
105799.0, 0.0978910
108003.0, 0.0860610
110301.0, 0.0976310
112699.0, 0.110891
115204.0, 0.111021
117822.0, 0.108681
120562.0, 0.128962
123433.0, 0.148462
126443.0, 0.143782
129604.0, 0.133772
132926.0, 0.141962
136424.0, 0.167182
140111.0, 0.178882
144003.0, 0.145602
148118.0, 0.156392
152474.0, 0.160422
157095.0, 0.176672
162004.0, 0.182392
167231.0, 0.190063
172805.0, 0.197343
178764.0, 0.211123
185148.0, 0.195393
192005.0, 0.169912
199390.0, 0.215543
207366.0, 0.358675
216006.0, 0.446946
