Database of Origin, USGS Spectral Database
Sample Description, See USGS database for additional info
Date Added,2016-08-03 20:55:43.806186

Data ID,USGS_alu18          
Sample ID, alunite_res12.1663
Mineral Name, alunite
Material Class,Sulfate

Wavelength
1353.21, 0.547916
1353.56, 0.548159
1353.92, 0.548257
1354.27, 0.547771
1354.63, 0.547430
1354.98, 0.547673
1355.33, 0.547868
1355.69, 0.547430
1356.04, 0.547479
1356.4, 0.547430
1356.75, 0.547187
1357.11, 0.546944
1357.46, 0.547090
1357.82, 0.547042
1358.18, 0.546896
1358.53, 0.546750
1358.89, 0.546604
1359.24, 0.546458
1359.6, 0.546215
1359.96, 0.546118
1360.31, 0.545972
1360.67, 0.545486
1361.03, 0.545438
1361.39, 0.545292
1361.74, 0.544806
1362.1, 0.543785
1362.46, 0.544174
1362.82, 0.544855
1363.18, 0.544855
1363.53, 0.544466
1363.89, 0.543931
1364.25, 0.543154
1364.61, 0.543056
1364.97, 0.543348
1365.33, 0.543008
1365.69, 0.543056
1366.05, 0.543397
1366.41, 0.542668
1366.77, 0.542619
1367.13, 0.542473
1367.49, 0.541841
1367.85, 0.541696
1368.21, 0.541355
1368.57, 0.541064
1368.93, 0.541404
1369.3, 0.541015
1369.66, 0.540529
1370.02, 0.540238
1370.38, 0.540043
1370.74, 0.539266
1371.11, 0.539460
1371.47, 0.539800
1371.83, 0.540043
1372.19, 0.540092
1372.56, 0.539752
1372.92, 0.539023
1373.29, 0.538537
1373.65, 0.538294
1374.01, 0.537905
1374.38, 0.537710
1374.74, 0.537322
1375.11, 0.537079
1375.47, 0.537224
1375.84, 0.537176
1376.2, 0.536836
1376.57, 0.536107
1376.93, 0.536058
1377.3, 0.535912
1377.67, 0.535669
1378.03, 0.535523
1378.4, 0.534892
1378.76, 0.534454
1379.13, 0.534163
1379.5, 0.533822
1379.87, 0.533482
1380.23, 0.532559
1380.6, 0.532073
1380.97, 0.532656
1381.34, 0.532802
1381.7, 0.531878
1382.07, 0.530858
1382.44, 0.530323
1382.81, 0.530615
1383.18, 0.530323
1383.55, 0.529740
1383.92, 0.529789
1384.29, 0.529740
1384.66, 0.528914
1385.03, 0.528525
1385.4, 0.528233
1385.77, 0.527990
1386.14, 0.527553
1386.51, 0.527164
1386.88, 0.526873
1387.25, 0.526192
1387.62, 0.525463
1387.99, 0.525123
1388.36, 0.525317
1388.74, 0.525123
1389.11, 0.524637
1389.48, 0.524151
1389.85, 0.523762
1390.23, 0.523276
1390.6, 0.522839
1390.97, 0.522644
1391.35, 0.521818
1391.72, 0.521235
1392.09, 0.520846
1392.47, 0.520798
1392.84, 0.520798
1393.21, 0.520409
1393.59, 0.520214
1393.96, 0.519874
1394.34, 0.519145
1394.71, 0.518319
1395.09, 0.518027
1395.46, 0.518027
1395.84, 0.517493
1396.22, 0.516861
1396.59, 0.516715
1396.97, 0.516812
1397.35, 0.516618
1397.72, 0.516181
1398.1, 0.515500
1398.48, 0.515063
1398.85, 0.514723
1399.23, 0.514139
1399.61, 0.513556
1399.99, 0.513167
1400.37, 0.512584
1400.74, 0.512584
1401.12, 0.512487
1401.5, 0.512195
1401.88, 0.511758
1402.26, 0.511078
1402.64, 0.510592
1403.02, 0.510251
1403.4, 0.509960
1403.78, 0.509377
1404.16, 0.508842
1404.54, 0.507821
1404.92, 0.507092
1405.3, 0.507238
1405.68, 0.506947
1406.06, 0.506266
1406.44, 0.505926
1406.83, 0.505391
1407.21, 0.504711
1407.59, 0.504225
1407.97, 0.503642
1408.35, 0.503253
1408.74, 0.503010
1409.12, 0.502281
1409.5, 0.501601
1409.89, 0.501163
1410.27, 0.500531
1410.65, 0.499948
1411.04, 0.499462
1411.42, 0.499414
1411.81, 0.498879
1412.19, 0.498296
1412.58, 0.497664
1412.96, 0.497032
1413.35, 0.496303
1413.73, 0.495671
1414.12, 0.494797
1414.5, 0.494554
1414.89, 0.494359
1415.28, 0.493873
1415.66, 0.493290
1416.05, 0.492464
1416.44, 0.492026
1416.82, 0.491540
1417.21, 0.490909
1417.6, 0.490131
1417.98, 0.489451
1418.37, 0.488916
1418.76, 0.488236
1419.15, 0.487701
1419.54, 0.487361
1419.93, 0.487118
1420.32, 0.486292
1420.71, 0.485660
1421.09, 0.485077
1421.48, 0.484250
1421.88, 0.483570
1422.27, 0.482841
1422.66, 0.482015
1423.05, 0.481237
1423.44, 0.480217
1423.83, 0.479147
1424.22, 0.478030
1424.61, 0.476815
1425.0, 0.475454
1425.39, 0.474239
1425.78, 0.472538
1426.18, 0.470448
1426.57, 0.468407
1426.96, 0.466317
1427.36, 0.463887
1427.75, 0.461020
1428.14, 0.458104
1428.54, 0.455042
1428.93, 0.452126
1429.32, 0.449161
1429.72, 0.446245
1430.11, 0.443378
1430.51, 0.440219
1430.9, 0.436963
1431.3, 0.433949
1431.69, 0.430888
1432.09, 0.427826
1432.48, 0.425201
1432.88, 0.423112
1433.28, 0.421168
1433.67, 0.419321
1434.07, 0.417134
1434.46, 0.415433
1434.86, 0.414023
1435.26, 0.412906
1435.66, 0.412468
1436.05, 0.412954
1436.45, 0.414558
1436.85, 0.416988
1437.25, 0.419612
1437.65, 0.422042
1438.05, 0.424229
1438.44, 0.426173
1438.84, 0.427631
1439.24, 0.428458
1439.64, 0.429138
1440.04, 0.429673
1440.44, 0.430353
1440.84, 0.430790
1441.24, 0.431276
1441.65, 0.431422
1442.05, 0.431276
1442.45, 0.431033
1442.85, 0.430693
1443.25, 0.430985
1443.65, 0.431276
1444.05, 0.431860
1444.46, 0.433026
1444.86, 0.434824
1445.26, 0.436963
1445.67, 0.439198
1446.07, 0.441871
1446.47, 0.444253
1446.88, 0.446245
1447.28, 0.448189
1447.68, 0.450085
1448.09, 0.451883
1448.49, 0.453875
1448.9, 0.455431
1449.3, 0.456743
1449.71, 0.457861
1450.11, 0.458978
1450.52, 0.459513
1450.93, 0.460096
1451.33, 0.460631
1451.74, 0.460728
1452.14, 0.461117
1452.55, 0.461408
1452.96, 0.461457
1453.36, 0.461311
1453.77, 0.461117
1454.18, 0.461020
1454.59, 0.460922
1455.0, 0.460679
1455.41, 0.460291
1455.81, 0.459950
1456.22, 0.459707
1456.63, 0.459367
1457.04, 0.459076
1457.45, 0.458833
1457.86, 0.458201
1458.27, 0.457569
1458.68, 0.457277
1459.09, 0.456791
1459.5, 0.456354
1459.91, 0.455722
1460.32, 0.455139
1460.74, 0.454702
1461.15, 0.454216
1461.56, 0.453632
1461.97, 0.453195
1462.39, 0.452855
1462.8, 0.452272
1463.21, 0.451834
1463.62, 0.451251
1464.04, 0.450571
1464.45, 0.449987
1464.86, 0.449550
1465.28, 0.449064
1465.69, 0.448578
1466.11, 0.448092
1466.52, 0.447849
1466.94, 0.447363
1467.35, 0.446683
1467.77, 0.446148
1468.18, 0.445759
1468.6, 0.445225
1469.02, 0.444836
1469.43, 0.444739
1469.85, 0.444447
1470.27, 0.444010
1470.68, 0.443669
1471.1, 0.443621
1471.52, 0.443572
1471.94, 0.443086
1472.35, 0.442649
1472.77, 0.442406
1473.19, 0.442114
1473.61, 0.441871
1474.03, 0.441531
1474.45, 0.441239
1474.87, 0.441045
1475.29, 0.440753
1475.71, 0.440267
1476.13, 0.439781
1476.55, 0.439247
1476.97, 0.438761
1477.39, 0.438275
1477.81, 0.437837
1478.23, 0.437060
1478.65, 0.436234
1479.07, 0.435602
1479.5, 0.435116
1479.92, 0.434144
1480.34, 0.433172
1480.76, 0.432297
1481.19, 0.431471
1481.61, 0.430304
1482.03, 0.429041
1482.46, 0.427437
1482.88, 0.425785
1483.31, 0.424375
1483.73, 0.422820
1484.16, 0.421216
1484.58, 0.419369
1485.01, 0.417814
1485.43, 0.416113
1485.86, 0.414412
1486.28, 0.412808
1486.71, 0.410864
1487.14, 0.409163
1487.56, 0.407219
1487.99, 0.405421
1488.42, 0.403672
1488.84, 0.402214
1489.27, 0.400707
1489.7, 0.399346
1490.13, 0.397985
1490.56, 0.397013
1490.98, 0.396139
1491.41, 0.395167
1491.84, 0.394535
1492.27, 0.393952
1492.7, 0.393514
1493.13, 0.392931
1493.56, 0.392639
1493.99, 0.392737
1494.42, 0.393368
1494.85, 0.394486
1495.29, 0.395896
1495.72, 0.397840
1496.15, 0.400415
1496.58, 0.403429
1497.01, 0.406588
1497.44, 0.409892
1497.88, 0.413537
1498.31, 0.417182
1498.74, 0.421119
1499.18, 0.424570
1499.61, 0.427972
1500.04, 0.431276
1500.48, 0.434144
1500.91, 0.436914
1501.35, 0.439684
1501.78, 0.442260
1502.22, 0.444253
1502.65, 0.446051
1503.09, 0.447703
1503.53, 0.449064
1503.96, 0.450376
1504.4, 0.451494
1504.83, 0.452369
1505.27, 0.453341
1505.71, 0.454070
1506.15, 0.454507
1506.58, 0.455042
1507.02, 0.455479
1507.46, 0.455771
1507.9, 0.456111
1508.34, 0.456354
1508.78, 0.456597
1509.21, 0.456840
1509.66, 0.456937
1510.09, 0.457229
1510.53, 0.457520
1510.97, 0.457618
1511.42, 0.457715
1511.86, 0.457812
1512.3, 0.457861
1512.74, 0.457763
1513.18, 0.458006
1513.62, 0.458395
1514.06, 0.458687
1514.51, 0.458784
1514.95, 0.458930
1515.39, 0.459124
1515.83, 0.459270
1516.28, 0.459513
1516.72, 0.459853
1517.16, 0.460242
1517.61, 0.460582
1518.05, 0.460679
1518.5, 0.460971
1518.94, 0.461360
1519.39, 0.461749
1519.83, 0.461943
1520.28, 0.462186
1520.73, 0.462332
1521.17, 0.462623
1521.62, 0.462964
1522.07, 0.463352
1522.51, 0.463741
1522.96, 0.464033
1523.41, 0.464227
1523.85, 0.464762
1524.3, 0.465053
1524.75, 0.465345
1525.2, 0.465637
1525.65, 0.465977
1526.1, 0.466366
1526.55, 0.466706
1527.0, 0.467095
1527.45, 0.467532
1527.9, 0.468018
1528.35, 0.468164
1528.8, 0.468261
1529.25, 0.468650
1529.7, 0.469087
1530.15, 0.469233
1530.6, 0.469427
1531.05, 0.469913
1531.51, 0.470059
1531.96, 0.470205
1532.41, 0.470399
1532.87, 0.470885
1533.32, 0.471080
1533.77, 0.471226
1534.23, 0.471420
1534.68, 0.471663
1535.14, 0.471857
1535.59, 0.472149
1536.05, 0.472489
1536.5, 0.472684
1536.96, 0.472878
1537.41, 0.472927
1537.87, 0.473218
1538.32, 0.473364
1538.78, 0.473461
1539.24, 0.473704
1539.7, 0.474044
1540.15, 0.474239
1540.61, 0.474190
1541.07, 0.474385
1541.53, 0.474579
1541.98, 0.474579
1542.44, 0.474725
1542.9, 0.474919
1543.36, 0.475016
1543.82, 0.475114
1544.28, 0.475259
1544.74, 0.475357
1545.2, 0.475502
1545.66, 0.475648
1546.12, 0.475697
1546.59, 0.475745
1547.05, 0.475891
1547.51, 0.476086
1547.97, 0.476183
1548.43, 0.476086
1548.9, 0.476086
1549.36, 0.476377
1549.82, 0.476474
1550.29, 0.476523
1550.75, 0.476766
1551.21, 0.476912
1551.68, 0.476960
1552.14, 0.477058
1552.61, 0.477155
1553.07, 0.477398
1553.54, 0.477738
1554.0, 0.477835
1554.47, 0.478030
1554.93, 0.478224
1555.4, 0.478418
1555.87, 0.478467
1556.34, 0.478613
1556.8, 0.478904
1557.27, 0.479050
1557.74, 0.479342
1558.21, 0.479633
1558.68, 0.479682
1559.14, 0.479731
1559.61, 0.479974
1560.08, 0.480168
1560.55, 0.480265
1561.02, 0.480557
1561.49, 0.480703
1561.96, 0.480800
1562.43, 0.481043
1562.9, 0.481334
1563.38, 0.481432
1563.85, 0.481529
1564.32, 0.481820
1564.79, 0.482063
1565.26, 0.482015
1565.74, 0.482161
1566.21, 0.482549
1566.68, 0.482598
1567.16, 0.482647
1567.63, 0.482890
1568.1, 0.482987
1568.58, 0.482987
1569.05, 0.483327
1569.53, 0.483521
1570.0, 0.483619
1570.48, 0.483813
1570.96, 0.483862
1571.43, 0.483813
1571.91, 0.483910
1572.39, 0.483959
1572.86, 0.484056
1573.34, 0.484299
1573.82, 0.484396
1574.3, 0.484639
1574.77, 0.484834
1575.25, 0.484979
1575.73, 0.484931
1576.21, 0.485028
1576.69, 0.485174
1577.17, 0.485320
1577.65, 0.485417
1578.13, 0.485660
1578.61, 0.485708
1579.09, 0.485757
1579.57, 0.485951
1580.05, 0.485903
1580.54, 0.485951
1581.02, 0.486000
1581.5, 0.486292
1581.98, 0.486340
1582.47, 0.486535
1582.95, 0.486680
1583.43, 0.486729
1583.92, 0.486826
1584.4, 0.486680
1584.88, 0.486729
1585.37, 0.487215
1585.85, 0.487312
1586.34, 0.487264
1586.82, 0.487361
1587.31, 0.487507
1587.8, 0.487701
1588.28, 0.487750
1588.77, 0.487798
1589.26, 0.487847
1589.74, 0.487798
1590.23, 0.487895
1590.72, 0.488090
1591.21, 0.488333
1591.7, 0.488381
1592.19, 0.488430
1592.67, 0.488527
1593.16, 0.488722
1593.65, 0.488770
1594.14, 0.488965
1594.63, 0.489305
1595.12, 0.489451
1595.61, 0.489451
1596.11, 0.489499
1596.6, 0.489645
1597.09, 0.489839
1597.58, 0.489888
1598.08, 0.490131
1598.57, 0.490374
1599.06, 0.490520
1599.55, 0.490617
1600.05, 0.490909
1600.54, 0.491200
1601.04, 0.491297
1601.53, 0.491297
1602.03, 0.491492
1602.52, 0.491735
1603.02, 0.491783
1603.51, 0.491735
1604.01, 0.491881
1604.5, 0.492124
1605.0, 0.492415
1605.5, 0.492415
1606.0, 0.492464
1606.49, 0.492610
1606.99, 0.492804
1607.49, 0.493096
1607.99, 0.493339
1608.49, 0.493339
1608.99, 0.493679
1609.49, 0.493727
1609.99, 0.493922
1610.49, 0.493922
1610.99, 0.494116
1611.49, 0.494505
1611.99, 0.494797
1612.49, 0.494894
1612.99, 0.494942
1613.49, 0.494991
1614.0, 0.495283
1614.5, 0.495526
1615.0, 0.495623
1615.51, 0.495623
1616.01, 0.495866
1616.51, 0.496060
1617.02, 0.496206
1617.52, 0.496595
1618.03, 0.496838
1618.53, 0.496838
1619.04, 0.496935
1619.54, 0.497129
1620.05, 0.497227
1620.55, 0.497372
1621.06, 0.497615
1621.57, 0.497810
1622.08, 0.497907
1622.58, 0.498004
1623.09, 0.498150
1623.6, 0.498344
1624.11, 0.498344
1624.62, 0.498539
1625.13, 0.498733
1625.64, 0.498830
1626.15, 0.498830
1626.66, 0.499073
1627.17, 0.499462
1627.68, 0.499365
1628.19, 0.499511
1628.7, 0.499657
1629.21, 0.499657
1629.72, 0.499851
1630.24, 0.499851
1630.75, 0.499851
1631.26, 0.500094
1631.78, 0.500386
1632.29, 0.500629
1632.8, 0.500774
1633.32, 0.500872
1633.83, 0.500872
1634.35, 0.501163
1634.86, 0.501115
1635.38, 0.501309
1635.9, 0.501503
1636.41, 0.501455
1636.93, 0.501455
1637.45, 0.501601
1637.96, 0.501795
1638.48, 0.501941
1639.0, 0.501989
1639.52, 0.502038
1640.04, 0.502184
1640.56, 0.502330
1641.08, 0.502524
1641.59, 0.502621
1642.11, 0.502621
1642.63, 0.502718
1643.16, 0.502913
1643.68, 0.503010
1644.2, 0.502961
1644.72, 0.503010
1645.24, 0.503059
1645.76, 0.503107
1646.29, 0.503302
1646.81, 0.503496
1647.33, 0.503496
1647.86, 0.503642
1648.38, 0.503690
1648.9, 0.503739
1649.43, 0.503836
1649.95, 0.503788
1650.48, 0.503788
1651.0, 0.503885
1651.53, 0.503982
1652.06, 0.504128
1652.58, 0.504128
1653.11, 0.504128
1653.64, 0.504274
1654.17, 0.504322
1654.69, 0.504322
1655.22, 0.504468
1655.75, 0.504419
1656.28, 0.504419
1656.81, 0.504517
1657.34, 0.504614
1657.87, 0.504565
1658.4, 0.504662
1658.93, 0.504808
1659.46, 0.504905
1659.99, 0.504857
1660.52, 0.505051
1661.05, 0.505100
1661.59, 0.505197
1662.12, 0.505246
1662.65, 0.505391
1663.19, 0.505391
1663.72, 0.505489
1664.26, 0.505634
1664.79, 0.505780
1665.32, 0.505926
1665.86, 0.506120
1666.39, 0.506023
1666.93, 0.505975
1667.47, 0.506120
1668.0, 0.506169
1668.54, 0.506218
1669.08, 0.506315
1669.61, 0.506509
1670.15, 0.506655
1670.69, 0.506655
1671.23, 0.506704
1671.77, 0.506849
1672.31, 0.506995
1672.85, 0.507141
1673.39, 0.507238
1673.93, 0.507287
1674.47, 0.507287
1675.01, 0.507384
1675.55, 0.507481
1676.09, 0.507433
1676.64, 0.507676
1677.18, 0.507578
1677.72, 0.507676
1678.26, 0.507821
1678.81, 0.507919
1679.35, 0.507919
1679.89, 0.508016
1680.44, 0.508113
1680.98, 0.508259
1681.53, 0.508210
1682.07, 0.508307
1682.62, 0.508453
1683.17, 0.508599
1683.71, 0.508550
1684.26, 0.508648
1684.81, 0.508842
1685.36, 0.508842
1685.9, 0.508842
1686.45, 0.508793
1687.0, 0.509036
1687.55, 0.509134
1688.1, 0.509134
1688.65, 0.509377
1689.2, 0.509328
1689.75, 0.509328
1690.3, 0.509328
1690.85, 0.509474
1691.41, 0.509668
1691.96, 0.509717
1692.51, 0.509717
1693.06, 0.509863
1693.61, 0.509863
1694.17, 0.509863
1694.72, 0.509960
1695.28, 0.510154
1695.83, 0.510154
1696.39, 0.510106
1696.94, 0.510106
1697.5, 0.510106
1698.05, 0.510203
1698.61, 0.510203
1699.17, 0.510251
1699.72, 0.510349
1700.28, 0.510397
1700.84, 0.510397
1701.4, 0.510397
1701.95, 0.510251
1702.51, 0.510203
1703.07, 0.510203
1703.63, 0.510057
1704.19, 0.510008
1704.75, 0.510008
1705.31, 0.510106
1705.88, 0.510057
1706.44, 0.510008
1707.0, 0.509960
1707.56, 0.509863
1708.12, 0.509765
1708.69, 0.509620
1709.25, 0.509571
1709.81, 0.509571
1710.38, 0.509377
1710.94, 0.509279
1711.51, 0.509279
1712.07, 0.509036
1712.64, 0.508891
1713.2, 0.508793
1713.77, 0.508745
1714.34, 0.508648
1714.9, 0.508502
1715.47, 0.508210
1716.04, 0.507821
1716.61, 0.507530
1717.18, 0.507384
1717.74, 0.507141
1718.31, 0.506801
1718.88, 0.506606
1719.45, 0.506315
1720.02, 0.506169
1720.59, 0.505586
1721.17, 0.505246
1721.74, 0.504905
1722.31, 0.504565
1722.88, 0.504225
1723.45, 0.503739
1724.03, 0.503302
1724.6, 0.502816
1725.18, 0.502184
1725.75, 0.501601
1726.33, 0.501212
1726.9, 0.500726
1727.48, 0.500143
1728.05, 0.499657
1728.63, 0.499122
1729.2, 0.498490
1729.78, 0.497664
1730.36, 0.496935
1730.94, 0.496449
1731.51, 0.495866
1732.09, 0.495234
1732.67, 0.494602
1733.25, 0.494116
1733.83, 0.493533
1734.41, 0.492804
1734.99, 0.492124
1735.57, 0.491638
1736.15, 0.491152
1736.73, 0.490666
1737.32, 0.490082
1737.9, 0.489451
1738.48, 0.489013
1739.07, 0.488333
1739.65, 0.487701
1740.23, 0.487118
1740.82, 0.486486
1741.4, 0.485660
1741.99, 0.484931
1742.57, 0.484348
1743.16, 0.483619
1743.74, 0.482938
1744.33, 0.482209
1744.92, 0.481529
1745.51, 0.480800
1746.09, 0.479974
1746.68, 0.479390
1747.27, 0.478710
1747.86, 0.478175
1748.45, 0.477495
1749.04, 0.476815
1749.63, 0.476280
1750.22, 0.475697
1750.81, 0.475162
1751.4, 0.474725
1751.99, 0.474287
1752.59, 0.473850
1753.18, 0.473364
1753.77, 0.472781
1754.37, 0.472392
1754.96, 0.472003
1755.56, 0.471809
1756.15, 0.471760
1756.74, 0.471614
1757.34, 0.471371
1757.94, 0.471274
1758.53, 0.471274
1759.13, 0.471128
1759.73, 0.471080
1760.32, 0.471128
1760.92, 0.471128
1761.52, 0.471031
1762.12, 0.470983
1762.72, 0.470885
1763.32, 0.470788
1763.92, 0.470691
1764.52, 0.470399
1765.12, 0.470302
1765.72, 0.470011
1766.32, 0.469913
1766.92, 0.469913
1767.53, 0.469962
1768.13, 0.470205
1768.73, 0.470642
1769.34, 0.471128
1769.94, 0.471566
1770.55, 0.472295
1771.15, 0.473218
1771.76, 0.474287
1772.36, 0.475357
1772.97, 0.476329
1773.57, 0.477398
1774.18, 0.478564
1774.79, 0.479585
1775.4, 0.480557
1776.0, 0.481626
1776.61, 0.482647
1777.22, 0.483619
1777.83, 0.484591
1778.44, 0.485563
1779.05, 0.486535
1779.66, 0.487555
1780.27, 0.488624
1780.88, 0.489742
1781.5, 0.490909
1782.11, 0.492026
1782.72, 0.493144
1783.33, 0.494311
1783.95, 0.495477
1784.56, 0.496498
1785.18, 0.497615
1785.79, 0.498539
1786.41, 0.499608
1787.02, 0.500677
1787.64, 0.501746
1788.26, 0.502864
1788.87, 0.503982
1789.49, 0.505051
1790.11, 0.506120
1790.73, 0.507335
1791.35, 0.508599
1791.96, 0.509814
1792.58, 0.511126
1793.21, 0.512341
1793.83, 0.513362
1794.45, 0.514237
1795.07, 0.515111
1795.69, 0.515646
1796.31, 0.516181
1796.93, 0.516861
1797.56, 0.517396
1798.18, 0.517833
1798.8, 0.518416
1799.43, 0.518902
1800.05, 0.519145
1800.68, 0.519388
1801.3, 0.519874
1801.93, 0.520166
1802.56, 0.520555
1803.18, 0.520749
1803.81, 0.520992
1804.44, 0.521284
1805.07, 0.521575
1805.7, 0.521721
1806.33, 0.521818
1806.95, 0.522061
1807.58, 0.522304
1808.22, 0.522547
1808.85, 0.522790
1809.48, 0.522887
1810.11, 0.522790
1810.74, 0.522985
1811.38, 0.523179
1812.01, 0.523130
1812.64, 0.523179
1813.28, 0.523422
1813.91, 0.523616
1814.55, 0.523714
1815.18, 0.523568
1815.82, 0.523616
1816.45, 0.523762
1817.09, 0.523811
1817.73, 0.523859
1818.36, 0.523859
1819.0, 0.523957
1819.64, 0.523811
1820.28, 0.523714
1820.92, 0.524005
1821.56, 0.524102
1822.2, 0.524248
1822.84, 0.524394
1823.48, 0.524540
1824.12, 0.524734
1824.76, 0.524686
1825.41, 0.524297
1826.05, 0.523908
1826.69, 0.524394
1827.34, 0.524929
1827.98, 0.524783
1828.63, 0.524637
1829.27, 0.524783
1829.92, 0.524686
1830.56, 0.524297
1831.21, 0.524394
1831.86, 0.524783
1832.5, 0.524831
1833.15, 0.524977
1833.8, 0.524929
1834.45, 0.524637
1835.1, 0.524443
1835.75, 0.524297
1836.4, 0.524102
1837.05, 0.524151
1837.7, 0.524151
1838.35, 0.524686
1839.01, 0.524783
1839.66, 0.524200
1840.31, 0.524491
1840.96, 0.524540
1841.62, 0.523957
1842.27, 0.524297
1842.93, 0.524831
1843.58, 0.525074
1844.24, 0.525220
1844.9, 0.525123
1845.55, 0.524929
1846.21, 0.524443
1846.87, 0.523957
1847.53, 0.524151
1848.18, 0.524394
1848.84, 0.524734
1849.5, 0.524880
1850.16, 0.524977
1850.82, 0.525074
1851.48, 0.525172
1852.14, 0.524977
1852.81, 0.524588
1853.47, 0.524102
1854.13, 0.524297
1854.8, 0.524831
1855.46, 0.524783
1856.12, 0.524297
1856.79, 0.524200
1857.45, 0.524588
1858.12, 0.524686
1858.79, 0.524200
1859.45, 0.523373
1860.12, 0.523422
1860.79, 0.523811
1861.46, 0.524054
1862.12, 0.523957
1862.79, 0.523811
1863.46, 0.523665
1864.13, 0.523422
1864.8, 0.523373
1865.48, 0.523325
1866.15, 0.523130
1866.82, 0.522644
1867.49, 0.521964
1868.16, 0.522158
1868.84, 0.522304
1869.51, 0.521915
1870.19, 0.521186
1870.86, 0.520749
1871.54, 0.521235
1872.21, 0.521041
1872.89, 0.520214
1873.56, 0.520263
1874.24, 0.520603
1874.92, 0.520409
1875.6, 0.520263
1876.28, 0.519923
1876.96, 0.519583
1877.64, 0.519631
1878.32, 0.519534
1879.0, 0.519194
1879.68, 0.518999
1880.36, 0.518659
1881.04, 0.518416
1881.73, 0.518027
1882.41, 0.517687
1883.09, 0.517104
1883.78, 0.516472
1884.46, 0.516424
1885.15, 0.516278
1885.83, 0.515792
1886.52, 0.515403
1887.21, 0.515111
1887.89, 0.514771
1888.58, 0.514334
1889.27, 0.513653
1889.96, 0.512827
1890.65, 0.512584
1891.34, 0.512244
1892.03, 0.511807
1892.72, 0.511418
1893.41, 0.510932
1894.1, 0.510592
1894.79, 0.510349
1895.49, 0.509960
1896.18, 0.509474
1896.87, 0.508939
1897.57, 0.508502
1898.26, 0.508162
1898.96, 0.507384
1899.65, 0.506801
1900.35, 0.506752
1901.05, 0.506849
1901.74, 0.506606
1902.44, 0.505829
1903.14, 0.505683
1903.84, 0.505829
1904.54, 0.505148
1905.24, 0.504468
1905.94, 0.504517
1906.64, 0.504419
1907.34, 0.504468
1908.04, 0.504468
1908.75, 0.504322
1909.45, 0.504128
1910.15, 0.503982
1910.86, 0.503690
1911.56, 0.503690
1912.27, 0.503739
1912.97, 0.503156
1913.68, 0.502913
1914.39, 0.503399
1915.09, 0.503350
1915.8, 0.503204
1916.51, 0.503253
1917.22, 0.503302
1917.93, 0.503350
1918.64, 0.503350
1919.35, 0.502961
1920.06, 0.502670
1920.77, 0.502864
1921.48, 0.503545
1922.19, 0.503690
1922.91, 0.503788
1923.62, 0.503593
1924.33, 0.503690
1925.05, 0.503933
1925.76, 0.504031
1926.48, 0.504176
1927.19, 0.504274
1927.91, 0.504176
1928.63, 0.504322
1929.35, 0.504662
1930.07, 0.504857
1930.78, 0.505051
1931.5, 0.505148
1932.22, 0.505391
1932.94, 0.505586
1933.66, 0.505732
1934.39, 0.505829
1935.11, 0.505877
1935.83, 0.506072
1936.55, 0.506218
1937.28, 0.506412
1938.0, 0.506461
1938.73, 0.506461
1939.45, 0.506558
1940.18, 0.506655
1940.9, 0.506704
1941.63, 0.506801
1942.36, 0.506849
1943.09, 0.506849
1943.81, 0.506849
1944.54, 0.506801
1945.27, 0.506655
1946.0, 0.506752
1946.73, 0.506704
1947.47, 0.506558
1948.2, 0.506461
1948.93, 0.506461
1949.66, 0.506315
1950.4, 0.506120
1951.13, 0.506023
1951.86, 0.505877
1952.6, 0.505586
1953.34, 0.505440
1954.07, 0.505391
1954.81, 0.505148
1955.55, 0.505100
1956.29, 0.505003
1957.02, 0.504808
1957.76, 0.504662
1958.5, 0.504565
1959.24, 0.504274
1959.98, 0.504225
1960.72, 0.504128
1961.47, 0.504079
1962.21, 0.503982
1962.95, 0.503933
1963.7, 0.503885
1964.44, 0.503788
1965.18, 0.503788
1965.93, 0.503788
1966.67, 0.503885
1967.42, 0.503982
1968.17, 0.503885
1968.92, 0.503982
1969.66, 0.504031
1970.41, 0.504031
1971.16, 0.504079
1971.91, 0.504079
1972.66, 0.504176
1973.41, 0.504176
1974.16, 0.504274
1974.92, 0.504274
1975.67, 0.504225
1976.42, 0.504176
1977.18, 0.504176
1977.93, 0.504079
1978.69, 0.503933
1979.44, 0.503788
1980.2, 0.503593
1980.95, 0.503447
1981.71, 0.503350
1982.47, 0.503107
1983.23, 0.502767
1983.99, 0.502524
1984.74, 0.502232
1985.51, 0.501795
1986.27, 0.501358
1987.03, 0.500920
1987.79, 0.500337
1988.55, 0.499802
1989.32, 0.499365
1990.08, 0.498830
1990.84, 0.498247
1991.61, 0.497615
1992.37, 0.497081
1993.14, 0.496400
1993.9, 0.495720
1994.67, 0.495040
1995.44, 0.494456
1996.21, 0.493776
1996.98, 0.493144
1997.75, 0.492610
1998.52, 0.492026
1999.29, 0.491443
2000.06, 0.490909
2000.83, 0.490423
2001.6, 0.489985
2002.38, 0.489499
2003.15, 0.489208
2003.93, 0.488770
2004.7, 0.488381
2005.48, 0.488187
2006.25, 0.487895
2007.03, 0.487652
2007.81, 0.487507
2008.58, 0.487458
2009.36, 0.487264
2010.14, 0.487264
2010.92, 0.487361
2011.7, 0.487215
2012.48, 0.487021
2013.26, 0.487118
2014.05, 0.487409
2014.83, 0.487555
2015.61, 0.487507
2016.4, 0.487604
2017.18, 0.487652
2017.97, 0.487798
2018.75, 0.487847
2019.54, 0.487944
2020.32, 0.487944
2021.11, 0.487798
2021.9, 0.487847
2022.69, 0.487798
2023.48, 0.487750
2024.27, 0.487555
2025.06, 0.487312
2025.85, 0.487021
2026.64, 0.486875
2027.44, 0.486535
2028.23, 0.486097
2029.02, 0.485806
2029.82, 0.485465
2030.61, 0.485125
2031.41, 0.484639
2032.2, 0.484056
2033.0, 0.483570
2033.8, 0.483230
2034.6, 0.482792
2035.4, 0.482209
2036.2, 0.481723
2037.0, 0.481189
2037.8, 0.480751
2038.6, 0.480314
2039.4, 0.479779
2040.2, 0.479342
2041.01, 0.479002
2041.81, 0.478613
2042.61, 0.478224
2043.42, 0.477932
2044.22, 0.477689
2045.03, 0.477398
2045.84, 0.477009
2046.65, 0.476766
2047.46, 0.476572
2048.26, 0.476377
2049.07, 0.476183
2049.88, 0.475843
2050.69, 0.475551
2051.51, 0.475357
2052.32, 0.475114
2053.13, 0.474871
2053.94, 0.474773
2054.76, 0.474482
2055.57, 0.474239
2056.39, 0.474142
2057.2, 0.473850
2058.02, 0.473607
2058.84, 0.473364
2059.66, 0.473072
2060.48, 0.472878
2061.29, 0.472586
2062.11, 0.472295
2062.94, 0.472100
2063.76, 0.472003
2064.58, 0.471809
2065.4, 0.471614
2066.22, 0.471371
2067.05, 0.471128
2067.87, 0.470788
2068.7, 0.470740
2069.52, 0.470691
2070.35, 0.470497
2071.18, 0.470302
2072.0, 0.470205
2072.83, 0.469962
2073.66, 0.469865
2074.49, 0.469768
2075.32, 0.469622
2076.15, 0.469427
2076.98, 0.469184
2077.82, 0.469087
2078.65, 0.468893
2079.48, 0.468650
2080.32, 0.468407
2081.15, 0.468164
2081.99, 0.467775
2082.83, 0.467435
2083.66, 0.467143
2084.5, 0.466706
2085.34, 0.466268
2086.18, 0.465831
2087.02, 0.465442
2087.86, 0.465053
2088.7, 0.464567
2089.54, 0.464081
2090.39, 0.463547
2091.23, 0.463012
2092.07, 0.462526
2092.92, 0.462040
2093.76, 0.461457
2094.61, 0.460777
2095.45, 0.460242
2096.3, 0.459707
2097.15, 0.459124
2098.0, 0.458444
2098.85, 0.457763
2099.7, 0.457083
2100.55, 0.456305
2101.4, 0.455674
2102.25, 0.454993
2103.1, 0.454410
2103.96, 0.453973
2104.81, 0.453487
2105.67, 0.453098
2106.52, 0.452855
2107.38, 0.452709
2108.24, 0.452563
2109.09, 0.452369
2109.95, 0.452126
2110.81, 0.451883
2111.67, 0.451543
2112.53, 0.451057
2113.39, 0.450765
2114.25, 0.450133
2115.12, 0.449453
2115.98, 0.448772
2116.84, 0.447898
2117.71, 0.447023
2118.58, 0.445954
2119.44, 0.444836
2120.31, 0.443669
2121.18, 0.442454
2122.04, 0.440996
2122.91, 0.439344
2123.78, 0.437643
2124.65, 0.435845
2125.52, 0.433901
2126.4, 0.431811
2127.27, 0.429721
2128.14, 0.427388
2129.02, 0.425007
2129.89, 0.422528
2130.77, 0.419904
2131.64, 0.417085
2132.52, 0.414266
2133.4, 0.411399
2134.27, 0.408629
2135.15, 0.406004
2136.03, 0.403429
2136.91, 0.401047
2137.79, 0.398666
2138.68, 0.396382
2139.56, 0.394146
2140.44, 0.391959
2141.33, 0.389723
2142.21, 0.387439
2143.1, 0.385155
2143.99, 0.382919
2144.87, 0.380441
2145.76, 0.377865
2146.65, 0.375143
2147.54, 0.372325
2148.43, 0.369506
2149.32, 0.366784
2150.21, 0.364306
2151.1, 0.361924
2151.99, 0.359689
2152.89, 0.357550
2153.78, 0.355606
2154.68, 0.353954
2155.57, 0.352642
2156.47, 0.351621
2157.37, 0.350795
2158.27, 0.350163
2159.16, 0.349531
2160.06, 0.348997
2160.96, 0.348608
2161.86, 0.348365
2162.77, 0.347976
2163.67, 0.347733
2164.57, 0.347441
2165.48, 0.347053
2166.38, 0.346712
2167.29, 0.346469
2168.2, 0.346226
2169.1, 0.346129
2170.01, 0.346032
2170.92, 0.346032
2171.83, 0.346178
2172.74, 0.346810
2173.65, 0.347587
2174.56, 0.348511
2175.47, 0.349580
2176.39, 0.350600
2177.3, 0.351378
2178.22, 0.352204
2179.13, 0.353128
2180.05, 0.354245
2180.96, 0.355606
2181.88, 0.357259
2182.8, 0.358814
2183.72, 0.360320
2184.64, 0.361633
2185.56, 0.362702
2186.48, 0.363625
2187.41, 0.364451
2188.33, 0.365472
2189.25, 0.367076
2190.18, 0.369409
2191.1, 0.372616
2192.03, 0.376504
2192.96, 0.380732
2193.89, 0.384766
2194.82, 0.388606
2195.74, 0.391862
2196.68, 0.394729
2197.61, 0.397159
2198.54, 0.399492
2199.47, 0.401922
2200.4, 0.404741
2201.34, 0.407851
2202.28, 0.411059
2203.21, 0.414364
2204.15, 0.417280
2205.08, 0.419467
2206.02, 0.420682
2206.96, 0.420682
2207.9, 0.419467
2208.84, 0.416842
2209.78, 0.412906
2210.73, 0.407851
2211.67, 0.402311
2212.61, 0.396965
2213.56, 0.392153
2214.5, 0.388217
2215.45, 0.385884
2216.4, 0.385787
2217.35, 0.387925
2218.3, 0.392008
2219.24, 0.397111
2220.2, 0.402554
2221.15, 0.408094
2222.1, 0.413440
2223.05, 0.418640
2224.0, 0.423695
2224.96, 0.428603
2225.91, 0.433318
2226.87, 0.437789
2227.83, 0.441871
2228.79, 0.445516
2229.74, 0.448724
2230.7, 0.451591
2231.66, 0.454216
2232.63, 0.457132
2233.59, 0.460388
2234.55, 0.464179
2235.51, 0.468407
2236.48, 0.472684
2237.44, 0.476815
2238.41, 0.480557
2239.38, 0.483764
2240.34, 0.486437
2241.31, 0.488576
2242.28, 0.490228
2243.25, 0.491589
2244.22, 0.492658
2245.19, 0.493630
2246.17, 0.494359
2247.14, 0.494991
2248.12, 0.495574
2249.09, 0.496012
2250.07, 0.496157
2251.04, 0.496449
2252.02, 0.496838
2253.0, 0.497081
2253.98, 0.497227
2254.96, 0.497372
2255.94, 0.497518
2256.92, 0.497761
2257.91, 0.497761
2258.89, 0.497567
2259.88, 0.497567
2260.86, 0.497470
2261.85, 0.497275
2262.83, 0.497178
2263.82, 0.497129
2264.81, 0.497032
2265.8, 0.496838
2266.79, 0.496643
2267.78, 0.496400
2268.78, 0.496157
2269.77, 0.495866
2270.76, 0.495574
2271.76, 0.495185
2272.75, 0.494894
2273.75, 0.494554
2274.75, 0.494165
2275.75, 0.493922
2276.75, 0.493484
2277.75, 0.493144
2278.75, 0.492853
2279.75, 0.492512
2280.75, 0.492124
2281.76, 0.491735
2282.76, 0.491249
2283.77, 0.490860
2284.77, 0.490423
2285.78, 0.489791
2286.79, 0.489159
2287.8, 0.488527
2288.81, 0.487944
2289.82, 0.487264
2290.83, 0.486583
2291.84, 0.485854
2292.86, 0.485028
2293.87, 0.484348
2294.89, 0.483424
2295.91, 0.482355
2296.92, 0.481189
2297.94, 0.479974
2298.96, 0.478710
2299.98, 0.477058
2301.0, 0.475259
2302.02, 0.473364
2303.04, 0.471128
2304.07, 0.468553
2305.09, 0.465734
2306.12, 0.462575
2307.15, 0.459076
2308.17, 0.455285
2309.2, 0.451154
2310.23, 0.446634
2311.26, 0.441823
2312.29, 0.436817
2313.32, 0.431665
2314.35, 0.426611
2315.39, 0.421508
2316.42, 0.416745
2317.46, 0.412420
2318.5, 0.408483
2319.53, 0.405081
2320.57, 0.402457
2321.61, 0.400464
2322.65, 0.399152
2323.69, 0.398471
2324.73, 0.398569
2325.78, 0.399249
2326.82, 0.400367
2327.86, 0.401825
2328.91, 0.403623
2329.96, 0.405664
2331.01, 0.407900
2332.05, 0.410135
2333.1, 0.412517
2334.15, 0.414898
2335.21, 0.417425
2336.26, 0.420001
2337.31, 0.422674
2338.36, 0.425396
2339.42, 0.428166
2340.48, 0.430985
2341.53, 0.433755
2342.59, 0.436477
2343.65, 0.439198
2344.71, 0.441871
2345.77, 0.444350
2346.83, 0.446585
2347.9, 0.448821
2348.96, 0.450814
2350.02, 0.452563
2351.09, 0.454264
2352.16, 0.455576
2353.23, 0.456646
2354.29, 0.457618
2355.36, 0.458395
2356.43, 0.458930
2357.51, 0.459270
2358.58, 0.459319
2359.65, 0.459270
2360.73, 0.459173
2361.8, 0.458784
2362.88, 0.458249
2363.96, 0.457569
2365.03, 0.456694
2366.11, 0.455528
2367.19, 0.454313
2368.27, 0.452758
2369.36, 0.451202
2370.44, 0.449356
2371.53, 0.447266
2372.61, 0.444836
2373.7, 0.442066
2374.78, 0.439198
2375.87, 0.436136
2376.96, 0.432734
2378.05, 0.429235
2379.14, 0.425493
2380.24, 0.421362
2381.33, 0.417134
2382.42, 0.412711
2383.52, 0.408240
2384.61, 0.403672
2385.71, 0.399103
2386.81, 0.394535
2387.91, 0.390209
2389.01, 0.386030
2390.11, 0.382045
2391.22, 0.378545
2392.32, 0.375435
2393.42, 0.372859
2394.53, 0.370867
2395.64, 0.369263
2396.74, 0.367951
2397.85, 0.367124
2398.96, 0.366638
2400.07, 0.366347
2401.18, 0.366201
2402.3, 0.366250
2403.41, 0.366298
2404.52, 0.366493
2405.64, 0.366736
2406.76, 0.367076
2407.88, 0.367416
2408.99, 0.367902
2410.11, 0.368388
2411.23, 0.368971
2412.36, 0.369506
2413.48, 0.369797
2414.6, 0.369943
2415.73, 0.369797
2416.85, 0.369409
2417.98, 0.368485
2419.11, 0.367222
2420.24, 0.365618
2421.37, 0.363625
2422.5, 0.361098
2423.64, 0.358133
2424.77, 0.354780
2425.9, 0.350989
2427.04, 0.346761
2428.18, 0.342241
2429.31, 0.337576
2430.45, 0.332910
2431.59, 0.328099
2432.73, 0.323384
2433.88, 0.318865
2435.02, 0.314588
2436.16, 0.310651
2437.31, 0.307055
2438.45, 0.304042
2439.6, 0.301174
2440.75, 0.298696
2441.9, 0.296654
2443.05, 0.295245
2444.2, 0.294079
2445.35, 0.293447
2446.51, 0.293350
2447.67, 0.293836
2448.82, 0.294808
2449.98, 0.296363
2451.14, 0.298258
2452.3, 0.300445
2453.46, 0.302875
2454.62, 0.305354
2455.78, 0.307784
2456.94, 0.309971
2458.11, 0.311866
2459.28, 0.313421
2460.44, 0.314636
2461.61, 0.315511
2462.78, 0.315949
2463.95, 0.315997
2465.12, 0.315949
2466.3, 0.315511
2467.47, 0.314782
2468.65, 0.313956
2469.82, 0.312935
2471.0, 0.311866
2472.18, 0.310651
2473.36, 0.309436
2474.54, 0.308416
2475.72, 0.307687
2476.9, 0.307055
2478.08, 0.306520
2479.27, 0.306180
2480.46, 0.306326
2481.64, 0.306715
2482.83, 0.307395
2484.02, 0.308270
2485.21, 0.309290
2486.4, 0.310165
2487.6, 0.310894
2488.79, 0.311477
2489.99, 0.311672
2491.18, 0.311380
2492.38, 0.310603
2493.58, 0.309096
2494.78, 0.307055
2495.98, 0.304722
2497.18, 0.302000
2498.39, 0.299230
2499.59, 0.296606
2500.8, 0.294467
2502.01, 0.292961
2503.21, 0.292280
2504.42, 0.292135
2505.63, 0.292183
2506.84, 0.292280
2508.06, 0.291892
2509.27, 0.290822
2510.49, 0.288830
2511.7, 0.285914
2512.92, 0.282026
2514.14, 0.277457
2515.36, 0.272257
2516.58, 0.266717
2517.8, 0.261079
2519.03, 0.255733
2520.25, 0.250727
2521.48, 0.246645
2522.7, 0.243292
2523.93, 0.241299
2525.16, 0.240619
2526.39, 0.241396
2527.62, 0.243535
2528.86, 0.246937
2530.09, 0.251262
2531.33, 0.256414
2532.56, 0.262148
2533.8, 0.268564
2535.04, 0.274687
2536.28, 0.281005
2537.52, 0.287518
2538.76, 0.293398
2540.01, 0.298501
2541.25, 0.302729
2542.5, 0.306229
2543.75, 0.309582
2544.99, 0.312547
2546.24, 0.314588
2547.49, 0.316094
2548.75, 0.317650
2550.0, 0.318622
2551.26, 0.319156
2552.51, 0.319837
2553.77, 0.321246
2555.03, 0.322218
2556.29, 0.322704
2557.55, 0.323093
2558.81, 0.322850
2560.08, 0.321440
2561.34, 0.320177
2562.61, 0.319788
2563.88, 0.319399
2565.14, 0.319642
2566.41, 0.319788
2567.68, 0.318524
2568.96, 0.316726
2570.23, 0.316726
2571.51, 0.317309
2572.78, 0.315997
2574.06, 0.317309
2575.34, 0.319010
2576.62, 0.319545
2577.9, 0.321489
2579.18, 0.322850
2580.47, 0.322801
2581.75, 0.323141
2583.04, 0.321683
2584.32, 0.322072
2585.61, 0.323287
2586.9, 0.322218
2588.2, 0.321926
2589.49, 0.321683
2590.78, 0.321197
2592.08, 0.319205
2593.37, 0.313324
2594.67, 0.309436
2595.97, 0.313713
2597.27, 0.318476
2598.57, 0.321197
2599.88, 0.323190
2601.18, 0.325669
2602.49, 0.329216
2603.79, 0.332084
2605.1, 0.334757
2606.41, 0.341221
2607.72, 0.347684
2609.03, 0.352253
2610.35, 0.356627
2611.66, 0.360223
2612.98, 0.362556
2614.3, 0.364597
2615.62, 0.363868
2616.94, 0.364306
2618.26, 0.367124
2619.58, 0.366250
2620.91, 0.368485
2622.23, 0.373297
2623.56, 0.375386
2624.89, 0.375727
2626.22, 0.375143
2627.55, 0.378400
2628.88, 0.378983
2630.21, 0.377962
2631.55, 0.382190
2632.89, 0.384961
2634.22, 0.386273
2635.56, 0.388411
2636.9, 0.389480
2638.25, 0.390501
2639.59, 0.391036
2640.93, 0.391376
2642.28, 0.391716
2643.63, 0.392105
2644.98, 0.391522
2646.33, 0.392056
2647.68, 0.393125
2649.03, 0.393563
2650.39, 0.393125
2651.74, 0.391765
2653.1, 0.391765
2654.46, 0.392008
2655.82, 0.391716
2657.18, 0.391910
2658.54, 0.389918
2659.9, 0.388168
2661.27, 0.386370
2662.64, 0.383162
2664.01, 0.375581
2665.38, 0.368825
2666.74, 0.364889
2668.12, 0.362167
2669.49, 0.353273
2670.87, 0.348122
2672.24, 0.348025
2673.62, 0.343456
2675.0, 0.336506
2676.38, 0.330188
2677.76, 0.326592
2679.15, 0.323676
2680.54, 0.323287
2681.92, 0.322169
2683.31, 0.321246
2684.7, 0.321538
2686.09, 0.321926
2687.48, 0.322218
2688.88, 0.322072
2690.27, 0.320857
2691.67, 0.317698
2693.07, 0.312352
2694.47, 0.308756
2695.87, 0.306131
2697.27, 0.303167
2698.67, 0.299084
2700.08, 0.294224
2701.49, 0.290093
2702.9, 0.287323
2704.31, 0.284213
2705.72, 0.281151
2707.13, 0.277895
2708.54, 0.274347
2709.96, 0.270653
2711.38, 0.269681
2712.8, 0.271042
2714.22, 0.270702
2715.64, 0.269390
2717.06, 0.267154
2718.49, 0.263558
2719.91, 0.258601
2721.34, 0.257288
2722.77, 0.255199
2724.2, 0.250970
2725.63, 0.249269
2727.07, 0.247180
2728.5, 0.243778
2729.94, 0.239598
2731.38, 0.235175
2732.82, 0.230315
2734.26, 0.224921
2735.7, 0.220936
2737.15, 0.216805
2738.59, 0.210924
2740.04, 0.206161
2741.49, 0.203342
2742.94, 0.200767
2744.39, 0.197073
2745.84, 0.192650
2747.3, 0.187742
2748.76, 0.182396
2750.21, 0.176321
2751.67, 0.169808
2753.14, 0.162664
2754.6, 0.154694
2756.06, 0.148376
2757.53, 0.143467
2759.0, 0.138073
2760.46, 0.132581
2761.94, 0.127283
2763.41, 0.123055
2764.88, 0.119507
2766.36, 0.115862
2767.83, 0.112315
2769.31, 0.108913
2770.79, 0.105316
2772.27, 0.102157
2773.76, 0.0987070
2775.24, 0.0948670
2776.73, 0.0906390
2778.22, 0.0863620
2779.71, 0.0817940
2781.2, 0.0772740
2782.69, 0.0729970
2784.18, 0.0689150
2785.68, 0.0648320
2787.18, 0.0612360
2788.68, 0.0580770
2790.18, 0.0552580
2791.68, 0.0526340
2793.19, 0.0504470
2794.69, 0.0485510
2796.2, 0.0470930
2797.71, 0.0458300
2799.22, 0.0448580
2800.73, 0.0439830
2802.24, 0.0432050
2803.76, 0.0425740
2805.28, 0.0419900
2806.8, 0.0412130
2808.32, 0.0401920
2809.84, 0.0389770
2811.36, 0.0377140
2812.89, 0.0362560
2814.42, 0.0348460
2815.94, 0.0332910
2817.48, 0.0317360
2819.01, 0.0302290
2820.54, 0.0288680
2822.08, 0.0276530
2823.61, 0.0265840
2825.15, 0.0255150
2826.69, 0.0245430
2828.23, 0.0235710
2829.78, 0.0227930
2831.32, 0.0221130
2832.87, 0.0216270
2834.42, 0.0211410
2835.97, 0.0206550
2837.52, 0.0201200
2839.08, 0.0196340
2840.63, 0.0191480
2842.19, 0.0188570
2843.75, 0.0184680
2845.31, 0.0183710
2846.87, 0.0182740
2848.44, 0.0182740
2850.0, 0.0184680
2851.57, 0.0187600
2853.14, 0.0190510
2854.71, 0.0194890
2856.28, 0.0200720
2857.86, 0.0208010
2859.43, 0.0212870
2861.01, 0.0214810
2862.59, 0.0211900
2864.17, 0.0207040
2865.76, 0.0200720
2867.34, 0.0195370
2868.93, 0.0191480
2870.52, 0.0193910
2872.11, 0.0208010
2873.7, 0.0237170
2875.29, 0.0274100
2876.89, 0.0311530
2878.49, 0.0344090
2880.08, 0.0368870
2881.69, 0.0380540
2883.29, 0.0384430
2884.89, 0.0379570
2886.5, 0.0370820
2888.11, 0.0360610
2889.72, 0.0350890
2891.33, 0.0341170
2892.94, 0.0331940
2894.56, 0.0323190
2896.17, 0.0316390
2897.79, 0.0309100
2899.42, 0.0301810
2901.04, 0.0294030
2902.66, 0.0287710
2904.29, 0.0279940
2905.92, 0.0272650
2907.55, 0.0264870
2909.18, 0.0258550
2910.81, 0.0253210
2912.45, 0.0250290
2914.08, 0.0248830
2915.72, 0.0249320
2917.36, 0.0249800
2919.01, 0.0251750
2920.65, 0.0253210
2922.3, 0.0255640
2923.94, 0.0257090
2925.59, 0.0260980
2927.25, 0.0263410
2928.9, 0.0265360
2930.56, 0.0267790
2932.21, 0.0270700
2933.87, 0.0273620
2935.53, 0.0275080
2937.2, 0.0277020
2938.86, 0.0280910
2940.53, 0.0283820
2942.2, 0.0286740
2943.87, 0.0288680
2945.54, 0.0291110
2947.22, 0.0292090
2948.89, 0.0293540
2950.57, 0.0294520
2952.25, 0.0294520
2953.93, 0.0293060
2955.62, 0.0291600
2957.3, 0.0289170
2958.99, 0.0287230
2960.68, 0.0284800
2962.37, 0.0284310
2964.07, 0.0283820
2965.76, 0.0284310
2967.46, 0.0286250
2969.16, 0.0289170
2970.86, 0.0294030
2972.56, 0.0299860
2974.27, 0.0305690
2975.98, 0.0312500
2977.69, 0.0318330
2979.4, 0.0326110
2981.11, 0.0334370
2982.83, 0.0342140
2984.54, 0.0349430
2986.26, 0.0357700
2987.98, 0.0364990
2989.71, 0.0373730
2991.43, 0.0382000
2993.16, 0.0389770
2994.89, 0.0398030
2996.62, 0.0406780
2998.35, 0.0415530
3000.09, 0.0425740
3001.83, 0.0435940
3003.57, 0.0447610
3005.31, 0.0460240
3007.05, 0.0475790
3008.79, 0.0492800
3010.54, 0.0512730
3012.29, 0.0533140
3014.04, 0.0555500
3015.8, 0.0579800
3017.55, 0.0606040
3019.31, 0.0632290
3021.07, 0.0657560
3022.83, 0.0680400
3024.59, 0.0699840
3026.36, 0.0715880
3028.13, 0.0728510
3029.9, 0.0737750
3031.67, 0.0745520
3033.44, 0.0751840
3035.22, 0.0758650
3037.0, 0.0766420
3038.78, 0.0776140
3040.56, 0.0787320
3042.34, 0.0800930
3044.13, 0.0816480
3045.92, 0.0832030
3047.71, 0.0848070
3049.5, 0.0865080
3051.3, 0.0882090
3053.09, 0.0898610
3054.89, 0.0915620
3056.69, 0.0932150
3058.5, 0.0947700
3060.3, 0.0960820
3062.11, 0.0972490
3063.92, 0.0982690
3065.73, 0.0988520
3067.55, 0.0990950
3069.36, 0.0989010
3071.18, 0.0984150
3073.0, 0.0975890
3074.82, 0.0967140
3076.65, 0.0957910
3078.48, 0.0948670
3080.31, 0.0939920
3082.14, 0.0932630
3083.97, 0.0925340
3085.8, 0.0919030
3087.64, 0.0912710
3089.48, 0.0907850
3091.33, 0.0903470
3093.17, 0.0901530
3095.02, 0.0900070
3096.87, 0.0900070
3098.72, 0.0900560
3100.57, 0.0902020
3102.43, 0.0902500
3104.28, 0.0903470
3106.14, 0.0902990
3108.01, 0.0901040
3109.87, 0.0898610
3111.74, 0.0897160
3113.61, 0.0896180
3115.48, 0.0897160
3117.35, 0.0900560
3119.23, 0.0907850
3121.1, 0.0918050
3122.98, 0.0934090
3124.87, 0.0956930
3126.75, 0.0984640
3128.64, 0.101768
3130.53, 0.105511
3132.42, 0.109399
3134.31, 0.113287
3136.21, 0.117029
3138.11, 0.120382
3140.01, 0.123250
3141.91, 0.125631
3143.82, 0.127283
3145.73, 0.128547
3147.64, 0.129325
3149.55, 0.129859
3151.46, 0.130297
3153.38, 0.130783
3155.3, 0.131512
3157.22, 0.132824
3159.14, 0.134768
3161.07, 0.137441
3163.0, 0.140648
3164.93, 0.144245
3166.86, 0.147890
3168.8, 0.151486
3170.74, 0.154791
3172.68, 0.157707
3174.62, 0.160331
3176.56, 0.162761
3178.51, 0.164803
3180.46, 0.166649
3182.42, 0.168302
3184.37, 0.169808
3186.33, 0.171169
3188.29, 0.172433
3190.25, 0.173696
3192.21, 0.174911
3194.18, 0.176029
3196.15, 0.177341
3198.12, 0.178654
3200.09, 0.180063
3202.07, 0.181521
3204.05, 0.183173
3206.03, 0.184874
3208.02, 0.186575
3210.0, 0.188325
3211.99, 0.189929
3213.98, 0.191387
3215.98, 0.192796
3217.97, 0.194060
3219.97, 0.195178
3221.97, 0.196295
3223.98, 0.197316
3225.98, 0.198191
3227.99, 0.199017
3230.0, 0.199746
3232.02, 0.200524
3234.03, 0.201155
3236.05, 0.201884
3238.07, 0.202516
3240.1, 0.203148
3242.12, 0.203683
3244.15, 0.204266
3246.18, 0.204752
3248.22, 0.205286
3250.25, 0.205870
3252.29, 0.206453
3254.33, 0.206987
3256.38, 0.207522
3258.43, 0.208057
3260.47, 0.208688
3262.53, 0.209272
3264.58, 0.210049
3266.64, 0.210827
3268.7, 0.211604
3270.76, 0.212382
3272.82, 0.213062
3274.89, 0.213694
3276.96, 0.214277
3279.04, 0.214763
3281.11, 0.215249
3283.19, 0.215735
3285.27, 0.216173
3287.35, 0.216659
3289.44, 0.217193
3291.53, 0.217728
3293.62, 0.218311
3295.71, 0.218943
3297.81, 0.219866
3299.91, 0.220741
3302.01, 0.221665
3304.11, 0.222539
3306.22, 0.223414
3308.33, 0.224338
3310.44, 0.225212
3312.56, 0.225844
3314.68, 0.226330
3316.8, 0.226719
3318.92, 0.227011
3321.05, 0.227108
3323.18, 0.227156
3325.31, 0.227156
3327.44, 0.227059
3329.58, 0.227108
3331.72, 0.227156
3333.86, 0.227254
3336.01, 0.227497
3338.16, 0.227837
3340.31, 0.228420
3342.46, 0.228857
3344.61, 0.229441
3346.77, 0.230072
3348.94, 0.230801
3351.1, 0.231579
3353.27, 0.232259
3355.44, 0.232940
3357.61, 0.233717
3359.79, 0.234349
3361.97, 0.234884
3364.15, 0.235418
3366.33, 0.235904
3368.52, 0.236293
3370.71, 0.236682
3372.9, 0.236974
3375.1, 0.237362
3377.3, 0.237751
3379.5, 0.238334
3381.71, 0.238918
3383.91, 0.239549
3386.12, 0.240376
3388.34, 0.241250
3390.55, 0.242222
3392.77, 0.243340
3394.99, 0.244652
3397.22, 0.246062
3399.45, 0.247374
3401.68, 0.248735
3403.91, 0.250193
3406.15, 0.251699
3408.39, 0.253060
3410.63, 0.254275
3412.87, 0.255344
3415.12, 0.256559
3417.37, 0.257677
3419.63, 0.258795
3421.88, 0.259864
3424.14, 0.260982
3426.41, 0.262100
3428.67, 0.263120
3430.94, 0.264044
3433.21, 0.264821
3435.49, 0.265405
3437.77, 0.265988
3440.05, 0.266425
3442.33, 0.266765
3444.62, 0.267057
3446.91, 0.267300
3449.2, 0.267640
3451.5, 0.267980
3453.8, 0.268272
3456.1, 0.268612
3458.41, 0.269001
3460.72, 0.269536
3463.03, 0.270167
3465.34, 0.270848
3467.66, 0.271528
3469.98, 0.272306
3472.31, 0.273132
3474.63, 0.274007
3476.96, 0.274882
3479.3, 0.275805
3481.64, 0.276777
3483.97, 0.277749
3486.32, 0.278672
3488.66, 0.279547
3491.01, 0.280276
3493.36, 0.281005
3495.72, 0.281734
3498.08, 0.282415
3500.44, 0.283095
3502.81, 0.283970
3505.18, 0.284990
3507.55, 0.286108
3509.92, 0.287226
3512.3, 0.288392
3514.68, 0.289413
3517.06, 0.290239
3519.45, 0.291065
3521.84, 0.291746
3524.24, 0.292329
3526.64, 0.292912
3529.04, 0.293350
3531.44, 0.293836
3533.85, 0.294322
3536.26, 0.294808
3538.67, 0.295391
3541.09, 0.296023
3543.51, 0.296654
3545.93, 0.297335
3548.36, 0.297967
3550.79, 0.298696
3553.22, 0.299425
3555.66, 0.300154
3558.1, 0.300834
3560.54, 0.301514
3562.99, 0.302243
3565.44, 0.302924
3567.9, 0.303556
3570.35, 0.304139
3572.81, 0.304868
3575.28, 0.305645
3577.75, 0.306423
3580.22, 0.307152
3582.69, 0.307930
3585.17, 0.308804
3587.65, 0.309776
3590.14, 0.310700
3592.62, 0.311672
3595.11, 0.312595
3597.61, 0.313470
3600.11, 0.314296
3602.61, 0.315074
3605.11, 0.315803
3607.62, 0.316483
3610.14, 0.317066
3612.65, 0.317601
3615.17, 0.318136
3617.69, 0.318573
3620.22, 0.319010
3622.75, 0.319448
3625.28, 0.319837
3627.82, 0.320225
3630.36, 0.320614
3632.9, 0.321052
3635.45, 0.321440
3638.0, 0.321878
3640.56, 0.322364
3643.12, 0.322850
3645.68, 0.323384
3648.24, 0.323870
3650.81, 0.324551
3653.39, 0.325134
3655.96, 0.325669
3658.54, 0.326300
3661.13, 0.326981
3663.71, 0.327613
3666.3, 0.328390
3668.9, 0.329071
3671.5, 0.329702
3674.1, 0.330334
3676.7, 0.331063
3679.31, 0.331695
3681.93, 0.332181
3684.54, 0.332667
3687.17, 0.333250
3689.79, 0.333785
3692.42, 0.334319
3695.05, 0.334854
3697.69, 0.335340
3700.32, 0.335680
3702.97, 0.336069
3705.61, 0.336458
3708.27, 0.336652
3710.92, 0.336847
3713.58, 0.337041
3716.24, 0.337381
3718.91, 0.337527
3721.58, 0.337673
3724.25, 0.337819
3726.93, 0.337916
3729.61, 0.338062
3732.29, 0.338207
3734.98, 0.338305
3737.67, 0.338499
3740.37, 0.338693
3743.07, 0.338839
3745.78, 0.338985
3748.49, 0.339228
3751.2, 0.339422
3753.91, 0.339617
3756.63, 0.339860
3759.36, 0.340054
3762.09, 0.340200
3764.82, 0.340346
3767.55, 0.340443
3770.29, 0.340637
3773.04, 0.340783
3775.78, 0.340929
3778.54, 0.340978
3781.29, 0.340978
3784.05, 0.341075
3786.82, 0.341172
3789.59, 0.341026
3792.36, 0.340832
3795.13, 0.340735
3797.92, 0.340686
3800.7, 0.340589
3803.49, 0.340394
3806.28, 0.340249
3809.08, 0.339957
3811.88, 0.339471
3814.68, 0.339082
3817.49, 0.338985
3820.31, 0.338888
3823.12, 0.338693
3825.94, 0.338256
3828.77, 0.337867
3831.6, 0.337527
3834.43, 0.337138
3837.27, 0.336749
3840.11, 0.336312
3842.96, 0.335875
3845.81, 0.335486
3848.67, 0.335097
3851.53, 0.334562
3854.39, 0.333979
3857.26, 0.333445
3860.13, 0.332813
3863.01, 0.332084
3865.89, 0.331209
3868.77, 0.330091
3871.66, 0.328682
3874.55, 0.327029
3877.45, 0.324697
3880.35, 0.321829
3883.26, 0.318622
3886.17, 0.314928
3889.09, 0.310991
3892.01, 0.307298
3894.93, 0.304042
3897.86, 0.301417
3900.79, 0.300931
3903.73, 0.303896
3906.67, 0.308950
3909.62, 0.313567
3912.57, 0.316775
3915.52, 0.318379
3918.48, 0.319059
3921.45, 0.319108
3924.42, 0.318913
3927.39, 0.318622
3930.37, 0.318136
3933.35, 0.317552
3936.34, 0.317018
3939.33, 0.316386
3942.32, 0.315754
3945.32, 0.315171
3948.33, 0.314491
3951.34, 0.313859
3954.35, 0.313178
3957.37, 0.312498
3960.39, 0.311818
3963.42, 0.311137
3966.45, 0.310360
3969.49, 0.309679
3972.53, 0.308999
3975.58, 0.308124
3978.63, 0.307298
3981.68, 0.306569
3984.75, 0.305694
3987.81, 0.304868
3990.88, 0.303944
3993.95, 0.303167
3997.03, 0.302389
4000.12, 0.301612
4003.21, 0.300785
4006.3, 0.300008
4009.4, 0.299279
4012.5, 0.298501
4015.61, 0.297578
4018.72, 0.296897
4021.84, 0.296120
4024.96, 0.295294
4028.09, 0.294322
4031.22, 0.293495
4034.36, 0.292621
4037.5, 0.291697
4040.65, 0.290677
4043.8, 0.289656
4046.96, 0.288587
4050.12, 0.287469
4053.29, 0.286205
4056.46, 0.284893
4059.64, 0.283532
4062.82, 0.282123
4066.0, 0.280616
4069.19, 0.279061
4072.39, 0.277409
4075.59, 0.275805
4078.8, 0.274055
4082.01, 0.272257
4085.23, 0.270508
4088.45, 0.268758
4091.68, 0.266863
4094.91, 0.265113
4098.15, 0.263412
4101.39, 0.261857
4104.63, 0.260399
4107.89, 0.258941
4111.14, 0.257726
4114.41, 0.256559
4117.67, 0.255247
4120.95, 0.254081
4124.23, 0.252963
4127.51, 0.251991
4130.8, 0.250873
4134.09, 0.250047
4137.39, 0.249269
4140.7, 0.248443
4144.01, 0.247763
4147.32, 0.247325
4150.64, 0.246694
4153.97, 0.246159
4157.3, 0.245527
4160.64, 0.244944
4163.98, 0.244458
4167.33, 0.243875
4170.68, 0.243097
4174.04, 0.242222
4177.4, 0.241153
4180.77, 0.239890
4184.14, 0.238529
4187.52, 0.237119
4190.91, 0.235321
4194.3, 0.233231
4197.69, 0.230753
4201.1, 0.228128
4204.5, 0.225115
4207.92, 0.221762
4211.34, 0.218020
4214.76, 0.213840
4218.19, 0.209369
4221.62, 0.204800
4225.06, 0.200135
4228.51, 0.195615
4231.96, 0.191144
4235.42, 0.186964
4238.88, 0.182882
4242.35, 0.179188
4245.83, 0.175689
4249.31, 0.172384
4252.79, 0.168982
4256.28, 0.165580
4259.78, 0.161789
4263.29, 0.157756
4266.79, 0.153819
4270.31, 0.150223
4273.83, 0.146480
4277.35, 0.142641
4280.89, 0.138461
4284.42, 0.133942
4287.97, 0.129179
4291.52, 0.124513
4295.07, 0.120285
4298.63, 0.116397
4302.2, 0.112898
4305.78, 0.110273
4309.35, 0.107941
4312.94, 0.106045
4316.53, 0.104198
4320.13, 0.102400
4323.73, 0.100748
4327.34, 0.0991440
4330.96, 0.0976370
4334.58, 0.0963740
4338.21, 0.0955960
4341.84, 0.0956930
4345.48, 0.0963250
4349.12, 0.0974920
4352.77, 0.0991440
4356.43, 0.101039
4360.1, 0.102595
4363.76, 0.104101
4367.44, 0.105073
4371.12, 0.105268
4374.81, 0.104733
4378.51, 0.103858
4382.21, 0.102254
4385.92, 0.100262
4389.63, 0.0981230
4393.35, 0.0963250
4397.08, 0.0946730
4400.81, 0.0931180
4404.55, 0.0917570
4408.29, 0.0909310
4412.04, 0.0901530
4415.8, 0.0897640
4419.57, 0.0892300
4423.34, 0.0888890
4427.12, 0.0886950
4430.9, 0.0885010
4434.69, 0.0876260
4438.49, 0.0864110
4442.29, 0.0850010
4446.1, 0.0837380
4449.92, 0.0825710
4453.74, 0.0815510
4457.57, 0.0805790
4461.41, 0.0800930
4465.25, 0.0791210
4469.1, 0.0778090
4472.95, 0.0764960
4476.82, 0.0751840
4480.69, 0.0738720
4484.56, 0.0729490
4488.44, 0.0721710
4492.33, 0.0718310
4496.23, 0.0717340
4500.13, 0.0718790
4504.04, 0.0719280
4507.96, 0.0717820
4511.88, 0.0717820
4515.81, 0.0715880
4519.75, 0.0711990
4523.69, 0.0708590
4527.65, 0.0704700
4531.6, 0.0701300
4535.57, 0.0696920
4539.54, 0.0696440
4543.52, 0.0695950
4547.5, 0.0697900
4551.5, 0.0700810
4555.5, 0.0706160
4559.5, 0.0711990
4563.52, 0.0718310
4567.54, 0.0723650
4571.56, 0.0732400
4575.6, 0.0742120
4579.64, 0.0754270
4583.69, 0.0766910
4587.75, 0.0784890
4591.81, 0.0802390
4595.88, 0.0815020
4599.96, 0.0818910
4604.04, 0.0819880
4608.14, 0.0814050
4612.24, 0.0809680
4616.34, 0.0808220
4620.46, 0.0814050
4624.58, 0.0828630
4628.71, 0.0854390
4632.84, 0.0885980
4636.99, 0.0920970
4641.14, 0.0951590
4645.3, 0.0973940
4649.47, 0.0983660
4653.64, 0.0984640
4657.82, 0.0973940
4662.01, 0.0956930
4666.21, 0.0935060
4670.41, 0.0912710
4674.62, 0.0891810
4678.84, 0.0876740
4683.07, 0.0869940
4687.3, 0.0878200
4691.54, 0.0903470
4695.79, 0.0948670
4700.05, 0.101428
4704.31, 0.109496
4708.59, 0.118244
4712.87, 0.127138
4717.15, 0.134914
4721.45, 0.142106
4725.76, 0.148862
4730.07, 0.155957
4734.39, 0.163733
4738.72, 0.172870
4743.05, 0.183271
4747.39, 0.195566
4751.75, 0.209029
4756.1, 0.222782
4760.47, 0.236147
4764.85, 0.248589
4769.23, 0.258309
4773.62, 0.266425
4778.02, 0.273083
4782.43, 0.278527
4786.85, 0.281977
4791.27, 0.284310
4795.7, 0.284602
4800.14, 0.283289
4804.59, 0.279742
4809.05, 0.275125
4813.51, 0.269827
4817.99, 0.265939
4822.47, 0.265162
4826.96, 0.268855
4831.46, 0.276194
4835.96, 0.286108
4840.48, 0.296314
4845.0, 0.305451
4849.54, 0.312935
4854.08, 0.318379
4858.63, 0.321781
4863.18, 0.323093
4867.75, 0.322655
4872.33, 0.321975
4876.91, 0.321926
4881.5, 0.323773
4886.1, 0.327564
4890.71, 0.332132
4895.33, 0.335923
4899.96, 0.339082
4904.59, 0.341561
4909.24, 0.343505
4913.89, 0.344817
4918.55, 0.346324
4923.22, 0.347441
4927.9, 0.348754
4932.59, 0.349628
4937.29, 0.349920
4942.0, 0.350600
4946.71, 0.351378
4951.44, 0.351427
4956.17, 0.351572
4960.91, 0.351670
4965.67, 0.351913
4970.43, 0.352107
4975.2, 0.352301
4979.98, 0.352301
4984.76, 0.352253
4989.56, 0.352107
4994.37, 0.352107
4999.18, 0.351767
5004.01, 0.351378
5008.84, 0.350892
5013.69, 0.350698
5018.54, 0.350357
5023.4, 0.350017
5028.28, 0.349871
5033.16, 0.349288
5038.05, 0.348899
5042.95, 0.348608
5047.86, 0.348073
5052.78, 0.347830
5057.71, 0.347150
5062.65, 0.346518
5067.6, 0.345935
5072.56, 0.345546
5077.53, 0.345206
5082.5, 0.344477
5087.49, 0.344088
5092.49, 0.343894
5097.5, 0.343310
5102.51, 0.342581
5107.54, 0.342193
5112.58, 0.342144
5117.62, 0.341755
5122.68, 0.341075
5127.75, 0.340492
5132.82, 0.339957
5137.91, 0.339228
5143.01, 0.338402
5148.12, 0.337673
5153.23, 0.337478
5158.36, 0.337138
5163.5, 0.336506
5168.65, 0.335875
5173.81, 0.335875
5178.98, 0.335243
5184.15, 0.334805
5189.34, 0.334465
5194.54, 0.333785
5199.75, 0.332667
5204.98, 0.332424
5210.21, 0.331646
5215.45, 0.331063
5220.7, 0.331258
5225.96, 0.330966
5231.23, 0.330334
5236.52, 0.329702
5241.81, 0.329557
5247.12, 0.329314
5252.44, 0.328779
5257.76, 0.328099
5263.1, 0.327515
5268.45, 0.327078
5273.81, 0.326495
5279.18, 0.326057
5284.56, 0.325426
5289.95, 0.324745
5295.36, 0.324211
5300.77, 0.324016
