Database of Origin, USGS Spectral Database
Sample Description, See USGS database for additional info
Date Added,2016-08-03 20:53:29.544494

Data ID,USGS_alu02          
Sample ID, alunite_gds82.1019
Mineral Name, alunite
Material Class,Sulfate

Wavelength
1364.61, 0.719069
1364.97, 0.717856
1365.33, 0.717805
1365.69, 0.716036
1366.05, 0.715176
1366.41, 0.714671
1366.77, 0.715227
1367.13, 0.716086
1367.49, 0.716794
1367.85, 0.715631
1368.21, 0.716440
1368.57, 0.715429
1368.93, 0.713609
1369.3, 0.713204
1369.66, 0.713710
1370.02, 0.713306
1370.38, 0.714165
1370.74, 0.714873
1371.11, 0.712699
1371.47, 0.711283
1371.83, 0.711587
1372.19, 0.711384
1372.56, 0.710171
1372.92, 0.709817
1373.29, 0.709261
1373.65, 0.708503
1374.01, 0.708402
1374.38, 0.708654
1374.74, 0.708199
1375.11, 0.707694
1375.47, 0.707239
1375.84, 0.706531
1376.2, 0.706329
1376.57, 0.706278
1376.93, 0.706076
1377.3, 0.704964
1377.67, 0.704205
1378.03, 0.703396
1378.4, 0.703346
1378.76, 0.702234
1379.13, 0.701526
1379.5, 0.701475
1379.87, 0.702082
1380.23, 0.704003
1380.6, 0.703953
1380.97, 0.700616
1381.34, 0.698341
1381.7, 0.697936
1382.07, 0.699857
1382.44, 0.701374
1382.81, 0.698644
1383.18, 0.696773
1383.55, 0.696875
1383.92, 0.695307
1384.29, 0.693892
1384.66, 0.693993
1385.03, 0.693285
1385.4, 0.692223
1385.77, 0.691869
1386.14, 0.690606
1386.51, 0.689139
1386.88, 0.688533
1387.25, 0.689392
1387.62, 0.690100
1387.99, 0.689241
1388.36, 0.687420
1388.74, 0.686965
1389.11, 0.686662
1389.48, 0.686055
1389.85, 0.684893
1390.23, 0.684033
1390.6, 0.683629
1390.97, 0.683629
1391.35, 0.683073
1391.72, 0.683174
1392.09, 0.683679
1392.47, 0.682567
1392.84, 0.680545
1393.21, 0.679786
1393.59, 0.679281
1393.96, 0.678775
1394.34, 0.679129
1394.71, 0.679281
1395.09, 0.678068
1395.46, 0.677006
1395.84, 0.676804
1396.22, 0.677410
1396.59, 0.675337
1396.97, 0.673770
1397.35, 0.672607
1397.72, 0.672405
1398.1, 0.672051
1398.48, 0.671697
1398.85, 0.671343
1399.23, 0.671647
1399.61, 0.671293
1399.99, 0.671091
1400.37, 0.671293
1400.74, 0.670181
1401.12, 0.668411
1401.5, 0.667804
1401.88, 0.667046
1402.26, 0.666187
1402.64, 0.665277
1403.02, 0.664923
1403.4, 0.664164
1403.78, 0.664013
1404.16, 0.664164
1404.54, 0.665074
1404.92, 0.663355
1405.3, 0.661535
1405.68, 0.661030
1406.06, 0.660474
1406.44, 0.660676
1406.83, 0.660726
1407.21, 0.659058
1407.59, 0.657592
1407.97, 0.656985
1408.35, 0.656631
1408.74, 0.656732
1409.12, 0.656429
1409.5, 0.655115
1409.89, 0.653598
1410.27, 0.653042
1410.65, 0.652739
1411.04, 0.651778
1411.42, 0.651020
1411.81, 0.650463
1412.19, 0.649655
1412.58, 0.648391
1412.96, 0.647531
1413.35, 0.647228
1413.73, 0.647177
1414.12, 0.646571
1414.5, 0.645762
1414.89, 0.644852
1415.28, 0.644649
1415.66, 0.644043
1416.05, 0.644093
1416.44, 0.644144
1416.82, 0.644093
1417.21, 0.643689
1417.6, 0.643234
1417.98, 0.642829
1418.37, 0.642779
1418.76, 0.642374
1419.15, 0.641818
1419.54, 0.640908
1419.93, 0.640403
1420.32, 0.640150
1420.71, 0.639594
1421.09, 0.638734
1421.48, 0.637976
1421.88, 0.636965
1422.27, 0.636712
1422.66, 0.636206
1423.05, 0.635347
1423.44, 0.634386
1423.83, 0.633628
1424.22, 0.632769
1424.61, 0.631960
1425.0, 0.631050
1425.39, 0.630241
1425.78, 0.629078
1426.18, 0.628471
1426.57, 0.628067
1426.96, 0.627460
1427.36, 0.626550
1427.75, 0.625589
1428.14, 0.624427
1428.54, 0.623719
1428.93, 0.622708
1429.32, 0.621949
1429.72, 0.621141
1430.11, 0.620483
1430.51, 0.619472
1430.9, 0.618259
1431.3, 0.617298
1431.69, 0.616843
1432.09, 0.615680
1432.48, 0.614518
1432.88, 0.614012
1433.28, 0.613759
1433.67, 0.612748
1434.07, 0.612445
1434.46, 0.612040
1434.86, 0.611080
1435.26, 0.610726
1435.66, 0.610675
1436.05, 0.610372
1436.45, 0.610321
1436.85, 0.610776
1437.25, 0.611333
1437.65, 0.611636
1438.05, 0.611333
1438.44, 0.611484
1438.84, 0.611737
1439.24, 0.611990
1439.64, 0.612141
1440.04, 0.612141
1440.44, 0.612596
1440.84, 0.612950
1441.24, 0.613102
1441.65, 0.613001
1442.05, 0.613153
1442.45, 0.613405
1442.85, 0.613658
1443.25, 0.613759
1443.65, 0.614164
1444.05, 0.614214
1444.46, 0.614821
1444.86, 0.615225
1445.26, 0.615529
1445.67, 0.615933
1446.07, 0.616034
1446.47, 0.616388
1446.88, 0.616692
1447.28, 0.616641
1447.68, 0.617045
1448.09, 0.617602
1448.49, 0.617854
1448.9, 0.617804
1449.3, 0.618461
1449.71, 0.618815
1450.11, 0.619321
1450.52, 0.619523
1450.93, 0.619725
1451.33, 0.619523
1451.74, 0.619674
1452.14, 0.619927
1452.55, 0.620180
1452.96, 0.620180
1453.36, 0.620382
1453.77, 0.620433
1454.18, 0.620230
1454.59, 0.620028
1455.0, 0.620281
1455.41, 0.620382
1455.81, 0.620635
1456.22, 0.620736
1456.63, 0.620483
1457.04, 0.620332
1457.45, 0.620180
1457.86, 0.620180
1458.27, 0.620433
1458.68, 0.620028
1459.09, 0.620129
1459.5, 0.619775
1459.91, 0.619422
1460.32, 0.619371
1460.74, 0.619371
1461.15, 0.619219
1461.56, 0.619270
1461.97, 0.619118
1462.39, 0.618815
1462.8, 0.618714
1463.21, 0.618764
1463.62, 0.618208
1464.04, 0.617955
1464.45, 0.618057
1464.86, 0.617854
1465.28, 0.617096
1465.69, 0.617045
1466.11, 0.617551
1466.52, 0.617854
1466.94, 0.617602
1467.35, 0.617147
1467.77, 0.617045
1468.18, 0.617096
1468.6, 0.616439
1469.02, 0.616590
1469.43, 0.616439
1469.85, 0.616034
1470.27, 0.616034
1470.68, 0.616287
1471.1, 0.615984
1471.52, 0.615680
1471.94, 0.615529
1472.35, 0.615225
1472.77, 0.614568
1473.19, 0.614518
1473.61, 0.614416
1474.03, 0.614214
1474.45, 0.614063
1474.87, 0.614467
1475.29, 0.613911
1475.71, 0.613405
1476.13, 0.613304
1476.55, 0.613456
1476.97, 0.613102
1477.39, 0.612950
1477.81, 0.612546
1478.23, 0.612596
1478.65, 0.612698
1479.07, 0.612546
1479.5, 0.612091
1479.92, 0.611838
1480.34, 0.612040
1480.76, 0.612141
1481.19, 0.611889
1481.61, 0.611636
1482.03, 0.611585
1482.46, 0.611737
1482.88, 0.611535
1483.31, 0.611434
1483.73, 0.611282
1484.16, 0.611484
1484.58, 0.611282
1485.01, 0.611029
1485.43, 0.611029
1485.86, 0.611080
1486.28, 0.610979
1486.71, 0.610524
1487.14, 0.610625
1487.56, 0.610726
1487.99, 0.610574
1488.42, 0.610271
1488.84, 0.610119
1489.27, 0.609866
1489.7, 0.609462
1490.13, 0.609765
1490.56, 0.609816
1490.98, 0.610119
1491.41, 0.610271
1491.84, 0.610372
1492.27, 0.610574
1492.7, 0.610726
1493.13, 0.610878
1493.56, 0.611231
1493.99, 0.611282
1494.42, 0.611484
1494.85, 0.612091
1495.29, 0.612698
1495.72, 0.613051
1496.15, 0.613557
1496.58, 0.613860
1497.01, 0.614416
1497.44, 0.615327
1497.88, 0.616034
1498.31, 0.616540
1498.74, 0.616843
1499.18, 0.617804
1499.61, 0.619118
1500.04, 0.619826
1500.48, 0.620382
1500.91, 0.620837
1501.35, 0.621596
1501.78, 0.622404
1502.22, 0.623163
1502.65, 0.623769
1503.09, 0.624578
1503.53, 0.625337
1503.96, 0.625792
1504.4, 0.626398
1504.83, 0.626904
1505.27, 0.627258
1505.71, 0.628117
1506.15, 0.628724
1506.58, 0.629381
1507.02, 0.629685
1507.46, 0.630291
1507.9, 0.630443
1508.34, 0.630797
1508.78, 0.631454
1509.21, 0.632212
1509.66, 0.632617
1510.09, 0.633123
1510.53, 0.633375
1510.97, 0.633931
1511.42, 0.634336
1511.86, 0.634639
1512.3, 0.634993
1512.74, 0.635499
1513.18, 0.635751
1513.62, 0.636409
1514.06, 0.637066
1514.51, 0.637470
1514.95, 0.637420
1515.39, 0.637824
1515.83, 0.638128
1516.28, 0.638229
1516.72, 0.638481
1517.16, 0.638886
1517.61, 0.639189
1518.05, 0.639745
1518.5, 0.639998
1518.94, 0.640655
1519.39, 0.641161
1519.83, 0.641566
1520.28, 0.641869
1520.73, 0.641919
1521.17, 0.641919
1521.62, 0.642627
1522.07, 0.642779
1522.51, 0.643133
1522.96, 0.643234
1523.41, 0.643739
1523.85, 0.644498
1524.3, 0.644649
1524.75, 0.644852
1525.2, 0.645408
1525.65, 0.645711
1526.1, 0.646166
1526.55, 0.646419
1527.0, 0.646722
1527.45, 0.647076
1527.9, 0.647531
1528.35, 0.647683
1528.8, 0.648087
1529.25, 0.648239
1529.7, 0.648593
1530.15, 0.649301
1530.6, 0.649806
1531.05, 0.650160
1531.51, 0.650615
1531.96, 0.651070
1532.41, 0.651424
1532.87, 0.651677
1533.32, 0.652081
1533.77, 0.652081
1534.23, 0.652486
1534.68, 0.652739
1535.14, 0.653345
1535.59, 0.653851
1536.05, 0.654306
1536.5, 0.654508
1536.96, 0.654963
1537.41, 0.655064
1537.87, 0.655216
1538.32, 0.655823
1538.78, 0.656277
1539.24, 0.656328
1539.7, 0.656277
1540.15, 0.656631
1540.61, 0.657036
1541.07, 0.657440
1541.53, 0.657845
1541.98, 0.658098
1542.44, 0.658603
1542.9, 0.658704
1543.36, 0.658957
1543.82, 0.659614
1544.28, 0.660069
1544.74, 0.660120
1545.2, 0.660221
1545.66, 0.660777
1546.12, 0.661030
1546.59, 0.661384
1547.05, 0.661990
1547.51, 0.662041
1547.97, 0.662294
1548.43, 0.662698
1548.9, 0.662951
1549.36, 0.663204
1549.82, 0.663659
1550.29, 0.663709
1550.75, 0.664063
1551.21, 0.664164
1551.68, 0.664417
1552.14, 0.664720
1552.61, 0.665074
1553.07, 0.665175
1553.54, 0.665630
1554.0, 0.665833
1554.47, 0.666288
1554.93, 0.666389
1555.4, 0.666894
1555.87, 0.667046
1556.34, 0.666996
1556.8, 0.667400
1557.27, 0.668057
1557.74, 0.668209
1558.21, 0.668613
1558.68, 0.668866
1559.14, 0.668967
1559.61, 0.668866
1560.08, 0.669018
1560.55, 0.669422
1561.02, 0.669877
1561.49, 0.669928
1561.96, 0.670080
1562.43, 0.670433
1562.9, 0.670888
1563.38, 0.671091
1563.85, 0.671394
1564.32, 0.671242
1564.79, 0.671495
1565.26, 0.671798
1565.74, 0.672051
1566.21, 0.672152
1566.68, 0.672456
1567.16, 0.672405
1567.63, 0.672708
1568.1, 0.672810
1568.58, 0.672860
1569.05, 0.673113
1569.53, 0.673568
1570.0, 0.673821
1570.48, 0.673871
1570.96, 0.673972
1571.43, 0.674225
1571.91, 0.673922
1572.39, 0.674175
1572.86, 0.674882
1573.34, 0.675186
1573.82, 0.675186
1574.3, 0.675186
1574.77, 0.675034
1575.25, 0.675186
1575.73, 0.675439
1576.21, 0.675792
1576.69, 0.675641
1577.17, 0.675894
1577.65, 0.676298
1578.13, 0.676500
1578.61, 0.676702
1579.09, 0.677006
1579.57, 0.677006
1580.05, 0.677157
1580.54, 0.677157
1581.02, 0.677157
1581.5, 0.677410
1581.98, 0.677815
1582.47, 0.678169
1582.95, 0.678522
1583.43, 0.678371
1583.92, 0.678270
1584.4, 0.678421
1584.88, 0.678573
1585.37, 0.679028
1585.85, 0.679433
1586.34, 0.679584
1586.82, 0.679685
1587.31, 0.679584
1587.8, 0.679786
1588.28, 0.679786
1588.77, 0.679888
1589.26, 0.680241
1589.74, 0.680595
1590.23, 0.680646
1590.72, 0.680899
1591.21, 0.681000
1591.7, 0.681151
1592.19, 0.681303
1592.67, 0.681606
1593.16, 0.681910
1593.65, 0.682365
1594.14, 0.682719
1594.63, 0.682820
1595.12, 0.682719
1595.61, 0.683123
1596.11, 0.683275
1596.6, 0.683629
1597.09, 0.683629
1597.58, 0.683780
1598.08, 0.684084
1598.57, 0.684589
1599.06, 0.684842
1599.55, 0.685044
1600.05, 0.685196
1600.54, 0.685398
1601.04, 0.685701
1601.53, 0.685803
1602.03, 0.685853
1602.52, 0.686106
1603.02, 0.686612
1603.51, 0.686763
1604.01, 0.686864
1604.5, 0.687269
1605.0, 0.687572
1605.5, 0.687724
1606.0, 0.687825
1606.49, 0.688128
1606.99, 0.688735
1607.49, 0.689291
1607.99, 0.689392
1608.49, 0.689392
1608.99, 0.689443
1609.49, 0.689898
1609.99, 0.690252
1610.49, 0.690201
1610.99, 0.690555
1611.49, 0.690858
1611.99, 0.690909
1612.49, 0.691162
1612.99, 0.691364
1613.49, 0.691516
1614.0, 0.692122
1614.5, 0.692375
1615.0, 0.692325
1615.51, 0.692476
1616.01, 0.692881
1616.51, 0.693184
1617.02, 0.693538
1617.52, 0.693487
1618.03, 0.693689
1618.53, 0.694145
1619.04, 0.694347
1619.54, 0.694498
1620.05, 0.694650
1620.55, 0.694953
1621.06, 0.695055
1621.57, 0.695307
1622.08, 0.695510
1622.58, 0.695965
1623.09, 0.696066
1623.6, 0.696217
1624.11, 0.696470
1624.62, 0.696521
1625.13, 0.696571
1625.64, 0.696521
1626.15, 0.696723
1626.66, 0.697330
1627.17, 0.697532
1627.68, 0.697734
1628.19, 0.697785
1628.7, 0.697936
1629.21, 0.697886
1629.72, 0.698240
1630.24, 0.698290
1630.75, 0.698088
1631.26, 0.698088
1631.78, 0.698492
1632.29, 0.698998
1632.8, 0.699200
1633.32, 0.698998
1633.83, 0.699099
1634.35, 0.699251
1634.86, 0.699150
1635.38, 0.699150
1635.9, 0.699352
1636.41, 0.699453
1636.93, 0.699554
1637.45, 0.699706
1637.96, 0.699655
1638.48, 0.699908
1639.0, 0.700060
1639.52, 0.700110
1640.04, 0.700110
1640.56, 0.700110
1641.08, 0.700262
1641.59, 0.700363
1642.11, 0.700464
1642.63, 0.700312
1643.16, 0.700464
1643.68, 0.700666
1644.2, 0.700919
1644.72, 0.701020
1645.24, 0.700919
1645.76, 0.700869
1646.29, 0.701172
1646.81, 0.701172
1647.33, 0.701324
1647.86, 0.701374
1648.38, 0.701172
1648.9, 0.701222
1649.43, 0.701728
1649.95, 0.701880
1650.48, 0.701576
1651.0, 0.701526
1651.53, 0.701981
1652.06, 0.702183
1652.58, 0.702335
1653.11, 0.702537
1653.64, 0.702385
1654.17, 0.702335
1654.69, 0.702537
1655.22, 0.702739
1655.75, 0.702891
1656.28, 0.702941
1656.81, 0.703144
1657.34, 0.703043
1657.87, 0.702790
1658.4, 0.703144
1658.93, 0.703498
1659.46, 0.703700
1659.99, 0.703750
1660.52, 0.703346
1661.05, 0.703700
1661.59, 0.704054
1662.12, 0.704104
1662.65, 0.704054
1663.19, 0.704003
1663.72, 0.704205
1664.26, 0.704509
1664.79, 0.704509
1665.32, 0.704761
1665.86, 0.704812
1666.39, 0.705065
1666.93, 0.705267
1667.47, 0.705520
1668.0, 0.705773
1668.54, 0.706025
1669.08, 0.706076
1669.61, 0.706127
1670.15, 0.706177
1670.69, 0.706531
1671.23, 0.706935
1671.77, 0.706986
1672.31, 0.706885
1672.85, 0.706834
1673.39, 0.706935
1673.93, 0.707239
1674.47, 0.707289
1675.01, 0.707492
1675.55, 0.707694
1676.09, 0.708048
1676.64, 0.707947
1677.18, 0.708351
1677.72, 0.708604
1678.26, 0.708755
1678.81, 0.708806
1679.35, 0.709008
1679.89, 0.709059
1680.44, 0.709210
1680.98, 0.709564
1681.53, 0.709817
1682.07, 0.709969
1682.62, 0.710323
1683.17, 0.710323
1683.71, 0.710474
1684.26, 0.710576
1684.81, 0.710828
1685.36, 0.710929
1685.9, 0.711081
1686.45, 0.711182
1687.0, 0.710929
1687.55, 0.710778
1688.1, 0.710677
1688.65, 0.711132
1689.2, 0.711637
1689.75, 0.711688
1690.3, 0.711688
1690.85, 0.711738
1691.41, 0.711789
1691.96, 0.711940
1692.51, 0.712244
1693.06, 0.711940
1693.61, 0.711991
1694.17, 0.712193
1694.72, 0.712396
1695.28, 0.712396
1695.83, 0.712143
1696.39, 0.712092
1696.94, 0.712547
1697.5, 0.712547
1698.05, 0.712598
1698.61, 0.712699
1699.17, 0.712396
1699.72, 0.712345
1700.28, 0.712497
1700.84, 0.712749
1701.4, 0.712547
1701.95, 0.712497
1702.51, 0.712648
1703.07, 0.712345
1703.63, 0.712294
1704.19, 0.712396
1704.75, 0.712345
1705.31, 0.711940
1705.88, 0.711991
1706.44, 0.712143
1707.0, 0.712345
1707.56, 0.712294
1708.12, 0.712193
1708.69, 0.712092
1709.25, 0.711890
1709.81, 0.711637
1710.38, 0.711233
1710.94, 0.711132
1711.51, 0.711334
1712.07, 0.711182
1712.64, 0.710980
1713.2, 0.710980
1713.77, 0.711081
1714.34, 0.710778
1714.9, 0.710474
1715.47, 0.710323
1716.04, 0.710424
1716.61, 0.710120
1717.18, 0.710019
1717.74, 0.709868
1718.31, 0.709564
1718.88, 0.709261
1719.45, 0.709109
1720.02, 0.708755
1720.59, 0.708149
1721.17, 0.707947
1721.74, 0.707896
1722.31, 0.707694
1722.88, 0.707441
1723.45, 0.707340
1724.03, 0.706885
1724.6, 0.706582
1725.18, 0.706480
1725.75, 0.706228
1726.33, 0.705671
1726.9, 0.705267
1727.48, 0.704559
1728.05, 0.704155
1728.63, 0.703953
1729.2, 0.703548
1729.78, 0.703194
1730.36, 0.702840
1730.94, 0.702638
1731.51, 0.702234
1732.09, 0.701930
1732.67, 0.701475
1733.25, 0.700919
1733.83, 0.700515
1734.41, 0.700363
1734.99, 0.700110
1735.57, 0.699453
1736.15, 0.698897
1736.73, 0.698594
1737.32, 0.698341
1737.9, 0.697987
1738.48, 0.697582
1739.07, 0.697279
1739.65, 0.697026
1740.23, 0.696521
1740.82, 0.695914
1741.4, 0.695459
1741.99, 0.695105
1742.57, 0.694751
1743.16, 0.694145
1743.74, 0.693740
1744.33, 0.693639
1744.92, 0.693386
1745.51, 0.692881
1746.09, 0.692577
1746.68, 0.692325
1747.27, 0.691718
1747.86, 0.691212
1748.45, 0.690808
1749.04, 0.690555
1749.63, 0.690252
1750.22, 0.689948
1750.81, 0.689695
1751.4, 0.689392
1751.99, 0.689038
1752.59, 0.688836
1753.18, 0.688583
1753.77, 0.688533
1754.37, 0.688684
1754.96, 0.688280
1755.56, 0.688078
1756.15, 0.687774
1756.74, 0.687522
1757.34, 0.687471
1757.94, 0.687522
1758.53, 0.687370
1759.13, 0.687269
1759.73, 0.687370
1760.32, 0.687420
1760.92, 0.687623
1761.52, 0.687522
1762.12, 0.687420
1762.72, 0.687572
1763.32, 0.687673
1763.92, 0.687673
1764.52, 0.687774
1765.12, 0.687623
1765.72, 0.687572
1766.32, 0.687825
1766.92, 0.688280
1767.53, 0.688684
1768.13, 0.688735
1768.73, 0.688785
1769.34, 0.689038
1769.94, 0.689241
1770.55, 0.689847
1771.15, 0.690151
1771.76, 0.690504
1772.36, 0.691212
1772.97, 0.691617
1773.57, 0.692173
1774.18, 0.693032
1774.79, 0.693639
1775.4, 0.694145
1776.0, 0.694448
1776.61, 0.694953
1777.22, 0.695661
1777.83, 0.696521
1778.44, 0.697228
1779.05, 0.697835
1779.66, 0.698139
1780.27, 0.698796
1780.88, 0.699756
1781.5, 0.700464
1782.11, 0.701020
1782.72, 0.701728
1783.33, 0.702486
1783.95, 0.703194
1784.56, 0.704003
1785.18, 0.704711
1785.79, 0.705166
1786.41, 0.705520
1787.02, 0.706379
1787.64, 0.707036
1788.26, 0.707744
1788.87, 0.708351
1789.49, 0.708806
1790.11, 0.709564
1790.73, 0.710272
1791.35, 0.710879
1791.96, 0.711384
1792.58, 0.711839
1793.21, 0.712345
1793.83, 0.712952
1794.45, 0.713457
1795.07, 0.713862
1795.69, 0.714317
1796.31, 0.714570
1796.93, 0.714671
1797.56, 0.714873
1798.18, 0.715227
1798.8, 0.715530
1799.43, 0.716036
1800.05, 0.716440
1800.68, 0.716491
1801.3, 0.716491
1801.93, 0.716592
1802.56, 0.716844
1803.18, 0.716996
1803.81, 0.716946
1804.44, 0.717097
1805.07, 0.717603
1805.7, 0.718108
1806.33, 0.718311
1806.95, 0.718260
1807.58, 0.718159
1808.22, 0.718159
1808.85, 0.718311
1809.48, 0.718412
1810.11, 0.718766
1810.74, 0.719322
1811.38, 0.719018
1812.01, 0.719069
1812.64, 0.719170
1813.28, 0.718867
1813.91, 0.718766
1814.55, 0.719372
1815.18, 0.720434
1815.82, 0.720434
1816.45, 0.720131
1817.09, 0.719726
1817.73, 0.719878
1818.36, 0.720131
1819.0, 0.720030
1819.64, 0.721647
1820.28, 0.723164
1820.92, 0.722102
1821.56, 0.721698
1822.2, 0.721142
1822.84, 0.720889
1823.48, 0.720737
1824.12, 0.720636
1824.76, 0.720737
1825.41, 0.722962
1826.05, 0.724934
1826.69, 0.722406
1827.34, 0.721041
1827.98, 0.722052
1828.63, 0.722507
1829.27, 0.722709
1829.92, 0.723012
1830.56, 0.724024
1831.21, 0.723467
1831.86, 0.722355
1832.5, 0.722305
1833.15, 0.721344
1833.8, 0.721597
1834.45, 0.723215
1835.1, 0.723720
1835.75, 0.724832
1836.4, 0.724479
1837.05, 0.724580
1837.7, 0.724934
1838.35, 0.722153
1839.01, 0.723619
1839.66, 0.725389
1840.31, 0.723215
1840.96, 0.724125
1841.62, 0.726703
1842.27, 0.723872
1842.93, 0.721445
1843.58, 0.721091
1844.24, 0.720940
1844.9, 0.720940
1845.55, 0.721395
1846.21, 0.724630
1846.87, 0.726956
1847.53, 0.725540
1848.18, 0.724529
1848.84, 0.721748
1849.5, 0.720737
1850.16, 0.720838
1850.82, 0.720737
1851.48, 0.720080
1852.14, 0.721041
1852.81, 0.722204
1853.47, 0.724276
1854.13, 0.722254
1854.8, 0.719271
1855.46, 0.719473
1856.12, 0.721799
1856.79, 0.720990
1857.45, 0.718412
1858.12, 0.717502
1858.79, 0.719322
1859.45, 0.721900
1860.12, 0.719979
1860.79, 0.717350
1861.46, 0.716339
1862.12, 0.715934
1862.79, 0.715682
1863.46, 0.716187
1864.13, 0.716187
1864.8, 0.714721
1865.48, 0.713760
1866.15, 0.713508
1866.82, 0.715075
1867.49, 0.716996
1868.16, 0.714873
1868.84, 0.712952
1869.51, 0.712699
1870.19, 0.714974
1870.86, 0.715934
1871.54, 0.711081
1872.21, 0.711738
1872.89, 0.714013
1873.56, 0.710525
1874.24, 0.707593
1874.92, 0.707239
1875.6, 0.706025
1876.28, 0.706278
1876.96, 0.705975
1877.64, 0.702790
1878.32, 0.701020
1879.0, 0.700262
1879.68, 0.699756
1880.36, 0.699150
1881.04, 0.697785
1881.73, 0.696319
1882.41, 0.695408
1883.09, 0.695560
1883.78, 0.695965
1884.46, 0.693437
1885.15, 0.691212
1885.83, 0.690454
1886.52, 0.689898
1887.21, 0.688280
1887.89, 0.686612
1888.58, 0.685550
1889.27, 0.686055
1889.96, 0.686005
1890.65, 0.682719
1891.34, 0.681101
1892.03, 0.680140
1892.72, 0.678320
1893.41, 0.676955
1894.1, 0.675085
1894.79, 0.673265
1895.49, 0.671748
1896.18, 0.670029
1896.87, 0.669169
1897.57, 0.668259
1898.26, 0.666692
1898.96, 0.667299
1899.65, 0.666288
1900.35, 0.662698
1901.05, 0.659614
1901.74, 0.658552
1902.44, 0.659361
1903.14, 0.656732
1903.84, 0.653649
1904.54, 0.654508
1905.24, 0.654558
1905.94, 0.652233
1906.64, 0.650463
1907.34, 0.647127
1908.04, 0.645104
1908.75, 0.644093
1909.45, 0.643082
1910.15, 0.642374
1910.86, 0.642122
1911.56, 0.641060
1912.27, 0.639543
1912.97, 0.640302
1913.68, 0.639594
1914.39, 0.636712
1915.09, 0.635448
1915.8, 0.634892
1916.51, 0.633830
1917.22, 0.632667
1917.93, 0.632111
1918.64, 0.632162
1919.35, 0.633729
1920.06, 0.634943
1920.77, 0.633426
1921.48, 0.630241
1922.19, 0.629331
1922.91, 0.629634
1923.62, 0.630797
1924.33, 0.630443
1925.05, 0.629685
1925.76, 0.629533
1926.48, 0.629786
1927.19, 0.630039
1927.91, 0.630696
1928.63, 0.630595
1929.35, 0.630089
1930.07, 0.630392
1930.78, 0.630746
1931.5, 0.630949
1932.22, 0.630949
1932.94, 0.631151
1933.66, 0.631606
1934.39, 0.631656
1935.11, 0.631909
1935.83, 0.632667
1936.55, 0.633072
1937.28, 0.633072
1938.0, 0.633527
1938.73, 0.634032
1939.45, 0.634285
1940.18, 0.634184
1940.9, 0.634740
1941.63, 0.635145
1942.36, 0.635246
1943.09, 0.635145
1943.81, 0.635549
1944.54, 0.635954
1945.27, 0.636156
1946.0, 0.636409
1946.73, 0.636712
1947.47, 0.636763
1948.2, 0.636813
1948.93, 0.637116
1949.66, 0.637319
1950.4, 0.637470
1951.13, 0.637875
1951.86, 0.637976
1952.6, 0.638178
1953.34, 0.638330
1954.07, 0.638431
1954.81, 0.638481
1955.55, 0.638532
1956.29, 0.638481
1957.02, 0.638633
1957.76, 0.638886
1958.5, 0.638987
1959.24, 0.638886
1959.98, 0.639038
1960.72, 0.638937
1961.47, 0.638987
1962.21, 0.639240
1962.95, 0.639240
1963.7, 0.639290
1964.44, 0.639290
1965.18, 0.639189
1965.93, 0.639341
1966.67, 0.639493
1967.42, 0.639442
1968.17, 0.639594
1968.92, 0.639644
1969.66, 0.639594
1970.41, 0.639594
1971.16, 0.639695
1971.91, 0.639644
1972.66, 0.639695
1973.41, 0.639796
1974.16, 0.639796
1974.92, 0.639847
1975.67, 0.639644
1976.42, 0.639695
1977.18, 0.639897
1977.93, 0.639948
1978.69, 0.639847
1979.44, 0.639897
1980.2, 0.639847
1980.95, 0.639695
1981.71, 0.639745
1982.47, 0.639745
1983.23, 0.639594
1983.99, 0.639695
1984.74, 0.639695
1985.51, 0.639290
1986.27, 0.639189
1987.03, 0.639290
1987.79, 0.639139
1988.55, 0.639139
1989.32, 0.639038
1990.08, 0.638785
1990.84, 0.638532
1991.61, 0.638633
1992.37, 0.638532
1993.14, 0.638431
1993.9, 0.638330
1994.67, 0.638380
1995.44, 0.638279
1996.21, 0.638077
1996.98, 0.637875
1997.75, 0.637824
1998.52, 0.637420
1999.29, 0.637268
2000.06, 0.637319
2000.83, 0.637167
2001.6, 0.636965
2002.38, 0.636965
2003.15, 0.637015
2003.93, 0.636914
2004.7, 0.637015
2005.48, 0.636965
2006.25, 0.636712
2007.03, 0.636712
2007.81, 0.636864
2008.58, 0.636914
2009.36, 0.636864
2010.14, 0.636864
2010.92, 0.636611
2011.7, 0.636611
2012.48, 0.636813
2013.26, 0.637015
2014.05, 0.637116
2014.83, 0.637167
2015.61, 0.637218
2016.4, 0.637268
2017.18, 0.637218
2017.97, 0.637369
2018.75, 0.637369
2019.54, 0.637369
2020.32, 0.637369
2021.11, 0.637420
2021.9, 0.637319
2022.69, 0.637824
2023.48, 0.637925
2024.27, 0.637622
2025.06, 0.637420
2025.85, 0.637420
2026.64, 0.637268
2027.44, 0.637167
2028.23, 0.637167
2029.02, 0.637319
2029.82, 0.637066
2030.61, 0.637015
2031.41, 0.637167
2032.2, 0.637268
2033.0, 0.637015
2033.8, 0.636864
2034.6, 0.636864
2035.4, 0.636459
2036.2, 0.636156
2037.0, 0.636105
2037.8, 0.636105
2038.6, 0.636105
2039.4, 0.636004
2040.2, 0.635751
2041.01, 0.635398
2041.81, 0.635246
2042.61, 0.635094
2043.42, 0.635195
2044.22, 0.635145
2045.03, 0.635094
2045.84, 0.634791
2046.65, 0.634538
2047.46, 0.634285
2048.26, 0.634184
2049.07, 0.634032
2049.88, 0.633982
2050.69, 0.633881
2051.51, 0.633426
2052.32, 0.633123
2053.13, 0.633173
2053.94, 0.632971
2054.76, 0.632769
2055.57, 0.632516
2056.39, 0.632465
2057.2, 0.632415
2058.02, 0.632212
2058.84, 0.632212
2059.66, 0.632061
2060.48, 0.631859
2061.29, 0.631505
2062.11, 0.631252
2062.94, 0.631201
2063.76, 0.631050
2064.58, 0.630949
2065.4, 0.630443
2066.22, 0.630190
2067.05, 0.630241
2067.87, 0.630190
2068.7, 0.629887
2069.52, 0.629685
2070.35, 0.629583
2071.18, 0.629432
2072.0, 0.629381
2072.83, 0.629331
2073.66, 0.628977
2074.49, 0.628724
2075.32, 0.628522
2076.15, 0.628269
2076.98, 0.628117
2077.82, 0.628016
2078.65, 0.627814
2079.48, 0.627511
2080.32, 0.627258
2081.15, 0.627157
2081.99, 0.626803
2082.83, 0.626651
2083.66, 0.626247
2084.5, 0.625893
2085.34, 0.625842
2086.18, 0.625792
2087.02, 0.625236
2087.86, 0.624932
2088.7, 0.624730
2089.54, 0.624477
2090.39, 0.624224
2091.23, 0.624022
2092.07, 0.623668
2092.92, 0.623517
2093.76, 0.623011
2094.61, 0.622708
2095.45, 0.622506
2096.3, 0.622253
2097.15, 0.621747
2098.0, 0.621191
2098.85, 0.620837
2099.7, 0.620584
2100.55, 0.620382
2101.4, 0.620129
2102.25, 0.619573
2103.1, 0.619422
2103.96, 0.619017
2104.81, 0.618461
2105.67, 0.618107
2106.52, 0.617753
2107.38, 0.617298
2108.24, 0.616894
2109.09, 0.616439
2109.95, 0.615933
2110.81, 0.615327
2111.67, 0.614720
2112.53, 0.614113
2113.39, 0.613557
2114.25, 0.612799
2115.12, 0.611990
2115.98, 0.611282
2116.84, 0.610827
2117.71, 0.610069
2118.58, 0.608906
2119.44, 0.607794
2120.31, 0.606985
2121.18, 0.605973
2122.04, 0.604861
2122.91, 0.603850
2123.78, 0.602738
2124.65, 0.601373
2125.52, 0.600412
2126.4, 0.599199
2127.27, 0.597884
2128.14, 0.596418
2129.02, 0.594800
2129.89, 0.593486
2130.77, 0.591919
2131.64, 0.590301
2132.52, 0.588734
2133.4, 0.587166
2134.27, 0.585801
2135.15, 0.584133
2136.03, 0.582465
2136.91, 0.580746
2137.79, 0.579077
2138.68, 0.577358
2139.56, 0.575639
2140.44, 0.574022
2141.33, 0.572404
2142.21, 0.570685
2143.1, 0.568764
2143.99, 0.566944
2144.87, 0.565174
2145.76, 0.563405
2146.65, 0.561686
2147.54, 0.559714
2148.43, 0.557742
2149.32, 0.555821
2150.21, 0.553951
2151.1, 0.552029
2151.99, 0.550361
2152.89, 0.548693
2153.78, 0.547075
2154.68, 0.545305
2155.57, 0.543586
2156.47, 0.542120
2157.37, 0.540755
2158.27, 0.539441
2159.16, 0.538177
2160.06, 0.537216
2160.96, 0.536053
2161.86, 0.535042
2162.77, 0.534082
2163.67, 0.533273
2164.57, 0.532363
2165.48, 0.531402
2166.38, 0.530543
2167.29, 0.529936
2168.2, 0.529380
2169.1, 0.528571
2170.01, 0.527813
2170.92, 0.527307
2171.83, 0.527156
2172.74, 0.526903
2173.65, 0.526953
2174.56, 0.527156
2175.47, 0.527307
2176.39, 0.527560
2177.3, 0.528066
2178.22, 0.528419
2179.13, 0.528874
2180.05, 0.529633
2180.96, 0.530391
2181.88, 0.531200
2182.8, 0.532211
2183.72, 0.533121
2184.64, 0.534031
2185.56, 0.534891
2186.48, 0.536053
2187.41, 0.536964
2188.33, 0.537874
2189.25, 0.539087
2190.18, 0.540351
2191.1, 0.541463
2192.03, 0.542778
2192.96, 0.544143
2193.89, 0.545609
2194.82, 0.547176
2195.74, 0.548743
2196.68, 0.550007
2197.61, 0.551271
2198.54, 0.552535
2199.47, 0.553647
2200.4, 0.554709
2201.34, 0.555821
2202.28, 0.556933
2203.21, 0.557793
2204.15, 0.558298
2205.08, 0.558703
2206.02, 0.559057
2206.96, 0.559461
2207.9, 0.559562
2208.84, 0.559866
2209.78, 0.560220
2210.73, 0.560523
2211.67, 0.560927
2212.61, 0.561231
2213.56, 0.561180
2214.5, 0.561484
2215.45, 0.562292
2216.4, 0.563253
2217.35, 0.564517
2218.3, 0.566337
2219.24, 0.568309
2220.2, 0.570483
2221.15, 0.572555
2222.1, 0.574932
2223.05, 0.577257
2224.0, 0.579178
2224.96, 0.580998
2225.91, 0.582970
2226.87, 0.584639
2227.83, 0.586256
2228.79, 0.587975
2229.74, 0.589543
2230.7, 0.590857
2231.66, 0.592525
2232.63, 0.594042
2233.59, 0.595660
2234.55, 0.597025
2235.51, 0.598441
2236.48, 0.599704
2237.44, 0.601019
2238.41, 0.602333
2239.38, 0.603698
2240.34, 0.604760
2241.31, 0.605872
2242.28, 0.606833
2243.25, 0.607743
2244.22, 0.608805
2245.19, 0.609614
2246.17, 0.610271
2247.14, 0.610878
2248.12, 0.611434
2249.09, 0.611737
2250.07, 0.612040
2251.04, 0.612495
2252.02, 0.612900
2253.0, 0.613355
2253.98, 0.613553
2254.96, 0.613652
2255.94, 0.613949
2256.92, 0.613850
2257.91, 0.613652
2258.89, 0.614197
2259.88, 0.614048
2260.86, 0.613256
2261.85, 0.613107
2262.83, 0.613602
2263.82, 0.613602
2264.81, 0.612860
2265.8, 0.611968
2266.79, 0.611968
2267.78, 0.612067
2268.78, 0.611324
2269.77, 0.610631
2270.76, 0.609740
2271.76, 0.609443
2272.75, 0.609046
2273.75, 0.608848
2274.75, 0.608254
2275.75, 0.607610
2276.75, 0.606769
2277.75, 0.606026
2278.75, 0.605332
2279.75, 0.604788
2280.75, 0.603748
2281.76, 0.602609
2282.76, 0.601668
2283.77, 0.601123
2284.77, 0.600430
2285.78, 0.598944
2286.79, 0.598004
2287.8, 0.597063
2288.81, 0.596023
2289.82, 0.594686
2290.83, 0.593596
2291.84, 0.593052
2292.86, 0.592061
2293.87, 0.590774
2294.89, 0.589189
2295.91, 0.587802
2296.92, 0.586614
2297.94, 0.585376
2298.96, 0.584187
2299.98, 0.582999
2301.0, 0.581365
2302.02, 0.579434
2303.04, 0.577354
2304.07, 0.575323
2305.09, 0.573392
2306.12, 0.571213
2307.15, 0.568836
2308.17, 0.567004
2309.2, 0.564578
2310.23, 0.561854
2311.26, 0.559180
2312.29, 0.556704
2313.32, 0.554030
2314.35, 0.551900
2315.39, 0.549920
2316.42, 0.547444
2317.46, 0.545413
2318.5, 0.543829
2319.53, 0.541848
2320.57, 0.539719
2321.61, 0.538183
2322.65, 0.536945
2323.69, 0.535262
2324.73, 0.534172
2325.78, 0.533083
2326.82, 0.532637
2327.86, 0.532984
2328.91, 0.532637
2329.96, 0.532092
2331.01, 0.532092
2332.05, 0.532043
2333.1, 0.531894
2334.15, 0.531993
2335.21, 0.532191
2336.26, 0.532142
2337.31, 0.532092
2338.36, 0.532191
2339.42, 0.532390
2340.48, 0.532439
2341.53, 0.532043
2342.59, 0.532241
2343.65, 0.532588
2344.71, 0.532736
2345.77, 0.532687
2346.83, 0.532885
2347.9, 0.532736
2348.96, 0.532142
2350.02, 0.531795
2351.09, 0.531647
2352.16, 0.531300
2353.23, 0.531300
2354.29, 0.530755
2355.36, 0.530112
2356.43, 0.529914
2357.51, 0.529517
2358.58, 0.529121
2359.65, 0.528329
2360.73, 0.527685
2361.8, 0.526794
2362.88, 0.526100
2363.96, 0.525209
2365.03, 0.524367
2366.11, 0.523080
2367.19, 0.521792
2368.27, 0.520604
2369.36, 0.519118
2370.44, 0.517682
2371.53, 0.516692
2372.61, 0.515206
2373.7, 0.513225
2374.78, 0.511591
2375.87, 0.509709
2376.96, 0.507679
2378.05, 0.505154
2379.14, 0.502975
2380.24, 0.500895
2381.33, 0.499162
2382.42, 0.497428
2383.52, 0.494606
2384.61, 0.491981
2385.71, 0.490248
2386.81, 0.487921
2387.91, 0.484949
2389.01, 0.482374
2390.11, 0.480344
2391.22, 0.478066
2392.32, 0.476085
2393.42, 0.473956
2394.53, 0.472025
2395.64, 0.469747
2396.74, 0.468113
2397.85, 0.467023
2398.96, 0.465538
2400.07, 0.463705
2401.18, 0.462566
2402.3, 0.461972
2403.41, 0.461427
2404.52, 0.460635
2405.64, 0.459248
2406.76, 0.458060
2407.88, 0.457070
2408.99, 0.456178
2410.11, 0.455039
2411.23, 0.453801
2412.36, 0.452662
2413.48, 0.451920
2414.6, 0.451127
2415.73, 0.449988
2416.85, 0.449097
2417.98, 0.447512
2419.11, 0.446126
2420.24, 0.444690
2421.37, 0.443105
2422.5, 0.441372
2423.64, 0.439341
2424.77, 0.437262
2425.9, 0.435033
2427.04, 0.433003
2428.18, 0.430378
2429.31, 0.427952
2430.45, 0.425723
2431.59, 0.423000
2432.73, 0.420474
2433.88, 0.418246
2435.02, 0.416117
2436.16, 0.413789
2437.31, 0.411462
2438.45, 0.408986
2439.6, 0.406510
2440.75, 0.404876
2441.9, 0.403291
2443.05, 0.401706
2444.2, 0.400270
2445.35, 0.398586
2446.51, 0.397051
2447.67, 0.396011
2448.82, 0.395120
2449.98, 0.394229
2451.14, 0.393535
2452.3, 0.393288
2453.46, 0.392694
2454.62, 0.392000
2455.78, 0.391604
2456.94, 0.391109
2458.11, 0.390713
2459.28, 0.390366
2460.44, 0.390168
2461.61, 0.390069
2462.78, 0.389574
2463.95, 0.389277
2465.12, 0.389079
2466.3, 0.388534
2467.47, 0.387940
2468.65, 0.387544
2469.82, 0.386949
2471.0, 0.386504
2472.18, 0.385909
2473.36, 0.385117
2474.54, 0.384820
2475.72, 0.384770
2476.9, 0.384424
2478.08, 0.383582
2479.27, 0.382790
2480.46, 0.382492
2481.64, 0.381898
2482.83, 0.381205
2484.02, 0.380314
2485.21, 0.379917
2486.4, 0.379422
2487.6, 0.378580
2488.79, 0.377739
2489.99, 0.376897
2491.18, 0.376203
2492.38, 0.374916
2493.58, 0.373480
2494.78, 0.372093
2495.98, 0.370855
2497.18, 0.369766
2498.39, 0.368825
2499.59, 0.367537
2500.8, 0.366398
2502.01, 0.365408
2503.21, 0.364022
2504.42, 0.363180
2505.63, 0.362387
2506.84, 0.361645
2508.06, 0.360654
2509.27, 0.359367
2510.49, 0.358426
2511.7, 0.357138
2512.92, 0.355950
2514.14, 0.354811
2515.36, 0.353375
2516.58, 0.351691
2517.8, 0.350304
2519.03, 0.349017
2520.25, 0.347482
2521.48, 0.346541
2522.7, 0.346046
2523.93, 0.345402
2525.16, 0.344659
2526.39, 0.344313
2527.62, 0.344808
2528.86, 0.345303
2530.09, 0.345848
2531.33, 0.346690
2532.56, 0.347729
2533.8, 0.348472
2535.04, 0.349859
2536.28, 0.350849
2537.52, 0.351443
2538.76, 0.352780
2540.01, 0.353672
2541.25, 0.355157
2542.5, 0.356841
2543.75, 0.357287
2544.99, 0.357732
2546.24, 0.358525
2547.49, 0.359268
2548.75, 0.359317
2550.0, 0.360258
2551.26, 0.361001
2552.51, 0.361347
2553.77, 0.360506
2555.03, 0.360060
2556.29, 0.359763
2557.55, 0.359812
2558.81, 0.360753
2560.08, 0.363279
2561.34, 0.364319
2562.61, 0.363625
2563.88, 0.362932
2565.14, 0.360605
2566.41, 0.359367
2567.68, 0.360506
2568.96, 0.362041
2570.23, 0.360109
2571.51, 0.359664
2572.78, 0.363180
2574.06, 0.360753
2575.34, 0.360555
2576.62, 0.361595
2577.9, 0.359268
2579.18, 0.359119
2580.47, 0.361199
2581.75, 0.361248
2583.04, 0.363873
2584.32, 0.361694
2585.61, 0.359911
2586.9, 0.361298
2588.2, 0.359614
2589.49, 0.358030
2590.78, 0.356693
2592.08, 0.358921
2593.37, 0.366547
2594.67, 0.368577
2595.97, 0.359317
2597.27, 0.355504
2598.57, 0.355405
2599.88, 0.356891
2601.18, 0.358426
2602.49, 0.359169
2603.79, 0.361496
2605.1, 0.363526
2606.41, 0.360951
2607.72, 0.360060
2609.03, 0.360654
2610.35, 0.360109
2611.66, 0.359961
2612.98, 0.360605
2614.3, 0.360654
2615.62, 0.365061
2616.94, 0.365012
2618.26, 0.361892
2619.58, 0.364715
2620.91, 0.361744
2622.23, 0.358129
2623.56, 0.358426
2624.89, 0.360456
2626.22, 0.363229
2627.55, 0.359862
2628.88, 0.362090
2630.21, 0.363576
2631.55, 0.358525
2632.89, 0.358327
2634.22, 0.357485
2635.56, 0.354811
2636.9, 0.353969
2638.25, 0.353177
2639.59, 0.352632
2640.93, 0.352087
2642.28, 0.351245
2643.63, 0.350503
2644.98, 0.350948
2646.33, 0.348423
2647.68, 0.345798
2649.03, 0.344511
2650.39, 0.344313
2651.74, 0.344560
2653.1, 0.342084
2654.46, 0.340004
2655.82, 0.337974
2657.18, 0.335151
2658.54, 0.335449
2659.9, 0.333418
2661.27, 0.330496
2662.64, 0.329011
2664.01, 0.331437
2665.38, 0.330496
2666.74, 0.325049
2668.12, 0.319404
2669.49, 0.322227
2670.87, 0.315393
2672.24, 0.306974
2673.62, 0.304598
2675.0, 0.304053
2676.38, 0.301923
2677.76, 0.296724
2679.15, 0.291425
2680.54, 0.284492
2681.92, 0.280828
2683.31, 0.276767
2684.7, 0.271320
2686.09, 0.265823
2687.48, 0.258692
2688.88, 0.251066
2690.27, 0.242846
2691.67, 0.235517
2693.07, 0.228287
2694.47, 0.218086
2695.87, 0.207043
2697.27, 0.196941
2698.67, 0.188820
2700.08, 0.182877
2701.49, 0.177084
2702.9, 0.171141
2704.31, 0.166734
2705.72, 0.163713
2707.13, 0.162871
2708.54, 0.163862
2709.96, 0.164951
2711.38, 0.163466
2712.8, 0.161039
2714.22, 0.159950
2715.64, 0.158414
2717.06, 0.157028
2718.49, 0.155542
2719.91, 0.154255
2721.34, 0.149204
2722.77, 0.145589
2724.2, 0.142667
2725.63, 0.137963
2727.07, 0.134595
2728.5, 0.132317
2729.94, 0.129742
2731.38, 0.126920
2732.82, 0.124939
2734.26, 0.123156
2735.7, 0.119343
2737.15, 0.116719
2738.59, 0.115481
2740.04, 0.113351
2741.49, 0.110232
2742.94, 0.107013
2744.39, 0.104289
2745.84, 0.101516
2747.3, 0.0985450
2748.76, 0.0957220
2750.21, 0.0932460
2751.67, 0.0907210
2753.14, 0.0883440
2754.6, 0.0868090
2756.06, 0.0834410
2757.53, 0.0800240
2759.0, 0.0775980
2760.46, 0.0759640
2761.94, 0.0755180
2763.41, 0.0752700
2764.88, 0.0742300
2766.36, 0.0735870
2767.83, 0.0726950
2769.31, 0.0713090
2770.79, 0.0697740
2772.27, 0.0677930
2773.76, 0.0659110
2775.24, 0.0640790
2776.73, 0.0624940
2778.22, 0.0608110
2779.71, 0.0591270
2781.2, 0.0575420
2782.69, 0.0556110
2784.18, 0.0540760
2785.68, 0.0529370
2787.18, 0.0515500
2788.68, 0.0498170
2790.18, 0.0482820
2791.68, 0.0466970
2793.19, 0.0455090
2794.69, 0.0443700
2796.2, 0.0429830
2797.71, 0.0417950
2799.22, 0.0406560
2800.73, 0.0394670
2802.24, 0.0384770
2803.76, 0.0373380
2805.28, 0.0360510
2806.8, 0.0349120
2808.32, 0.0337230
2809.84, 0.0323370
2811.36, 0.0310990
2812.89, 0.0299100
2814.42, 0.0285730
2815.94, 0.0272360
2817.48, 0.0262460
2819.01, 0.0251070
2820.54, 0.0234720
2822.08, 0.0220860
2823.61, 0.0208480
2825.15, 0.0199070
2826.69, 0.0188180
2828.23, 0.0175800
2829.78, 0.0162920
2831.32, 0.0153020
2832.87, 0.0145590
2834.42, 0.0137170
2835.97, 0.0127760
2837.52, 0.0119340
2839.08, 0.0113400
2840.63, 0.0109440
2842.19, 0.0102510
2843.75, 0.00975500
2845.31, 0.00931000
2846.87, 0.00891400
2848.44, 0.00886400
2850.0, 0.00876500
2851.57, 0.00831900
2853.14, 0.00802200
2854.71, 0.00812100
2856.28, 0.00822000
2857.86, 0.00827000
2859.43, 0.00851700
2861.01, 0.00891400
2862.59, 0.00931000
2864.17, 0.00965600
2865.76, 0.00995400
2867.34, 0.0102010
2868.93, 0.0103990
2870.52, 0.0106470
2872.11, 0.0108940
2873.7, 0.0110920
2875.29, 0.0110920
2876.89, 0.0111420
2878.49, 0.0112910
2880.08, 0.0113400
2881.69, 0.0113400
2883.29, 0.0114390
2884.89, 0.0116870
2886.5, 0.0120830
2888.11, 0.0126280
2889.72, 0.0129740
2891.33, 0.0136680
2892.94, 0.0146580
2894.56, 0.0155000
2896.17, 0.0158960
2897.79, 0.0165890
2899.42, 0.0175300
2901.04, 0.0182230
2902.66, 0.0188670
2904.29, 0.0197090
2905.92, 0.0205010
2907.55, 0.0213430
2909.18, 0.0221850
2910.81, 0.0231750
2912.45, 0.0240670
2914.08, 0.0246610
2915.72, 0.0253050
2917.36, 0.0261960
2919.01, 0.0269390
2920.65, 0.0278800
2922.3, 0.0284740
2923.94, 0.0293160
2925.59, 0.0302570
2927.25, 0.0310000
2928.9, 0.0315440
2930.56, 0.0320890
2932.21, 0.0327330
2933.87, 0.0336740
2935.53, 0.0341690
2937.2, 0.0346140
2938.86, 0.0354070
2940.53, 0.0362490
2942.2, 0.0367930
2943.87, 0.0374370
2945.54, 0.0378830
2947.22, 0.0382290
2948.89, 0.0387250
2950.57, 0.0390710
2952.25, 0.0396160
2953.93, 0.0401610
2955.62, 0.0404580
2957.3, 0.0409040
2958.99, 0.0413990
2960.68, 0.0415970
2962.37, 0.0417950
2964.07, 0.0419930
2965.76, 0.0421420
2967.46, 0.0425870
2969.16, 0.0429830
2970.86, 0.0432800
2972.56, 0.0436270
2974.27, 0.0438750
2975.98, 0.0440730
2977.69, 0.0445180
2979.4, 0.0449150
2981.11, 0.0452120
2982.83, 0.0454100
2984.54, 0.0458060
2986.26, 0.0462020
2987.98, 0.0464000
2989.71, 0.0465490
2991.43, 0.0467960
2993.16, 0.0471930
2994.89, 0.0474900
2996.62, 0.0475390
2998.35, 0.0476880
3000.09, 0.0480840
3001.83, 0.0482320
3003.57, 0.0484310
3005.31, 0.0489750
3007.05, 0.0493220
3008.79, 0.0495200
3010.54, 0.0497680
3012.29, 0.0501640
3014.04, 0.0506090
3015.8, 0.0508080
3017.55, 0.0508080
3019.31, 0.0511540
3021.07, 0.0515500
3022.83, 0.0517980
3024.59, 0.0518470
3026.36, 0.0519960
3028.13, 0.0522930
3029.9, 0.0526890
3031.67, 0.0528870
3033.44, 0.0529370
3035.22, 0.0528870
3037.0, 0.0530360
3038.78, 0.0534820
3040.56, 0.0537290
3042.34, 0.0537790
3044.13, 0.0539770
3045.92, 0.0541250
3047.71, 0.0542240
3049.5, 0.0543230
3051.3, 0.0543230
3053.09, 0.0542740
3054.89, 0.0544220
3056.69, 0.0544720
3058.5, 0.0547690
3060.3, 0.0548190
3062.11, 0.0548190
3063.92, 0.0549180
3065.73, 0.0550170
3067.55, 0.0550660
3069.36, 0.0551160
3071.18, 0.0551160
3073.0, 0.0551650
3074.82, 0.0550170
3076.65, 0.0549180
3078.48, 0.0549670
3080.31, 0.0553630
3082.14, 0.0553140
3083.97, 0.0549670
3085.8, 0.0549670
3087.64, 0.0552150
3089.48, 0.0553140
3091.33, 0.0553140
3093.17, 0.0554130
3095.02, 0.0555610
3096.87, 0.0555610
3098.72, 0.0556600
3100.57, 0.0556600
3102.43, 0.0555610
3104.28, 0.0556600
3106.14, 0.0558590
3108.01, 0.0559580
3109.87, 0.0560570
3111.74, 0.0561560
3113.61, 0.0562550
3115.48, 0.0563540
3117.35, 0.0565020
3119.23, 0.0565520
3121.1, 0.0567000
3122.98, 0.0569480
3124.87, 0.0571960
3126.75, 0.0574930
3128.64, 0.0576910
3130.53, 0.0577400
3132.42, 0.0578890
3134.31, 0.0583840
3136.21, 0.0587310
3138.11, 0.0587800
3140.01, 0.0590280
3141.91, 0.0592750
3143.82, 0.0595230
3145.73, 0.0596720
3147.64, 0.0598700
3149.55, 0.0600180
3151.46, 0.0602160
3153.38, 0.0606120
3155.3, 0.0609100
3157.22, 0.0611080
3159.14, 0.0614540
3161.07, 0.0614540
3163.0, 0.0615530
3164.93, 0.0617020
3166.86, 0.0619000
3168.8, 0.0622470
3170.74, 0.0627420
3172.68, 0.0629890
3174.62, 0.0631880
3176.56, 0.0634850
3178.51, 0.0637820
3180.46, 0.0639800
3182.42, 0.0641780
3184.37, 0.0642770
3186.33, 0.0646240
3188.29, 0.0650690
3190.25, 0.0653660
3192.21, 0.0655640
3194.18, 0.0658120
3196.15, 0.0659610
3198.12, 0.0661090
3200.09, 0.0663570
3202.07, 0.0666540
3204.05, 0.0668520
3206.03, 0.0671000
3208.02, 0.0673970
3210.0, 0.0676440
3211.99, 0.0676940
3213.98, 0.0680900
3215.98, 0.0684860
3217.97, 0.0686350
3219.97, 0.0687830
3221.97, 0.0690310
3223.98, 0.0692290
3225.98, 0.0694770
3227.99, 0.0697240
3230.0, 0.0700710
3232.02, 0.0703180
3234.03, 0.0705660
3236.05, 0.0709620
3238.07, 0.0712590
3240.1, 0.0712590
3242.12, 0.0713580
3244.15, 0.0714080
3246.18, 0.0717050
3248.22, 0.0722000
3250.25, 0.0726950
3252.29, 0.0728930
3254.33, 0.0730420
3256.38, 0.0733890
3258.43, 0.0736860
3260.47, 0.0737350
3262.53, 0.0739830
3264.58, 0.0744780
3266.64, 0.0748250
3268.7, 0.0750720
3270.76, 0.0752210
3272.82, 0.0753690
3274.89, 0.0756170
3276.96, 0.0760630
3279.04, 0.0765580
3281.11, 0.0768550
3283.19, 0.0770530
3285.27, 0.0772510
3287.35, 0.0776470
3289.44, 0.0780440
3291.53, 0.0782420
3293.62, 0.0785880
3295.71, 0.0790340
3297.81, 0.0792820
3299.91, 0.0795790
3302.01, 0.0799750
3304.11, 0.0804700
3306.22, 0.0809650
3308.33, 0.0812620
3310.44, 0.0814600
3312.56, 0.0816580
3314.68, 0.0819060
3316.8, 0.0823520
3318.92, 0.0828470
3321.05, 0.0831940
3323.18, 0.0834910
3325.31, 0.0838370
3327.44, 0.0840850
3329.58, 0.0844810
3331.72, 0.0848770
3333.86, 0.0851250
3336.01, 0.0854220
3338.16, 0.0857190
3340.31, 0.0860160
3342.46, 0.0864620
3344.61, 0.0869570
3346.77, 0.0872050
3348.94, 0.0874520
3351.1, 0.0878980
3353.27, 0.0882450
3355.44, 0.0884430
3357.61, 0.0886410
3359.79, 0.0890860
3361.97, 0.0893840
3364.15, 0.0897300
3366.33, 0.0902250
3368.52, 0.0906710
3370.71, 0.0909190
3372.9, 0.0912650
3375.1, 0.0916120
3377.3, 0.0919090
3379.5, 0.0922060
3381.71, 0.0924040
3383.91, 0.0928500
3386.12, 0.0932960
3388.34, 0.0934940
3390.55, 0.0937910
3392.77, 0.0942370
3394.99, 0.0946330
3397.22, 0.0949790
3399.45, 0.0954250
3401.68, 0.0957720
3403.91, 0.0960690
3406.15, 0.0964150
3408.39, 0.0968610
3410.63, 0.0971580
3412.87, 0.0976530
3415.12, 0.0980500
3417.37, 0.0983960
3419.63, 0.0987430
3421.88, 0.0992380
3424.14, 0.0996840
3426.41, 0.100228
3428.67, 0.100674
3430.94, 0.100971
3433.21, 0.101367
3435.49, 0.101764
3437.77, 0.102160
3440.05, 0.102655
3442.33, 0.103051
3444.62, 0.103398
3446.91, 0.103645
3449.2, 0.103942
3451.5, 0.104339
3453.8, 0.104735
3456.1, 0.105131
3458.41, 0.105428
3460.72, 0.105725
3463.03, 0.106072
3465.34, 0.106567
3467.66, 0.106914
3469.98, 0.107112
3472.31, 0.107458
3474.63, 0.107607
3476.96, 0.107904
3479.3, 0.108399
3481.64, 0.108795
3483.97, 0.109043
3486.32, 0.109489
3488.66, 0.109786
3491.01, 0.110182
3493.36, 0.110529
3495.72, 0.110677
3498.08, 0.110875
3500.44, 0.111321
3502.81, 0.111668
3505.18, 0.112014
3507.55, 0.112361
3509.92, 0.112708
3512.3, 0.113054
3514.68, 0.113500
3517.06, 0.113846
3519.45, 0.113946
3521.84, 0.114094
3524.24, 0.114490
3526.64, 0.114936
3529.04, 0.115481
3531.44, 0.115728
3533.85, 0.115926
3536.26, 0.116273
3538.67, 0.116620
3541.09, 0.116818
3543.51, 0.117164
3545.93, 0.117511
3548.36, 0.117858
3550.79, 0.118254
3553.22, 0.118551
3555.66, 0.118699
3558.1, 0.118848
3560.54, 0.119195
3562.99, 0.119541
3565.44, 0.119739
3567.9, 0.120136
3570.35, 0.120581
3572.81, 0.120878
3575.28, 0.121027
3577.75, 0.121324
3580.22, 0.121621
3582.69, 0.121819
3585.17, 0.121968
3587.65, 0.122364
3590.14, 0.122711
3592.62, 0.123008
3595.11, 0.123305
3597.61, 0.123602
3600.11, 0.123701
3602.61, 0.123998
3605.11, 0.124295
3607.62, 0.124592
3610.14, 0.124790
3612.65, 0.125038
3615.17, 0.125335
3617.69, 0.125632
3620.22, 0.125830
3622.75, 0.126078
3625.28, 0.126326
3627.82, 0.126623
3630.36, 0.126771
3632.9, 0.126969
3635.45, 0.127068
3638.0, 0.127217
3640.56, 0.127365
3643.12, 0.127564
3645.68, 0.128009
3648.24, 0.128257
3650.81, 0.128356
3653.39, 0.128455
3655.96, 0.128603
3658.54, 0.128851
3661.13, 0.129049
3663.71, 0.129297
3666.3, 0.129495
3668.9, 0.129594
3671.5, 0.129792
3674.1, 0.129891
3676.7, 0.130040
3679.31, 0.130337
3681.93, 0.130436
3684.54, 0.130683
3687.17, 0.130881
3689.79, 0.130980
3692.42, 0.131079
3695.05, 0.131278
3697.69, 0.131525
3700.32, 0.131624
3702.97, 0.131773
3705.61, 0.131921
3708.27, 0.132317
3710.92, 0.132466
3713.58, 0.132416
3716.24, 0.132516
3718.91, 0.132813
3721.58, 0.132961
3724.25, 0.132862
3726.93, 0.133011
3729.61, 0.133159
3732.29, 0.133308
3734.98, 0.133506
3737.67, 0.133605
3740.37, 0.133555
3743.07, 0.133754
3745.78, 0.133902
3748.49, 0.134150
3751.2, 0.134199
3753.91, 0.134298
3756.63, 0.134348
3759.36, 0.134546
3762.09, 0.134694
3764.82, 0.134694
3767.55, 0.134645
3770.29, 0.134694
3773.04, 0.134694
3775.78, 0.134744
3778.54, 0.134843
3781.29, 0.134942
3784.05, 0.134992
3786.82, 0.134992
3789.59, 0.135091
3792.36, 0.135140
3795.13, 0.135041
3797.92, 0.135041
3800.7, 0.135091
3803.49, 0.135140
3806.28, 0.135091
3809.08, 0.135041
3811.88, 0.134992
3814.68, 0.134942
3817.49, 0.134892
3820.31, 0.134793
3823.12, 0.134793
3825.94, 0.134793
3828.77, 0.134694
3831.6, 0.134645
3834.43, 0.134447
3837.27, 0.134348
3840.11, 0.134348
3842.96, 0.134298
3845.81, 0.134150
3848.67, 0.134150
3851.53, 0.134001
3854.39, 0.133902
3857.26, 0.133754
3860.13, 0.133704
3863.01, 0.133555
3865.89, 0.133407
3868.77, 0.133258
3871.66, 0.133060
3874.55, 0.132912
3877.45, 0.132763
3880.35, 0.132565
3883.26, 0.132466
3886.17, 0.132317
3889.09, 0.132070
3892.01, 0.131773
3894.93, 0.131575
3897.86, 0.131426
3900.79, 0.131377
3903.73, 0.131426
3906.67, 0.131476
3909.62, 0.131525
3912.57, 0.131426
3915.52, 0.131278
3918.48, 0.131228
3921.45, 0.131228
3924.42, 0.131278
3927.39, 0.131178
3930.37, 0.130980
3933.35, 0.130782
3936.34, 0.130683
3939.33, 0.130584
3942.32, 0.130436
3945.32, 0.130287
3948.33, 0.130139
3951.34, 0.129940
3954.35, 0.129693
3957.37, 0.129495
3960.39, 0.129346
3963.42, 0.129148
3966.45, 0.128752
3969.49, 0.128603
3972.53, 0.128504
3975.58, 0.128158
3978.63, 0.127910
3981.68, 0.127564
3984.75, 0.127118
3987.81, 0.126672
3990.88, 0.126425
3993.95, 0.126127
3997.03, 0.125880
4000.12, 0.125682
4003.21, 0.125335
4006.3, 0.124889
4009.4, 0.124444
4012.5, 0.123998
4015.61, 0.123503
4018.72, 0.123008
4021.84, 0.122711
4024.96, 0.122364
4028.09, 0.121918
4031.22, 0.121423
4034.36, 0.120977
4037.5, 0.120631
4040.65, 0.120136
4043.8, 0.119690
4046.96, 0.119343
4050.12, 0.118749
4053.29, 0.118105
4056.46, 0.117560
4059.64, 0.116966
4062.82, 0.116322
4066.0, 0.115827
4069.19, 0.115382
4072.39, 0.114837
4075.59, 0.114243
4078.8, 0.113599
4082.01, 0.112856
4085.23, 0.112113
4088.45, 0.111519
4091.68, 0.111024
4094.91, 0.110430
4098.15, 0.109786
4101.39, 0.109093
4104.63, 0.108300
4107.89, 0.107656
4111.14, 0.106963
4114.41, 0.106369
4117.67, 0.105874
4120.95, 0.105329
4124.23, 0.104735
4127.51, 0.104190
4130.8, 0.103695
4134.09, 0.103200
4137.39, 0.102704
4140.7, 0.102259
4144.01, 0.101863
4147.32, 0.101566
4150.64, 0.101120
4153.97, 0.100575
4157.3, 0.100179
4160.64, 0.0998820
4163.98, 0.0994360
4167.33, 0.0990900
4170.68, 0.0988420
4174.04, 0.0984950
4177.4, 0.0981490
4180.77, 0.0977030
4184.14, 0.0972080
4187.52, 0.0967620
4190.91, 0.0965140
4194.3, 0.0962670
4197.69, 0.0959700
4201.1, 0.0955240
4204.5, 0.0950780
4207.92, 0.0944840
4211.34, 0.0939390
4214.76, 0.0933950
4218.19, 0.0929000
4221.62, 0.0924040
4225.06, 0.0919090
4228.51, 0.0914140
4231.96, 0.0908200
4235.42, 0.0899780
4238.88, 0.0892350
4242.35, 0.0885420
4245.83, 0.0878480
4249.31, 0.0872050
4252.79, 0.0864120
4256.28, 0.0855210
4259.78, 0.0846790
4263.29, 0.0837880
4266.79, 0.0828470
4270.31, 0.0820050
4273.83, 0.0812130
4277.35, 0.0802720
4280.89, 0.0792820
4284.42, 0.0784400
4287.97, 0.0775980
4291.52, 0.0766070
4295.07, 0.0756170
4298.63, 0.0747750
4302.2, 0.0739330
4305.78, 0.0732400
4309.35, 0.0726950
4312.94, 0.0719530
4316.53, 0.0712100
4320.13, 0.0707150
4323.73, 0.0702190
4327.34, 0.0697240
4330.96, 0.0694770
4334.58, 0.0692290
4338.21, 0.0689320
4341.84, 0.0687830
4345.48, 0.0687340
4349.12, 0.0686840
4352.77, 0.0687340
4356.43, 0.0688330
4360.1, 0.0687830
4363.76, 0.0686350
4367.44, 0.0684370
4371.12, 0.0681400
4374.81, 0.0678420
4378.51, 0.0673970
4382.21, 0.0670010
4385.92, 0.0667030
4389.63, 0.0662580
4393.35, 0.0659110
4397.08, 0.0655640
4400.81, 0.0651190
4404.55, 0.0648710
4408.29, 0.0645740
4412.04, 0.0642270
4415.8, 0.0639800
4419.57, 0.0637320
4423.34, 0.0633860
4427.12, 0.0630390
4430.9, 0.0625930
4434.69, 0.0621970
4438.49, 0.0619990
4442.29, 0.0616520
4446.1, 0.0612560
4449.92, 0.0610580
4453.74, 0.0606120
4457.57, 0.0602660
4461.41, 0.0599690
4465.25, 0.0596220
4469.1, 0.0592260
4472.95, 0.0588300
4476.82, 0.0584340
4480.69, 0.0582360
4484.56, 0.0580370
4488.44, 0.0579880
4492.33, 0.0578890
4496.23, 0.0578390
4500.13, 0.0577900
4504.04, 0.0576410
4507.96, 0.0575920
4511.88, 0.0575420
4515.81, 0.0574430
4519.75, 0.0573440
4523.69, 0.0573440
4527.65, 0.0571960
4531.6, 0.0570970
4535.57, 0.0570470
4539.54, 0.0569480
4543.52, 0.0570470
4547.5, 0.0571460
4551.5, 0.0572450
4555.5, 0.0570970
4559.5, 0.0569980
4563.52, 0.0569480
4567.54, 0.0568490
4571.56, 0.0568490
4575.6, 0.0570970
4579.64, 0.0572450
4583.69, 0.0574430
4587.75, 0.0576910
4591.81, 0.0580370
4595.88, 0.0582360
4599.96, 0.0583350
4604.04, 0.0583840
4608.14, 0.0585330
4612.24, 0.0588790
4616.34, 0.0591270
4620.46, 0.0595730
4624.58, 0.0601670
4628.71, 0.0606620
4632.84, 0.0611080
4636.99, 0.0616520
4641.14, 0.0619500
4645.3, 0.0620980
4649.47, 0.0621970
4653.64, 0.0621970
4657.82, 0.0620980
4662.01, 0.0618500
4666.21, 0.0617510
4670.41, 0.0616520
4674.62, 0.0616520
4678.84, 0.0618010
4683.07, 0.0621480
4687.3, 0.0626430
4691.54, 0.0634350
4695.79, 0.0643760
4700.05, 0.0653170
4704.31, 0.0663570
4708.59, 0.0673970
4712.87, 0.0683380
4717.15, 0.0692290
4721.45, 0.0703180
4725.76, 0.0715560
4730.07, 0.0727940
4734.39, 0.0740320
4738.72, 0.0752700
4743.05, 0.0766070
4747.39, 0.0779940
4751.75, 0.0793810
4756.1, 0.0806680
4760.47, 0.0819560
4764.85, 0.0831440
4769.23, 0.0840850
4773.62, 0.0848280
4778.02, 0.0856200
4782.43, 0.0863130
4786.85, 0.0867590
4791.27, 0.0870560
4795.7, 0.0873530
4800.14, 0.0874520
4804.59, 0.0874520
4809.05, 0.0872540
4813.51, 0.0872050
4817.99, 0.0873530
4822.47, 0.0874520
4826.96, 0.0876500
4831.46, 0.0880470
4835.96, 0.0885420
4840.48, 0.0890370
4845.0, 0.0893340
4849.54, 0.0896310
4854.08, 0.0898290
4858.63, 0.0897300
4863.18, 0.0895320
4867.75, 0.0894330
4872.33, 0.0892850
4876.91, 0.0890370
4881.5, 0.0889380
4886.1, 0.0888390
4890.71, 0.0886410
4895.33, 0.0883930
4899.96, 0.0880960
4904.59, 0.0877990
4909.24, 0.0875020
4913.89, 0.0871060
4918.55, 0.0867590
4923.22, 0.0866100
4927.9, 0.0864120
4932.59, 0.0861650
4937.29, 0.0858680
4942.0, 0.0855210
4946.71, 0.0852240
4951.44, 0.0850750
4956.17, 0.0847780
4960.91, 0.0843820
4965.67, 0.0840850
4970.43, 0.0837380
4975.2, 0.0833420
4979.98, 0.0829960
4984.76, 0.0825990
4989.56, 0.0822030
4994.37, 0.0820050
4999.18, 0.0817080
5004.01, 0.0813610
5008.84, 0.0811630
5013.69, 0.0810150
5018.54, 0.0807670
5023.4, 0.0803710
5028.28, 0.0801730
5033.16, 0.0798760
5038.05, 0.0795790
5042.95, 0.0794800
5047.86, 0.0792320
5052.78, 0.0789350
5057.71, 0.0785880
5062.65, 0.0784890
5067.6, 0.0782420
5072.56, 0.0779940
5077.53, 0.0778450
5082.5, 0.0776970
5087.49, 0.0774000
5092.49, 0.0772510
5097.5, 0.0770040
5102.51, 0.0767560
5107.54, 0.0765580
5112.58, 0.0763600
5117.62, 0.0760130
5122.68, 0.0756170
5127.75, 0.0753200
5132.82, 0.0751220
5137.91, 0.0748740
5143.01, 0.0747260
5148.12, 0.0746270
5153.23, 0.0742300
5158.36, 0.0739830
5163.5, 0.0738340
5168.65, 0.0734880
5173.81, 0.0731410
5178.98, 0.0728930
5184.15, 0.0726460
5189.34, 0.0724970
5194.54, 0.0722990
5199.75, 0.0720520
5204.98, 0.0716550
5210.21, 0.0714570
5215.45, 0.0711110
5220.7, 0.0705160
5225.96, 0.0701200
5231.23, 0.0697240
5236.52, 0.0693780
5241.81, 0.0690800
5247.12, 0.0686840
5252.44, 0.0681890
5257.76, 0.0677430
5263.1, 0.0673470
5268.45, 0.0671490
5273.81, 0.0669510
5279.18, 0.0664560
5284.56, 0.0660600
5289.95, 0.0659610
5295.36, 0.0655640
5300.77, 0.0652670
5306.2, 0.0650200
5311.63, 0.0647230
5317.08, 0.0644750
5322.54, 0.0641780
5328.01, 0.0638810
5333.49, 0.0635340
5338.98, 0.0633360
5344.49, 0.0634350
5350.0, 0.0633360
5355.53, 0.0627910
5361.07, 0.0623950
5366.62, 0.0621970
5372.18, 0.0620490
5377.75, 0.0618500
5383.34, 0.0616030
5388.93, 0.0615040
5394.54, 0.0613550
5400.16, 0.0612070
5405.79, 0.0611570
5411.44, 0.0610580
5417.09, 0.0611080
5422.76, 0.0611080
5428.43, 0.0604640
5434.12, 0.0599690
5439.83, 0.0595730
5445.54, 0.0593250
5451.26, 0.0588300
5457.0, 0.0586320
5462.75, 0.0584830
5468.52, 0.0577400
5474.29, 0.0572950
5480.08, 0.0567990
5485.88, 0.0561060
5491.69, 0.0557100
5497.51, 0.0553140
5503.35, 0.0549670
5509.2, 0.0544720
5515.06, 0.0542240
5520.93, 0.0538780
5526.82, 0.0534320
5532.71, 0.0529860
5538.63, 0.0526890
5544.55, 0.0524420
5550.49, 0.0523430
5556.44, 0.0520950
5562.4, 0.0518470
5568.37, 0.0515500
5574.36, 0.0516000
5580.36, 0.0513030
5586.37, 0.0506590
5592.4, 0.0502130
5598.44, 0.0500650
5604.49, 0.0498670
5610.56, 0.0496190
5616.63, 0.0493710
5622.73, 0.0488760
5628.83, 0.0485790
5634.95, 0.0487280
5641.08, 0.0487280
5647.23, 0.0480840
5653.39, 0.0476380
5659.56, 0.0471930
5665.74, 0.0468460
5671.94, 0.0467470
5678.15, 0.0463510
5684.38, 0.0459550
5690.62, 0.0457560
5696.87, 0.0452120
5703.14, 0.0449150
5709.42, 0.0448160
5715.72, 0.0442710
5722.03, 0.0436770
5728.35, 0.0431320
5734.69, 0.0426860
5741.03, 0.0422900
5747.4, 0.0418940
5753.78, 0.0411020
5760.17, 0.0410030
5766.58, 0.0407050
5773.0, 0.0395170
5779.44, 0.0386750
5785.88, 0.0379820
5792.35, 0.0373380
5798.83, 0.0366940
5805.32, 0.0359520
5811.83, 0.0356050
5818.35, 0.0353080
5824.89, 0.0345650
5831.45, 0.0334760
5838.01, 0.0324850
5844.59, 0.0316930
5851.19, 0.0309000
5857.8, 0.0302570
5864.43, 0.0294640
5871.07, 0.0287220
5877.73, 0.0284240
5884.4, 0.0272860
5891.09, 0.0264440
5897.79, 0.0255520
5904.5, 0.0243140
5911.23, 0.0235720
5917.98, 0.0229280
5924.75, 0.0223830
5931.53, 0.0220860
5938.32, 0.0214420
5945.13, 0.0204520
5951.96, 0.0199070
5958.8, 0.0194610
5965.65, 0.0192140
5972.53, 0.0187680
5979.42, 0.0184710
5986.32, 0.0183720
5993.24, 0.0181240
6000.18, 0.0178270
6007.13, 0.0177780
6014.1, 0.0176790
6021.08, 0.0174310
6028.09, 0.0172330
6035.1, 0.0171830
6042.14, 0.0173820
6049.19, 0.0173820
6056.25, 0.0166390
6063.34, 0.0165400
6070.44, 0.0165890
6077.55, 0.0162920
6084.69, 0.0160440
6091.84, 0.0159950
6099.0, 0.0160440
6106.19, 0.0160940
6113.39, 0.0160440
6120.61, 0.0158460
6127.84, 0.0157470
6135.09, 0.0158460
6142.36, 0.0158960
6149.65, 0.0159450
6156.95, 0.0160940
6164.27, 0.0161930
6171.61, 0.0162920
6178.97, 0.0166390
6186.34, 0.0168370
6193.73, 0.0165890
6201.14, 0.0166390
6208.57, 0.0168370
6216.01, 0.0169360
6223.47, 0.0170350
6230.95, 0.0171830
6238.45, 0.0172330
6245.97, 0.0172330
6253.5, 0.0172820
6261.06, 0.0173320
6268.63, 0.0173320
6276.21, 0.0174310
6283.82, 0.0175800
6291.45, 0.0174810
6299.1, 0.0173820
6306.76, 0.0173820
6314.44, 0.0174310
6322.14, 0.0174310
6329.86, 0.0173820
6337.6, 0.0177780
6345.35, 0.0178270
6353.13, 0.0175800
6360.92, 0.0175800
6368.74, 0.0176790
6376.57, 0.0175800
6384.43, 0.0174310
6392.3, 0.0171830
6400.19, 0.0170350
6408.1, 0.0174310
6416.03, 0.0173320
6423.98, 0.0168860
6431.95, 0.0165400
6439.94, 0.0160940
6447.95, 0.0157970
6455.98, 0.0155990
6464.03, 0.0152520
6472.1, 0.0149550
6480.19, 0.0148060
6488.31, 0.0145590
6496.44, 0.0139650
6504.59, 0.0133700
6512.76, 0.0131230
6520.95, 0.0129740
6529.16, 0.0124790
6537.4, 0.0120330
6545.65, 0.0117360
6553.92, 0.0114890
6562.22, 0.0112910
6570.54, 0.0112410
6578.88, 0.0108940
6587.23, 0.0105970
6595.61, 0.0103000
6604.02, 0.0102010
6612.44, 0.0100030
6620.89, 0.00985400
6629.35, 0.0100530
6637.84, 0.0101520
6646.35, 0.00975500
6654.88, 0.00950800
6663.44, 0.00955700
6672.01, 0.00960700
6680.61, 0.00940900
6689.23, 0.00911200
6697.88, 0.00911200
6706.54, 0.00921100
6715.23, 0.00921100
6723.94, 0.00911200
6732.67, 0.00906200
6741.42, 0.00896300
6750.2, 0.00876500
6759.0, 0.00871600
6767.82, 0.00876500
6776.67, 0.00886400
6785.54, 0.00896300
6794.44, 0.00886400
6803.35, 0.00876500
6812.29, 0.00871600
6821.26, 0.00881500
6830.24, 0.00886400
6839.25, 0.00871600
6848.29, 0.00876500
6857.35, 0.00881500
6866.43, 0.00866600
6875.54, 0.00831900
6884.67, 0.00802200
6893.82, 0.00787400
6903.0, 0.00782400
6912.2, 0.00767600
6921.43, 0.00752700
6930.69, 0.00737800
6939.96, 0.00727900
6949.27, 0.00718000
6958.59, 0.00703200
6967.95, 0.00688300
6977.33, 0.00683400
6986.73, 0.00683400
6996.16, 0.00693300
7005.61, 0.00678400
7015.09, 0.00663600
7024.6, 0.00658600
7034.13, 0.00658600
7043.69, 0.00663600
7053.27, 0.00663600
7062.88, 0.00658600
7072.52, 0.00653700
7082.18, 0.00658600
7091.87, 0.00648700
7101.58, 0.00643800
7111.32, 0.00648700
7121.09, 0.00653700
7130.88, 0.00648700
7140.71, 0.00653700
7150.56, 0.00673500
7160.43, 0.00673500
7170.33, 0.00653700
7180.27, 0.00648700
7190.23, 0.00658600
7200.21, 0.00673500
7210.23, 0.00673500
7220.27, 0.00668500
7230.34, 0.00663600
7240.44, 0.00668500
7250.56, 0.00673500
7260.72, 0.00663600
7270.9, 0.00663600
7281.12, 0.00658600
7291.36, 0.00653700
7301.63, 0.00658600
7311.93, 0.00643800
7322.25, 0.00619000
7332.61, 0.00619000
7343.0, 0.00609100
7353.41, 0.00589300
7363.86, 0.00574400
7374.33, 0.00569500
7384.83, 0.00549700
7395.37, 0.00524900
7405.93, 0.00515000
7416.53, 0.00495200
7427.15, 0.00465500
7437.81, 0.00445700
7448.5, 0.00440700
7459.22, 0.00440700
7469.96, 0.00420900
7480.74, 0.00396200
7491.55, 0.00386300
7502.39, 0.00376400
7513.27, 0.00361500
7524.17, 0.00341700
7535.11, 0.00326800
7546.08, 0.00321900
7557.08, 0.00316900
7568.11, 0.00312000
7579.17, 0.00287200
7590.27, 0.00267400
7601.4, 0.00257500
7612.56, 0.00252600
7623.76, 0.00237700
7634.98, 0.00227800
7646.24, 0.00222800
7657.54, 0.00217900
7668.87, 0.00222800
7680.23, 0.00222800
7691.62, 0.00212900
7703.05, 0.00203000
7714.51, 0.00212900
7726.01, 0.00222800
7737.54, 0.00217900
7749.11, 0.00208000
7760.71, 0.00208000
7772.35, 0.00232700
7784.02, 0.00237700
7795.72, 0.00242600
7807.46, 0.00242600
7819.23, 0.00257500
7831.04, 0.00282300
7842.89, 0.00302100
7854.77, 0.00326800
7866.69, 0.00351600
7878.65, 0.00386300
7890.64, 0.00420900
7902.67, 0.00445700
7914.74, 0.00480300
7926.84, 0.00520000
7938.98, 0.00574400
7951.16, 0.00638800
7963.37, 0.00683400
7975.62, 0.00723000
7987.91, 0.00772500
8000.24, 0.00812100
8012.6, 0.00831900
8025.01, 0.00851700
8037.45, 0.00866600
8049.93, 0.00861600
8062.45, 0.00856700
8075.01, 0.00866600
8087.61, 0.00866600
8100.24, 0.00876500
8112.91, 0.00876500
8125.63, 0.00861600
8138.39, 0.00851700
8151.18, 0.00861600
8164.02, 0.00871600
8176.9, 0.00866600
8189.81, 0.00856700
8202.77, 0.00861600
8215.77, 0.00881500
8228.82, 0.00881500
8241.9, 0.00861600
8255.02, 0.00866600
8268.19, 0.00881500
8281.39, 0.00876500
8294.65, 0.00851700
8307.94, 0.00836900
8321.28, 0.00851700
8334.66, 0.00871600
8348.08, 0.00886400
8361.54, 0.00886400
8375.05, 0.00866600
8388.6, 0.00866600
8402.2, 0.00881500
8415.84, 0.00886400
8429.52, 0.00891400
8443.25, 0.00906200
8457.02, 0.00931000
8470.84, 0.00965600
8484.7, 0.00995400
8498.61, 0.0103000
8512.57, 0.0108940
8526.57, 0.0116370
8540.62, 0.0122310
8554.71, 0.0127270
8568.85, 0.0132710
8583.04, 0.0135680
8597.27, 0.0136180
8611.55, 0.0138160
8625.88, 0.0144600
8640.26, 0.0151530
8654.68, 0.0159450
8669.16, 0.0169360
8683.68, 0.0177780
8698.25, 0.0186200
8712.87, 0.0195110
8727.53, 0.0203530
8742.25, 0.0212940
8757.02, 0.0220860
8771.83, 0.0228780
8786.7, 0.0236210
8801.62, 0.0243640
8816.59, 0.0251560
8831.61, 0.0258000
8846.68, 0.0264440
8861.8, 0.0268890
8876.97, 0.0268890
8892.2, 0.0270380
8907.48, 0.0269880
8922.81, 0.0266420
8938.2, 0.0263940
8953.63, 0.0262950
8969.13, 0.0260480
8984.67, 0.0258490
9000.27, 0.0258490
9015.92, 0.0257010
9031.63, 0.0254530
9047.39, 0.0251070
9063.21, 0.0249580
9079.08, 0.0250570
9095.01, 0.0250080
9111.0, 0.0248100
9127.04, 0.0247100
9143.13, 0.0246110
9159.28, 0.0244630
9175.49, 0.0242650
9191.76, 0.0241160
9208.09, 0.0241660
9224.47, 0.0241160
9240.92, 0.0240170
9257.42, 0.0238190
9273.98, 0.0235720
9290.6, 0.0235720
9307.28, 0.0233240
9324.02, 0.0229280
9340.82, 0.0227790
9357.68, 0.0228780
9374.6, 0.0226800
9391.58, 0.0223830
9408.62, 0.0221350
9425.73, 0.0217390
9442.9, 0.0213930
9460.13, 0.0209470
9477.42, 0.0206000
9494.78, 0.0204520
9512.2, 0.0199570
9529.69, 0.0195110
9547.24, 0.0191640
9564.86, 0.0190160
9582.54, 0.0186690
9600.28, 0.0182230
9618.1, 0.0177280
9635.97, 0.0167870
9653.92, 0.0157970
9671.93, 0.0147070
9690.01, 0.0141130
9708.16, 0.0144600
9726.37, 0.0157470
9744.65, 0.0170840
9763.0, 0.0180250
9781.43, 0.0183720
9799.92, 0.0185200
9818.48, 0.0186690
9837.1, 0.0188180
9855.8, 0.0191640
9874.58, 0.0195110
9893.42, 0.0197090
9912.34, 0.0200560
9931.33, 0.0202540
9950.39, 0.0206990
9969.52, 0.0208970
9988.74, 0.0208970
10008.0, 0.0210460
10027.4, 0.0212440
10046.8, 0.0213430
10066.3, 0.0213430
10085.9, 0.0214420
10105.6, 0.0216400
10125.3, 0.0216900
10145.1, 0.0217390
10165.0, 0.0219870
10185.0, 0.0220860
10205.0, 0.0219870
10225.2, 0.0222340
10245.4, 0.0225320
10265.7, 0.0223340
10286.0, 0.0221350
10306.5, 0.0220860
10327.0, 0.0216900
10347.6, 0.0214920
10368.3, 0.0213930
10389.1, 0.0214420
10409.9, 0.0214420
10430.9, 0.0211950
10451.9, 0.0208970
10473.0, 0.0206000
10494.2, 0.0202040
10515.5, 0.0199570
10536.9, 0.0197580
10558.4, 0.0192140
10579.9, 0.0189660
10601.5, 0.0189660
10623.3, 0.0188180
10645.1, 0.0185200
10667.0, 0.0183720
10689.0, 0.0179760
10711.1, 0.0174810
10733.2, 0.0171830
10755.5, 0.0168370
10777.9, 0.0168370
10800.3, 0.0167380
10822.9, 0.0162920
10845.5, 0.0158960
10868.2, 0.0155990
10891.1, 0.0154010
10914.0, 0.0150050
10937.0, 0.0151530
10960.2, 0.0155490
10983.4, 0.0154500
11006.7, 0.0152030
11030.1, 0.0151530
11053.6, 0.0153020
11077.3, 0.0154010
11101.0, 0.0152520
11124.8, 0.0150540
11148.7, 0.0151040
11172.7, 0.0150050
11196.9, 0.0148560
11221.1, 0.0145090
11245.4, 0.0141630
11269.9, 0.0137670
11294.4, 0.0137670
11319.1, 0.0136680
11343.9, 0.0132710
11368.8, 0.0129740
11393.7, 0.0127760
11418.8, 0.0124790
11444.0, 0.0122810
11469.4, 0.0120830
11494.8, 0.0117860
11520.3, 0.0115380
11546.0, 0.0113400
11571.8, 0.0111420
11597.7, 0.0107950
11623.7, 0.0103500
11649.8, 0.0101520
11676.0, 0.0101020
11702.4, 0.00980500
11728.9, 0.00960700
11755.5, 0.00950800
11782.2, 0.00906200
11809.0, 0.00851700
11836.0, 0.00831900
11863.0, 0.00812100
11890.3, 0.00797300
11917.6, 0.00792300
11945.0, 0.00782400
11972.6, 0.00787400
12000.4, 0.00747800
12028.2, 0.00703200
12056.2, 0.00703200
12084.3, 0.00698200
12112.5, 0.00638800
12140.9, 0.00589300
12169.4, 0.00574400
12198.0, 0.00579400
12226.8, 0.00544700
12255.7, 0.00510100
12284.7, 0.00505100
12313.9, 0.00485300
12343.2, 0.00500200
12372.7, 0.00549700
12402.3, 0.00594200
12432.0, 0.00633900
12461.9, 0.00668500
12491.9, 0.00698200
12522.1, 0.00708100
12552.4, 0.00703200
12582.9, 0.00678400
12613.5, 0.00638800
12644.3, 0.00609100
12675.2, 0.00579400
12706.3, 0.00609100
12737.5, 0.00604100
12768.9, 0.00604100
12800.4, 0.00614000
12832.1, 0.00609100
12863.9, 0.00609100
12895.9, 0.00569500
12928.1, 0.00529900
12960.4, 0.00534800
12992.9, 0.00515000
13025.5, 0.00490200
13058.3, 0.00475400
13091.3, 0.00475400
13124.4, 0.00465500
13157.8, 0.00470400
13191.2, 0.00500200
13224.9, 0.00520000
13258.7, 0.00510100
13292.7, 0.00515000
13326.9, 0.00500200
13361.2, 0.00490200
13395.7, 0.00564500
13430.4, 0.00653700
13465.3, 0.00658600
13500.4, 0.00713100
13535.7, 0.00777500
13571.1, 0.00851700
13606.7, 0.00940900
13642.5, 0.0101020
13678.5, 0.0110430
13714.7, 0.0126770
13751.1, 0.0140140
13787.6, 0.0148060
13824.4, 0.0151530
13861.4, 0.0161440
13898.5, 0.0169850
13935.9, 0.0181740
13973.5, 0.0197580
14011.2, 0.0202540
14049.2, 0.0203030
14087.4, 0.0213930
14125.8, 0.0217390
14164.3, 0.0221350
14203.2, 0.0227300
14242.2, 0.0230270
14281.4, 0.0229770
14320.9, 0.0229280
14360.5, 0.0230760
14400.4, 0.0234720
14440.5, 0.0233730
14480.9, 0.0229770
14521.4, 0.0223830
14562.2, 0.0222840
14603.3, 0.0221350
14644.5, 0.0214420
14686.0, 0.0209960
14727.7, 0.0210460
14769.7, 0.0204520
14811.9, 0.0199570
14854.3, 0.0196590
14897.0, 0.0196100
14939.9, 0.0194610
14983.1, 0.0194120
15026.5, 0.0192630
15070.2, 0.0187190
15114.2, 0.0184210
15158.3, 0.0187680
15202.8, 0.0193130
15247.5, 0.0196590
15292.5, 0.0204520
15337.7, 0.0220360
15383.2, 0.0239680
15429.0, 0.0261960
15475.1, 0.0284240
15521.4, 0.0308010
15568.0, 0.0325840
15614.9, 0.0337230
15662.1, 0.0346140
15709.6, 0.0354560
15757.3, 0.0355550
15805.4, 0.0351590
15853.7, 0.0349120
15902.3, 0.0353080
15951.2, 0.0350600
16000.5, 0.0335250
16050.0, 0.0316930
16099.8, 0.0308510
16150.0, 0.0298610
16200.5, 0.0286720
16251.3, 0.0283750
16302.4, 0.0288700
16353.8, 0.0298610
16405.5, 0.0317420
16457.6, 0.0336240
16510.0, 0.0354070
16562.8, 0.0364960
16615.9, 0.0374370
16669.3, 0.0379320
16723.1, 0.0382290
16777.2, 0.0375860
16831.7, 0.0365460
16886.5, 0.0359520
16941.7, 0.0355550
16997.2, 0.0341190
17053.1, 0.0331780
17109.4, 0.0326830
17166.1, 0.0319900
17223.1, 0.0315940
17280.5, 0.0308010
17338.3, 0.0296620
17396.5, 0.0294150
17455.1, 0.0285240
17514.0, 0.0281270
17573.4, 0.0278300
17633.2, 0.0273850
17693.4, 0.0267410
17754.0, 0.0266420
17815.0, 0.0258990
17876.4, 0.0252550
17938.3, 0.0253050
18000.5, 0.0257010
18063.3, 0.0250570
18126.4, 0.0250570
18190.0, 0.0242650
18254.1, 0.0231260
18318.6, 0.0224330
18383.5, 0.0219870
18449.0, 0.0214420
18514.9, 0.0207490
18581.2, 0.0195600
18648.0, 0.0194120
18715.4, 0.0201550
18783.2, 0.0211450
18851.5, 0.0212940
18920.3, 0.0221350
18989.6, 0.0225320
19059.4, 0.0223830
19129.7, 0.0231260
19200.6, 0.0244630
19272.0, 0.0251070
19343.9, 0.0252060
19416.3, 0.0258000
19489.3, 0.0270870
19562.8, 0.0267410
19637.0, 0.0268400
19711.6, 0.0274340
19786.8, 0.0280780
19862.6, 0.0288700
19939.0, 0.0284740
20016.0, 0.0279790
20093.6, 0.0287220
20171.8, 0.0278300
20250.6, 0.0272860
20330.0, 0.0279290
20410.0, 0.0283250
20490.7, 0.0279290
20572.0, 0.0277310
20654.0, 0.0279290
20736.6, 0.0293650
20819.9, 0.0293650
20903.8, 0.0293650
20988.5, 0.0300590
21073.8, 0.0302070
21159.8, 0.0273850
21246.5, 0.0275830
21334.0, 0.0296620
21422.1, 0.0299600
21511.0, 0.0288700
21600.7, 0.0299100
21691.0, 0.0280280
21782.1, 0.0250570
21874.0, 0.0234230
21966.7, 0.0252060
22060.2, 0.0267410
22154.5, 0.0244130
22249.6, 0.0218880
22345.5, 0.0249090
22442.2, 0.0269880
22539.8, 0.0261470
22638.2, 0.0254040
22737.5, 0.0298610
22837.7, 0.0314450
22938.7, 0.0322380
23040.7, 0.0339710
23143.5, 0.0355060
23247.3, 0.0337730
23352.1, 0.0329800
23457.7, 0.0354560
23564.4, 0.0363970
23672.0, 0.0339710
23780.5, 0.0361990
23890.1, 0.0360510
24000.7, 0.0373380
24112.3, 0.0387740
24225.0, 0.0374370
24338.7, 0.0339210
24453.5, 0.0345650
24569.4, 0.0365950
24686.4, 0.0343670
24804.5, 0.0332280
24923.8, 0.0367440
