Database of Origin, USGS Spectral Database
Sample Description, See USGS database for additional info
Date Added,2016-08-10 05:25:16.842055

Data ID,USGS_pol02          
Sample ID, polyhalite_nmnh92669-4.17973
Mineral Name, polyhalite
Material Class,Sulfate

Wavelength
1467.77, 0.594635
1468.18, 0.593726
1468.6, 0.591663
1469.02, 0.588510
1469.43, 0.586326
1469.85, 0.584385
1470.27, 0.582808
1470.68, 0.581898
1471.1, 0.579351
1471.52, 0.577835
1471.94, 0.576561
1472.35, 0.574681
1472.77, 0.572376
1473.19, 0.570799
1473.61, 0.568980
1474.03, 0.567645
1474.45, 0.565704
1474.87, 0.563036
1475.29, 0.560791
1475.71, 0.558729
1476.13, 0.557213
1476.55, 0.555393
1476.97, 0.553392
1477.39, 0.552118
1477.81, 0.550117
1478.23, 0.547630
1478.65, 0.546114
1479.07, 0.545628
1479.5, 0.544294
1479.92, 0.543020
1480.34, 0.541565
1480.76, 0.540534
1481.19, 0.539017
1481.61, 0.537380
1482.03, 0.536349
1482.46, 0.536227
1482.88, 0.536288
1483.31, 0.535742
1483.73, 0.534468
1484.16, 0.533862
1484.58, 0.534347
1485.01, 0.533983
1485.43, 0.534408
1485.86, 0.534347
1486.28, 0.533437
1486.71, 0.532588
1487.14, 0.532831
1487.56, 0.532709
1487.99, 0.532770
1488.42, 0.532224
1488.84, 0.531618
1489.27, 0.531800
1489.7, 0.531982
1490.13, 0.531436
1490.56, 0.530587
1490.98, 0.530587
1491.41, 0.530526
1491.84, 0.530829
1492.27, 0.530465
1492.7, 0.529555
1493.13, 0.528464
1493.56, 0.527857
1493.99, 0.527615
1494.42, 0.527311
1494.85, 0.526705
1495.29, 0.525916
1495.72, 0.524946
1496.15, 0.524703
1496.58, 0.524521
1497.01, 0.523915
1497.44, 0.523915
1497.88, 0.523369
1498.31, 0.522338
1498.74, 0.521671
1499.18, 0.520943
1499.61, 0.520518
1500.04, 0.520276
1500.48, 0.519912
1500.91, 0.518941
1501.35, 0.518699
1501.78, 0.518456
1502.22, 0.517910
1502.65, 0.516940
1503.09, 0.516758
1503.53, 0.516576
1503.96, 0.515848
1504.4, 0.515423
1504.83, 0.515363
1505.27, 0.515060
1505.71, 0.514392
1506.15, 0.514210
1506.58, 0.513907
1507.02, 0.513483
1507.46, 0.513361
1507.9, 0.513179
1508.34, 0.512997
1508.78, 0.512937
1509.21, 0.512633
1509.66, 0.511966
1510.09, 0.511299
1510.53, 0.511420
1510.97, 0.511845
1511.42, 0.511360
1511.86, 0.510935
1512.3, 0.510571
1512.74, 0.510147
1513.18, 0.510025
1513.62, 0.510207
1514.06, 0.509722
1514.51, 0.509783
1514.95, 0.510147
1515.39, 0.510450
1515.83, 0.509783
1516.28, 0.509176
1516.72, 0.509298
1517.16, 0.509358
1517.61, 0.508630
1518.05, 0.508085
1518.5, 0.508509
1518.94, 0.508448
1519.39, 0.508630
1519.83, 0.508448
1520.28, 0.508327
1520.73, 0.508388
1521.17, 0.508145
1521.62, 0.508085
1522.07, 0.508327
1522.51, 0.508570
1522.96, 0.508630
1523.41, 0.508570
1523.85, 0.509116
1524.3, 0.510086
1524.75, 0.510389
1525.2, 0.509601
1525.65, 0.509540
1526.1, 0.510450
1526.55, 0.510875
1527.0, 0.510571
1527.45, 0.510996
1527.9, 0.511360
1528.35, 0.511057
1528.8, 0.511299
1529.25, 0.511724
1529.7, 0.512088
1530.15, 0.512573
1530.6, 0.512694
1531.05, 0.512512
1531.51, 0.512452
1531.96, 0.512573
1532.41, 0.512694
1532.87, 0.513058
1533.32, 0.513361
1533.77, 0.513786
1534.23, 0.514514
1534.68, 0.514635
1535.14, 0.514696
1535.59, 0.514817
1536.05, 0.515787
1536.5, 0.516212
1536.96, 0.515787
1537.41, 0.515484
1537.87, 0.516091
1538.32, 0.516940
1538.78, 0.516697
1539.24, 0.516819
1539.7, 0.517243
1540.15, 0.517364
1540.61, 0.517789
1541.07, 0.518153
1541.53, 0.518153
1541.98, 0.518213
1542.44, 0.518759
1542.9, 0.519063
1543.36, 0.519002
1543.82, 0.519487
1544.28, 0.520033
1544.74, 0.520215
1545.2, 0.520397
1545.66, 0.520336
1546.12, 0.520640
1546.59, 0.521246
1547.05, 0.521731
1547.51, 0.521853
1547.97, 0.521731
1548.43, 0.522095
1548.9, 0.522702
1549.36, 0.523066
1549.82, 0.523248
1550.29, 0.523308
1550.75, 0.523490
1551.21, 0.524036
1551.68, 0.524218
1552.14, 0.524521
1552.61, 0.524946
1553.07, 0.525431
1553.54, 0.525856
1554.0, 0.525856
1554.47, 0.525977
1554.93, 0.526644
1555.4, 0.527311
1555.87, 0.527129
1556.34, 0.527918
1556.8, 0.527918
1557.27, 0.527736
1557.74, 0.527978
1558.21, 0.528524
1558.68, 0.529192
1559.14, 0.529434
1559.61, 0.529737
1560.08, 0.529737
1560.55, 0.529798
1561.02, 0.529919
1561.49, 0.530101
1561.96, 0.530526
1562.43, 0.530587
1562.9, 0.530708
1563.38, 0.531193
1563.85, 0.531800
1564.32, 0.531982
1564.79, 0.532224
1565.26, 0.532406
1565.74, 0.532891
1566.21, 0.533073
1566.68, 0.533134
1567.16, 0.533498
1567.63, 0.533922
1568.1, 0.533983
1568.58, 0.534226
1569.05, 0.534226
1569.53, 0.534468
1570.0, 0.535136
1570.48, 0.535378
1570.96, 0.535439
1571.43, 0.535621
1571.91, 0.536045
1572.39, 0.536652
1572.86, 0.536834
1573.34, 0.536955
1573.82, 0.536712
1574.3, 0.536652
1574.77, 0.536834
1575.25, 0.537137
1575.73, 0.537440
1576.21, 0.537986
1576.69, 0.537804
1577.17, 0.537744
1577.65, 0.538229
1578.13, 0.538653
1578.61, 0.538957
1579.09, 0.539199
1579.57, 0.539684
1580.05, 0.540109
1580.54, 0.540230
1581.02, 0.540473
1581.5, 0.540837
1581.98, 0.540958
1582.47, 0.541079
1582.95, 0.540897
1583.43, 0.540776
1583.92, 0.541261
1584.4, 0.541443
1584.88, 0.541868
1585.37, 0.542232
1585.85, 0.542050
1586.34, 0.542232
1586.82, 0.542535
1587.31, 0.542717
1587.8, 0.543020
1588.28, 0.543202
1588.77, 0.543324
1589.26, 0.543748
1589.74, 0.544233
1590.23, 0.544597
1590.72, 0.544719
1591.21, 0.544840
1591.7, 0.545204
1592.19, 0.545204
1592.67, 0.545204
1593.16, 0.545446
1593.65, 0.545932
1594.14, 0.545992
1594.63, 0.546114
1595.12, 0.546538
1595.61, 0.546841
1596.11, 0.547084
1596.6, 0.547569
1597.09, 0.547448
1597.58, 0.547327
1598.08, 0.547509
1598.57, 0.547691
1599.06, 0.547812
1599.55, 0.548236
1600.05, 0.548358
1600.54, 0.548236
1601.04, 0.548600
1601.53, 0.549267
1602.03, 0.549692
1602.52, 0.549874
1603.02, 0.550056
1603.51, 0.549995
1604.01, 0.550299
1604.5, 0.550662
1605.0, 0.551148
1605.5, 0.551390
1606.0, 0.551390
1606.49, 0.551572
1606.99, 0.551997
1607.49, 0.552239
1607.99, 0.552361
1608.49, 0.552239
1608.99, 0.552239
1609.49, 0.552785
1609.99, 0.553331
1610.49, 0.553574
1610.99, 0.553695
1611.49, 0.553938
1611.99, 0.554544
1612.49, 0.554908
1612.99, 0.555333
1613.49, 0.555879
1614.0, 0.556303
1614.5, 0.556849
1615.0, 0.557031
1615.51, 0.556849
1616.01, 0.557274
1616.51, 0.557698
1617.02, 0.557941
1617.52, 0.558669
1618.03, 0.559275
1618.53, 0.559457
1619.04, 0.559578
1619.54, 0.560003
1620.05, 0.560852
1620.55, 0.561155
1621.06, 0.561580
1621.57, 0.561641
1622.08, 0.561823
1622.58, 0.562065
1623.09, 0.562368
1623.6, 0.562550
1624.11, 0.562914
1624.62, 0.563642
1625.13, 0.564127
1625.64, 0.564431
1626.15, 0.564734
1626.66, 0.564976
1627.17, 0.565280
1627.68, 0.565704
1628.19, 0.565947
1628.7, 0.566190
1629.21, 0.566675
1629.72, 0.567039
1630.24, 0.567099
1630.75, 0.567402
1631.26, 0.568070
1631.78, 0.568434
1632.29, 0.568555
1632.8, 0.569040
1633.32, 0.569465
1633.83, 0.569829
1634.35, 0.570253
1634.86, 0.570556
1635.38, 0.570738
1635.9, 0.570799
1636.41, 0.570981
1636.93, 0.571769
1637.45, 0.571951
1637.96, 0.572255
1638.48, 0.572619
1639.0, 0.572619
1639.52, 0.572922
1640.04, 0.573468
1640.56, 0.573832
1641.08, 0.574135
1641.59, 0.574256
1642.11, 0.574681
1642.63, 0.574923
1643.16, 0.574923
1643.68, 0.575105
1644.2, 0.575651
1644.72, 0.576136
1645.24, 0.576379
1645.76, 0.576804
1646.29, 0.576986
1646.81, 0.577107
1647.33, 0.577713
1647.86, 0.578199
1648.38, 0.578259
1648.9, 0.578684
1649.43, 0.579351
1649.95, 0.579776
1650.48, 0.580018
1651.0, 0.580443
1651.53, 0.580807
1652.06, 0.581292
1652.58, 0.581595
1653.11, 0.581898
1653.64, 0.581959
1654.17, 0.582262
1654.69, 0.582687
1655.22, 0.583051
1655.75, 0.583597
1656.28, 0.584143
1656.81, 0.584325
1657.34, 0.584385
1657.87, 0.584749
1658.4, 0.584992
1658.93, 0.585234
1659.46, 0.585538
1659.99, 0.586083
1660.52, 0.586326
1661.05, 0.586387
1661.59, 0.587054
1662.12, 0.587539
1662.65, 0.587478
1663.19, 0.587600
1663.72, 0.588206
1664.26, 0.588570
1664.79, 0.588873
1665.32, 0.589480
1665.86, 0.589965
1666.39, 0.590268
1666.93, 0.590329
1667.47, 0.590511
1668.0, 0.590632
1668.54, 0.590936
1669.08, 0.591239
1669.61, 0.591482
1670.15, 0.591603
1670.69, 0.591906
1671.23, 0.592209
1671.77, 0.592270
1672.31, 0.592513
1672.85, 0.593180
1673.39, 0.593483
1673.93, 0.593665
1674.47, 0.593908
1675.01, 0.594271
1675.55, 0.594271
1676.09, 0.594575
1676.64, 0.595242
1677.18, 0.595485
1677.72, 0.595303
1678.26, 0.595485
1678.81, 0.595848
1679.35, 0.595909
1679.89, 0.596091
1680.44, 0.596576
1680.98, 0.596880
1681.53, 0.597001
1682.07, 0.597304
1682.62, 0.597365
1683.17, 0.597183
1683.71, 0.597243
1684.26, 0.597365
1684.81, 0.597486
1685.36, 0.597789
1685.9, 0.597971
1686.45, 0.598153
1687.0, 0.598214
1687.55, 0.598275
1688.1, 0.598457
1688.65, 0.598335
1689.2, 0.598275
1689.75, 0.598335
1690.3, 0.598335
1690.85, 0.598396
1691.41, 0.598638
1691.96, 0.598699
1692.51, 0.598699
1693.06, 0.599245
1693.61, 0.599609
1694.17, 0.599609
1694.72, 0.599548
1695.28, 0.599427
1695.83, 0.599427
1696.39, 0.599670
1696.94, 0.600215
1697.5, 0.600701
1698.05, 0.600943
1698.61, 0.601186
1699.17, 0.601429
1699.72, 0.601610
1700.28, 0.601914
1700.84, 0.602278
1701.4, 0.602399
1701.95, 0.602642
1702.51, 0.602884
1703.07, 0.603005
1703.63, 0.603309
1704.19, 0.603733
1704.75, 0.603794
1705.31, 0.603794
1705.88, 0.604279
1706.44, 0.604461
1707.0, 0.604764
1707.56, 0.605128
1708.12, 0.605310
1708.69, 0.605492
1709.25, 0.605492
1709.81, 0.605856
1710.38, 0.606402
1710.94, 0.606402
1711.51, 0.606463
1712.07, 0.606827
1712.64, 0.607251
1713.2, 0.607676
1713.77, 0.607797
1714.34, 0.608161
1714.9, 0.608585
1715.47, 0.608889
1716.04, 0.608889
1716.61, 0.609192
1717.18, 0.609677
1717.74, 0.609980
1718.31, 0.610344
1718.88, 0.610587
1719.45, 0.610648
1720.02, 0.611012
1720.59, 0.611315
1721.17, 0.611376
1721.74, 0.611618
1722.31, 0.611679
1722.88, 0.612043
1723.45, 0.612649
1724.03, 0.612589
1724.6, 0.612589
1725.18, 0.612952
1725.75, 0.613256
1726.33, 0.613438
1726.9, 0.613802
1727.48, 0.614105
1728.05, 0.614469
1728.63, 0.614651
1729.2, 0.614893
1729.78, 0.615015
1730.36, 0.615318
1730.94, 0.615560
1731.51, 0.615682
1732.09, 0.615864
1732.67, 0.615924
1733.25, 0.616288
1733.83, 0.616470
1734.41, 0.616713
1734.99, 0.616834
1735.57, 0.617198
1736.15, 0.617501
1736.73, 0.617562
1737.32, 0.617805
1737.9, 0.618047
1738.48, 0.617987
1739.07, 0.617865
1739.65, 0.618169
1740.23, 0.618532
1740.82, 0.618654
1741.4, 0.618714
1741.99, 0.618896
1742.57, 0.619260
1743.16, 0.619078
1743.74, 0.618896
1744.33, 0.619018
1744.92, 0.619200
1745.51, 0.619200
1746.09, 0.619321
1746.68, 0.619200
1747.27, 0.619078
1747.86, 0.619139
1748.45, 0.619139
1749.04, 0.618957
1749.63, 0.618896
1750.22, 0.618957
1750.81, 0.618957
1751.4, 0.618957
1751.99, 0.619018
1752.59, 0.618896
1753.18, 0.618714
1753.77, 0.618290
1754.37, 0.618169
1754.96, 0.618290
1755.56, 0.618290
1756.15, 0.618290
1756.74, 0.618472
1757.34, 0.618593
1757.94, 0.618472
1758.53, 0.618411
1759.13, 0.618351
1759.73, 0.618472
1760.32, 0.618654
1760.92, 0.618714
1761.52, 0.618351
1762.12, 0.618229
1762.72, 0.618593
1763.32, 0.619139
1763.92, 0.619624
1764.52, 0.619745
1765.12, 0.619745
1765.72, 0.619988
1766.32, 0.619685
1766.92, 0.619442
1767.53, 0.619624
1768.13, 0.619564
1768.73, 0.619745
1769.34, 0.619988
1769.94, 0.620049
1770.55, 0.620291
1771.15, 0.620534
1771.76, 0.620291
1772.36, 0.620049
1772.97, 0.620291
1773.57, 0.620291
1774.18, 0.620291
1774.79, 0.620413
1775.4, 0.620413
1776.0, 0.620231
1776.61, 0.620291
1777.22, 0.620109
1777.83, 0.619927
1778.44, 0.619988
1779.05, 0.619867
1779.66, 0.619745
1780.27, 0.619867
1780.88, 0.620291
1781.5, 0.620655
1782.11, 0.620291
1782.72, 0.620170
1783.33, 0.620595
1783.95, 0.620595
1784.56, 0.620473
1785.18, 0.621019
1785.79, 0.621383
1786.41, 0.621262
1787.02, 0.621201
1787.64, 0.621444
1788.26, 0.621686
1788.87, 0.621990
1789.49, 0.622293
1790.11, 0.622657
1790.73, 0.622960
1791.35, 0.623324
1791.96, 0.623506
1792.58, 0.623627
1793.21, 0.623991
1793.83, 0.624598
1794.45, 0.624780
1795.07, 0.625083
1795.69, 0.625386
1796.31, 0.625507
1796.93, 0.626114
1797.56, 0.626417
1798.18, 0.626478
1798.8, 0.627024
1799.43, 0.627388
1800.05, 0.627570
1800.68, 0.627994
1801.3, 0.628297
1801.93, 0.628601
1802.56, 0.629086
1803.18, 0.629511
1803.81, 0.629935
1804.44, 0.630420
1805.07, 0.630845
1805.7, 0.630966
1806.33, 0.631209
1806.95, 0.631512
1807.58, 0.631694
1808.22, 0.631876
1808.85, 0.632361
1809.48, 0.632846
1810.11, 0.633089
1810.74, 0.633210
1811.38, 0.633392
1812.01, 0.633514
1812.64, 0.633756
1813.28, 0.634059
1813.91, 0.634181
1814.55, 0.634363
1815.18, 0.634545
1815.82, 0.634787
1816.45, 0.635030
1817.09, 0.635272
1817.73, 0.635515
1818.36, 0.635879
1819.0, 0.636122
1819.64, 0.636061
1820.28, 0.636243
1820.92, 0.636667
1821.56, 0.636728
1822.2, 0.636910
1822.84, 0.637031
1823.48, 0.637213
1824.12, 0.637638
1824.76, 0.637941
1825.41, 0.637699
1826.05, 0.637395
1826.69, 0.637941
1827.34, 0.638244
1827.98, 0.638305
1828.63, 0.638548
1829.27, 0.638730
1829.92, 0.638851
1830.56, 0.638790
1831.21, 0.638669
1831.86, 0.639033
1832.5, 0.639397
1833.15, 0.639639
1833.8, 0.639700
1834.45, 0.639579
1835.1, 0.639518
1835.75, 0.639336
1836.4, 0.639700
1837.05, 0.639882
1837.7, 0.639639
1838.35, 0.639943
1839.01, 0.639821
1839.66, 0.639579
1840.31, 0.639761
1840.96, 0.639700
1841.62, 0.639397
1842.27, 0.639639
1842.93, 0.639882
1843.58, 0.639821
1844.24, 0.639821
1844.9, 0.639821
1845.55, 0.639457
1846.21, 0.638730
1846.87, 0.638244
1847.53, 0.638366
1848.18, 0.638366
1848.84, 0.638548
1849.5, 0.638487
1850.16, 0.638305
1850.82, 0.638063
1851.48, 0.637881
1852.14, 0.637153
1852.81, 0.636667
1853.47, 0.636364
1854.13, 0.636425
1854.8, 0.636425
1855.46, 0.635940
1856.12, 0.635151
1856.79, 0.635151
1857.45, 0.635333
1858.12, 0.634969
1858.79, 0.634241
1859.45, 0.633453
1860.12, 0.633392
1860.79, 0.633028
1861.46, 0.633028
1862.12, 0.632907
1862.79, 0.632543
1863.46, 0.632058
1864.13, 0.631815
1864.8, 0.631694
1865.48, 0.631512
1866.15, 0.631269
1866.82, 0.630663
1867.49, 0.629996
1868.16, 0.629571
1868.84, 0.629268
1869.51, 0.629147
1870.19, 0.628479
1870.86, 0.627752
1871.54, 0.627630
1872.21, 0.627266
1872.89, 0.626660
1873.56, 0.626296
1874.24, 0.625993
1874.92, 0.625265
1875.6, 0.624840
1876.28, 0.624416
1876.96, 0.623870
1877.64, 0.623142
1878.32, 0.622657
1879.0, 0.622293
1879.68, 0.621626
1880.36, 0.620837
1881.04, 0.620109
1881.73, 0.619260
1882.41, 0.618714
1883.09, 0.618047
1883.78, 0.617077
1884.46, 0.616167
1885.15, 0.615560
1885.83, 0.614833
1886.52, 0.613984
1887.21, 0.613134
1887.89, 0.612407
1888.58, 0.611679
1889.27, 0.610526
1889.96, 0.609374
1890.65, 0.608464
1891.34, 0.607554
1892.03, 0.606523
1892.72, 0.605371
1893.41, 0.604400
1894.1, 0.603430
1894.79, 0.602399
1895.49, 0.601125
1896.18, 0.599670
1896.87, 0.598517
1897.57, 0.597304
1898.26, 0.595848
1898.96, 0.594150
1899.65, 0.592998
1900.35, 0.591906
1901.05, 0.590572
1901.74, 0.588995
1902.44, 0.587175
1903.14, 0.585598
1903.84, 0.584143
1904.54, 0.582384
1905.24, 0.580807
1905.94, 0.579533
1906.64, 0.577774
1907.34, 0.576076
1908.04, 0.574317
1908.75, 0.572619
1909.45, 0.570738
1910.15, 0.568798
1910.86, 0.566675
1911.56, 0.564916
1912.27, 0.563278
1912.97, 0.561216
1913.68, 0.559093
1914.39, 0.557152
1915.09, 0.554969
1915.8, 0.552846
1916.51, 0.550784
1917.22, 0.548904
1917.93, 0.547023
1918.64, 0.544597
1919.35, 0.541868
1920.06, 0.539321
1920.77, 0.537076
1921.48, 0.535075
1922.19, 0.532891
1922.91, 0.530465
1923.62, 0.527675
1924.33, 0.525007
1925.05, 0.522277
1925.76, 0.519366
1926.48, 0.516273
1927.19, 0.513301
1927.91, 0.510207
1928.63, 0.507175
1929.35, 0.504021
1930.07, 0.500624
1930.78, 0.497228
1931.5, 0.493467
1932.22, 0.489646
1932.94, 0.485765
1933.66, 0.481701
1934.39, 0.477698
1935.11, 0.473755
1935.83, 0.469692
1936.55, 0.465567
1937.28, 0.461504
1938.0, 0.457379
1938.73, 0.453073
1939.45, 0.449009
1940.18, 0.445188
1940.9, 0.441792
1941.63, 0.438941
1942.36, 0.436333
1943.09, 0.434210
1943.81, 0.432754
1944.54, 0.432148
1945.27, 0.432330
1946.0, 0.433118
1946.73, 0.434999
1947.47, 0.437789
1948.2, 0.441246
1948.93, 0.445006
1949.66, 0.449494
1950.4, 0.454225
1951.13, 0.458956
1951.86, 0.463566
1952.6, 0.467993
1953.34, 0.472300
1954.07, 0.476242
1954.81, 0.479699
1955.55, 0.482732
1956.29, 0.485097
1957.02, 0.487220
1957.76, 0.489040
1958.5, 0.490131
1959.24, 0.490799
1959.98, 0.491223
1960.72, 0.491284
1961.47, 0.490799
1962.21, 0.490131
1962.95, 0.488979
1963.7, 0.487766
1964.44, 0.486310
1965.18, 0.484612
1965.93, 0.482550
1966.67, 0.480063
1967.42, 0.477758
1968.17, 0.475090
1968.92, 0.472118
1969.66, 0.469146
1970.41, 0.466174
1971.16, 0.463080
1971.91, 0.459866
1972.66, 0.456833
1973.41, 0.453801
1974.16, 0.451071
1974.92, 0.448585
1975.67, 0.446340
1976.42, 0.444218
1977.18, 0.442580
1977.93, 0.441306
1978.69, 0.440457
1979.44, 0.439972
1980.2, 0.439729
1980.95, 0.439669
1981.71, 0.439608
1982.47, 0.439911
1983.23, 0.440578
1983.99, 0.441185
1984.74, 0.442095
1985.51, 0.443247
1986.27, 0.444400
1987.03, 0.445249
1987.79, 0.446280
1988.55, 0.447614
1989.32, 0.449131
1990.08, 0.450525
1990.84, 0.451921
1991.61, 0.453558
1992.37, 0.455196
1993.14, 0.456712
1993.9, 0.458532
1994.67, 0.460351
1995.44, 0.461989
1996.21, 0.463626
1996.98, 0.465143
1997.75, 0.466720
1998.52, 0.468297
1999.29, 0.469631
2000.06, 0.470965
2000.83, 0.472239
2001.6, 0.473209
2002.38, 0.474362
2003.15, 0.475575
2003.93, 0.476424
2004.7, 0.477334
2005.48, 0.477880
2006.25, 0.478244
2007.03, 0.478789
2007.81, 0.479093
2008.58, 0.479153
2009.36, 0.479396
2010.14, 0.479639
2010.92, 0.479396
2011.7, 0.478911
2012.48, 0.478486
2013.26, 0.478244
2014.05, 0.477940
2014.83, 0.477273
2015.61, 0.476485
2016.4, 0.475393
2017.18, 0.474483
2017.97, 0.473573
2018.75, 0.472724
2019.54, 0.471754
2020.32, 0.470662
2021.11, 0.469631
2021.9, 0.468418
2022.69, 0.467326
2023.48, 0.466538
2024.27, 0.465628
2025.06, 0.464476
2025.85, 0.463626
2026.64, 0.463202
2027.44, 0.462595
2028.23, 0.462110
2029.02, 0.461928
2029.82, 0.461625
2030.61, 0.461807
2031.41, 0.462231
2032.2, 0.462595
2033.0, 0.463080
2033.8, 0.463930
2034.6, 0.464961
2035.4, 0.466053
2036.2, 0.467326
2037.0, 0.468842
2037.8, 0.470419
2038.6, 0.471936
2039.4, 0.473695
2040.2, 0.475636
2041.01, 0.477637
2041.81, 0.479578
2042.61, 0.481579
2043.42, 0.483460
2044.22, 0.485219
2045.03, 0.487038
2045.84, 0.488918
2046.65, 0.490799
2047.46, 0.492800
2048.26, 0.494741
2049.07, 0.496500
2049.88, 0.498138
2050.69, 0.499533
2051.51, 0.500928
2052.32, 0.502626
2053.13, 0.504021
2053.94, 0.505234
2054.76, 0.506629
2055.57, 0.507842
2056.39, 0.508994
2057.2, 0.510207
2058.02, 0.511299
2058.84, 0.512330
2059.66, 0.513119
2060.48, 0.514210
2061.29, 0.515060
2062.11, 0.515605
2062.94, 0.516091
2063.76, 0.516819
2064.58, 0.517243
2065.4, 0.517668
2066.22, 0.518213
2067.05, 0.518820
2067.87, 0.519245
2068.7, 0.519730
2069.52, 0.520154
2070.35, 0.520518
2071.18, 0.520700
2072.0, 0.521185
2072.83, 0.521671
2073.66, 0.521974
2074.49, 0.522216
2075.32, 0.522641
2076.15, 0.523005
2076.98, 0.523551
2077.82, 0.523975
2078.65, 0.524339
2079.48, 0.525067
2080.32, 0.525977
2081.15, 0.526583
2081.99, 0.527129
2082.83, 0.527978
2083.66, 0.528585
2084.5, 0.529131
2085.34, 0.530041
2086.18, 0.530829
2087.02, 0.531496
2087.86, 0.532285
2088.7, 0.533316
2089.54, 0.534044
2090.39, 0.534772
2091.23, 0.535560
2092.07, 0.536591
2092.92, 0.537501
2093.76, 0.538229
2094.61, 0.539017
2095.45, 0.539866
2096.3, 0.540837
2097.15, 0.541747
2098.0, 0.542596
2098.85, 0.543384
2099.7, 0.544355
2100.55, 0.545264
2101.4, 0.545992
2102.25, 0.546720
2103.1, 0.547569
2103.96, 0.548418
2104.81, 0.549146
2105.67, 0.550056
2106.52, 0.550966
2107.38, 0.551694
2108.24, 0.552361
2109.09, 0.553089
2109.95, 0.553756
2110.81, 0.554544
2111.67, 0.555333
2112.53, 0.556243
2113.39, 0.557031
2114.25, 0.557819
2115.12, 0.558547
2115.98, 0.559154
2116.84, 0.559882
2117.71, 0.560488
2118.58, 0.561095
2119.44, 0.561883
2120.31, 0.562490
2121.18, 0.563036
2122.04, 0.563703
2122.91, 0.564613
2123.78, 0.565219
2124.65, 0.565644
2125.52, 0.566007
2126.4, 0.566675
2127.27, 0.567160
2128.14, 0.567585
2129.02, 0.567948
2129.89, 0.568494
2130.77, 0.568980
2131.64, 0.569283
2132.52, 0.569586
2133.4, 0.569707
2134.27, 0.570011
2135.15, 0.570132
2136.03, 0.570193
2136.91, 0.570253
2137.79, 0.570374
2138.68, 0.570435
2139.56, 0.570435
2140.44, 0.570617
2141.33, 0.570556
2142.21, 0.570678
2143.1, 0.570678
2143.99, 0.570314
2144.87, 0.570011
2145.76, 0.570071
2146.65, 0.570011
2147.54, 0.569707
2148.43, 0.569465
2149.32, 0.569222
2150.21, 0.569283
2151.1, 0.569101
2151.99, 0.568616
2152.89, 0.568252
2153.78, 0.568009
2154.68, 0.567888
2155.57, 0.567827
2156.47, 0.567463
2157.37, 0.566917
2158.27, 0.566553
2159.16, 0.566311
2160.06, 0.566129
2160.96, 0.565704
2161.86, 0.565583
2162.77, 0.565462
2163.67, 0.565340
2164.57, 0.565098
2165.48, 0.565037
2166.38, 0.564976
2167.29, 0.564794
2168.2, 0.564734
2169.1, 0.564855
2170.01, 0.565037
2170.92, 0.565037
2171.83, 0.565158
2172.74, 0.565280
2173.65, 0.565401
2174.56, 0.565462
2175.47, 0.565401
2176.39, 0.565644
2177.3, 0.565886
2178.22, 0.566129
2179.13, 0.566311
2180.05, 0.566493
2180.96, 0.566493
2181.88, 0.566735
2182.8, 0.566857
2183.72, 0.567039
2184.64, 0.567039
2185.56, 0.567221
2186.48, 0.567281
2187.41, 0.567281
2188.33, 0.567221
2189.25, 0.567221
2190.18, 0.567281
2191.1, 0.567221
2192.03, 0.567160
2192.96, 0.566917
2193.89, 0.566614
2194.82, 0.566371
2195.74, 0.565947
2196.68, 0.565462
2197.61, 0.564855
2198.54, 0.564431
2199.47, 0.563945
2200.4, 0.563460
2201.34, 0.563036
2202.28, 0.562672
2203.21, 0.562611
2204.15, 0.562308
2205.08, 0.561823
2206.02, 0.561641
2206.96, 0.561580
2207.9, 0.561398
2208.84, 0.561155
2209.78, 0.561155
2210.73, 0.561095
2211.67, 0.561034
2212.61, 0.560913
2213.56, 0.560973
2214.5, 0.561095
2215.45, 0.561095
2216.4, 0.561034
2217.35, 0.560973
2218.3, 0.560973
2219.24, 0.560749
2220.2, 0.560636
2221.15, 0.560749
2222.1, 0.560692
2223.05, 0.560805
2224.0, 0.560805
2224.96, 0.560580
2225.91, 0.560018
2226.87, 0.559793
2227.83, 0.559231
2228.79, 0.558276
2229.74, 0.557433
2230.7, 0.556703
2231.66, 0.555804
2232.63, 0.554455
2233.59, 0.552713
2234.55, 0.550690
2235.51, 0.548780
2236.48, 0.546700
2237.44, 0.544228
2238.41, 0.542093
2239.38, 0.540070
2240.34, 0.537822
2241.31, 0.535911
2242.28, 0.534394
2243.25, 0.533046
2244.22, 0.532259
2245.19, 0.531978
2246.17, 0.532090
2247.14, 0.532484
2248.12, 0.534113
2249.09, 0.535799
2250.07, 0.538271
2251.04, 0.541531
2252.02, 0.544846
2253.0, 0.548105
2253.98, 0.551364
2254.96, 0.554399
2255.94, 0.557096
2256.92, 0.559906
2257.91, 0.562659
2258.89, 0.565075
2259.88, 0.566817
2260.86, 0.567998
2261.85, 0.569683
2262.83, 0.571257
2263.82, 0.572324
2264.81, 0.573392
2265.8, 0.574347
2266.79, 0.574909
2267.78, 0.575415
2268.78, 0.576202
2269.77, 0.576876
2270.76, 0.577663
2271.76, 0.578281
2272.75, 0.578506
2273.75, 0.578449
2274.75, 0.578562
2275.75, 0.578955
2276.75, 0.579180
2277.75, 0.579629
2278.75, 0.579629
2279.75, 0.579517
2280.75, 0.579629
2281.76, 0.579910
2282.76, 0.579967
2283.77, 0.579967
2284.77, 0.579573
2285.78, 0.579124
2286.79, 0.579011
2287.8, 0.578787
2288.81, 0.578506
2289.82, 0.578393
2290.83, 0.578056
2291.84, 0.577719
2292.86, 0.577326
2293.87, 0.577157
2294.89, 0.576820
2295.91, 0.576314
2296.92, 0.575864
2297.94, 0.575527
2298.96, 0.575190
2299.98, 0.574685
2301.0, 0.574460
2302.02, 0.574010
2303.04, 0.573167
2304.07, 0.572549
2305.09, 0.571987
2306.12, 0.571201
2307.15, 0.570470
2308.17, 0.569908
2309.2, 0.569234
2310.23, 0.568110
2311.26, 0.566986
2312.29, 0.566199
2313.32, 0.565188
2314.35, 0.564064
2315.39, 0.563053
2316.42, 0.561929
2317.46, 0.560636
2318.5, 0.559288
2319.53, 0.558051
2320.57, 0.556590
2321.61, 0.554961
2322.65, 0.553725
2323.69, 0.552376
2324.73, 0.550859
2325.78, 0.549229
2326.82, 0.547824
2327.86, 0.546307
2328.91, 0.544677
2329.96, 0.542823
2331.01, 0.541194
2332.05, 0.539564
2333.1, 0.537541
2334.15, 0.535799
2335.21, 0.533945
2336.26, 0.531697
2337.31, 0.529618
2338.36, 0.527258
2339.42, 0.525066
2340.48, 0.522706
2341.53, 0.520065
2342.59, 0.517592
2343.65, 0.514951
2344.71, 0.512029
2345.77, 0.508939
2346.83, 0.505511
2347.9, 0.502027
2348.96, 0.498487
2350.02, 0.494891
2351.09, 0.490901
2352.16, 0.486743
2353.23, 0.482472
2354.29, 0.478033
2355.36, 0.473256
2356.43, 0.468143
2357.51, 0.463085
2358.58, 0.457859
2359.65, 0.452465
2360.73, 0.446902
2361.8, 0.441002
2362.88, 0.435101
2363.96, 0.428864
2365.03, 0.422458
2366.11, 0.416108
2367.19, 0.409646
2368.27, 0.403015
2369.36, 0.396778
2370.44, 0.390653
2371.53, 0.384640
2372.61, 0.378796
2373.7, 0.374188
2374.78, 0.370086
2375.87, 0.366153
2376.96, 0.363287
2378.05, 0.361152
2379.14, 0.359859
2380.24, 0.359353
2381.33, 0.359803
2382.42, 0.361152
2383.52, 0.363006
2384.61, 0.365535
2385.71, 0.368681
2386.81, 0.372053
2387.91, 0.375481
2389.01, 0.379021
2390.11, 0.382898
2391.22, 0.386719
2392.32, 0.390597
2393.42, 0.394249
2394.53, 0.397902
2395.64, 0.401386
2396.74, 0.404308
2397.85, 0.407230
2398.96, 0.410433
2400.07, 0.413018
2401.18, 0.415209
2402.3, 0.417513
2403.41, 0.418974
2404.52, 0.420435
2405.64, 0.422121
2406.76, 0.423469
2407.88, 0.424425
2408.99, 0.425155
2410.11, 0.425324
2411.23, 0.425436
2412.36, 0.424987
2413.48, 0.424649
2414.6, 0.424256
2415.73, 0.423638
2416.85, 0.422514
2417.98, 0.421278
2419.11, 0.420098
2420.24, 0.419030
2421.37, 0.417682
2422.5, 0.415883
2423.64, 0.414029
2424.77, 0.412119
2425.9, 0.410320
2427.04, 0.408522
2428.18, 0.406555
2429.31, 0.404476
2430.45, 0.402229
2431.59, 0.400037
2432.73, 0.397677
2433.88, 0.395204
2435.02, 0.392788
2436.16, 0.390484
2437.31, 0.387956
2438.45, 0.385427
2439.6, 0.382898
2440.75, 0.380763
2441.9, 0.378796
2443.05, 0.376773
2444.2, 0.374919
2445.35, 0.373345
2446.51, 0.371997
2447.67, 0.370761
2448.82, 0.369637
2449.98, 0.369075
2451.14, 0.368457
2452.3, 0.368119
2453.46, 0.367895
2454.62, 0.367558
2455.78, 0.367389
2456.94, 0.367164
2458.11, 0.367389
2459.28, 0.367726
2460.44, 0.368513
2461.61, 0.369468
2462.78, 0.370648
2463.95, 0.372053
2465.12, 0.373458
2466.3, 0.375031
2467.47, 0.376886
2468.65, 0.378909
2469.82, 0.380651
2471.0, 0.382505
2472.18, 0.384472
2473.36, 0.386719
2474.54, 0.388686
2475.72, 0.389922
2476.9, 0.391440
2478.08, 0.393069
2479.27, 0.394137
2480.46, 0.395036
2481.64, 0.395485
2482.83, 0.395879
2484.02, 0.396047
2485.21, 0.395935
2486.4, 0.395542
2487.6, 0.394924
2488.79, 0.394193
2489.99, 0.393069
2491.18, 0.391664
2492.38, 0.390597
2493.58, 0.389304
2494.78, 0.387899
2495.98, 0.386607
2497.18, 0.385876
2498.39, 0.384921
2499.59, 0.383966
2500.8, 0.383573
2502.01, 0.383516
2503.21, 0.383797
2504.42, 0.384472
2505.63, 0.385483
2506.84, 0.386719
2508.06, 0.387787
2509.27, 0.389304
2510.49, 0.390878
2511.7, 0.392620
2512.92, 0.394530
2514.14, 0.396272
2515.36, 0.397733
2516.58, 0.399307
2517.8, 0.400936
2519.03, 0.402678
2520.25, 0.404083
2521.48, 0.405713
2522.7, 0.406949
2523.93, 0.407960
2525.16, 0.409196
2526.39, 0.410433
2527.62, 0.411332
2528.86, 0.412343
2530.09, 0.412737
2531.33, 0.413018
2532.56, 0.414029
2533.8, 0.415097
2535.04, 0.415434
2536.28, 0.416389
2537.52, 0.418187
2538.76, 0.419367
2540.01, 0.419986
2541.25, 0.420154
2542.5, 0.419929
2543.75, 0.421278
2544.99, 0.423301
2546.24, 0.424200
2547.49, 0.424256
2548.75, 0.425549
2550.0, 0.426167
2551.26, 0.426054
2552.51, 0.426223
2553.77, 0.428527
2555.03, 0.430831
2556.29, 0.431842
2557.55, 0.432741
2558.81, 0.432517
2560.08, 0.429594
2561.34, 0.427066
2562.61, 0.427403
2563.88, 0.428808
2565.14, 0.432123
2566.41, 0.435158
2567.68, 0.434708
2568.96, 0.432011
2570.23, 0.432910
2571.51, 0.434652
2572.78, 0.430887
2574.06, 0.432067
2575.34, 0.433921
2576.62, 0.432460
2577.9, 0.434596
2579.18, 0.436169
2580.47, 0.434034
2581.75, 0.433584
2583.04, 0.429819
2584.32, 0.430213
2585.61, 0.434090
2586.9, 0.432966
2588.2, 0.434034
2589.49, 0.436450
2590.78, 0.438585
2592.08, 0.437349
2593.37, 0.427010
2594.67, 0.418300
2595.97, 0.427628
2597.27, 0.437742
2598.57, 0.441451
2599.88, 0.441058
2601.18, 0.439203
2602.49, 0.437518
2603.79, 0.434315
2605.1, 0.430550
2606.41, 0.433135
2607.72, 0.436675
2609.03, 0.437012
2610.35, 0.437967
2611.66, 0.438642
2612.98, 0.437405
2614.3, 0.436956
2615.62, 0.431393
2616.94, 0.427853
2618.26, 0.431056
2619.58, 0.427796
2620.91, 0.428246
2622.23, 0.434202
2623.56, 0.435270
2624.89, 0.432460
2626.22, 0.427459
2627.55, 0.429707
2628.88, 0.428527
2630.21, 0.423863
2631.55, 0.428752
2632.89, 0.431336
2634.22, 0.431505
2635.56, 0.433809
2636.9, 0.434539
2638.25, 0.434764
2639.59, 0.434371
2640.93, 0.433697
2642.28, 0.433247
2643.63, 0.433303
2644.98, 0.431056
2646.33, 0.431056
2647.68, 0.432854
2649.03, 0.433416
2650.39, 0.432123
2651.74, 0.429089
2653.1, 0.428976
2654.46, 0.429988
2655.82, 0.429875
2657.18, 0.431280
2658.54, 0.429313
2659.9, 0.428133
2661.27, 0.428583
2662.64, 0.428302
2664.01, 0.421447
2665.38, 0.415153
2666.74, 0.415097
2668.12, 0.419030
2669.49, 0.412062
2670.87, 0.410657
2672.24, 0.419986
2673.62, 0.421053
2675.0, 0.415883
2676.38, 0.410320
2677.76, 0.409702
2679.15, 0.409477
2680.54, 0.412175
2681.92, 0.411388
2683.31, 0.408073
2684.7, 0.406050
2686.09, 0.403802
2687.48, 0.401948
2688.88, 0.400487
2690.27, 0.398239
2691.67, 0.393519
2693.07, 0.385764
2694.47, 0.381943
2695.87, 0.381662
2697.27, 0.381325
2698.67, 0.378628
2700.08, 0.373458
2701.49, 0.368681
2702.9, 0.366490
2704.31, 0.362950
2705.72, 0.358623
2707.13, 0.352891
2708.54, 0.345361
2709.96, 0.337270
2711.38, 0.333617
2712.8, 0.334179
2714.22, 0.331594
2715.64, 0.327099
2717.06, 0.321536
2718.49, 0.314455
2719.91, 0.305015
2721.34, 0.303610
2722.77, 0.302936
2724.2, 0.297597
2725.63, 0.297148
2727.07, 0.297541
2728.5, 0.295294
2729.94, 0.291866
2731.38, 0.288157
2732.82, 0.283493
2734.26, 0.277593
2735.7, 0.274558
2737.15, 0.271468
2738.59, 0.263826
2740.04, 0.257813
2741.49, 0.256408
2742.94, 0.256127
2744.39, 0.253823
2745.84, 0.250283
2747.3, 0.246518
2748.76, 0.242416
2750.21, 0.237977
2751.67, 0.233762
2753.14, 0.228930
2754.6, 0.221231
2756.06, 0.217410
2757.53, 0.217410
2759.0, 0.215106
2760.46, 0.210779
2761.94, 0.205104
2763.41, 0.201339
2764.88, 0.198923
2766.36, 0.195326
2767.83, 0.191281
2769.31, 0.187684
2770.79, 0.183919
2772.27, 0.181334
2773.76, 0.178581
2775.24, 0.174985
2776.73, 0.170939
2778.22, 0.167455
2779.71, 0.163634
2781.2, 0.159475
2782.69, 0.155654
2784.18, 0.152058
2785.68, 0.147394
2787.18, 0.143067
2788.68, 0.139976
2790.18, 0.136942
2791.68, 0.133402
2793.19, 0.129749
2794.69, 0.125816
2796.2, 0.122219
2797.71, 0.118904
2799.22, 0.115589
2800.73, 0.111768
2802.24, 0.107609
2803.76, 0.104350
2805.28, 0.101990
2806.8, 0.0992370
2808.32, 0.0963150
2809.84, 0.0936170
2811.36, 0.0908640
2812.89, 0.0881670
2814.42, 0.0856380
2815.94, 0.0832780
2817.48, 0.0808050
2819.01, 0.0783890
2820.54, 0.0763660
2822.08, 0.0743430
2823.61, 0.0724890
2825.15, 0.0706340
2826.69, 0.0688360
2828.23, 0.0671500
2829.78, 0.0656890
2831.32, 0.0640040
2832.87, 0.0623740
2834.42, 0.0609130
2835.97, 0.0596770
2837.52, 0.0584410
2839.08, 0.0574290
2840.63, 0.0562490
2842.19, 0.0551810
2843.75, 0.0540580
2845.31, 0.0528770
2846.87, 0.0518100
2848.44, 0.0506860
2850.0, 0.0495620
2851.57, 0.0484940
2853.14, 0.0473710
2854.71, 0.0463590
2856.28, 0.0456850
2857.86, 0.0448980
2859.43, 0.0438300
2861.01, 0.0428750
2862.59, 0.0419760
2864.17, 0.0411330
2865.76, 0.0402340
2867.34, 0.0393910
2868.93, 0.0384920
2870.52, 0.0377620
2872.11, 0.0369190
2873.7, 0.0360760
2875.29, 0.0352890
2876.89, 0.0343900
2878.49, 0.0337720
2880.08, 0.0332660
2881.69, 0.0325360
2883.29, 0.0318610
2884.89, 0.0314120
2886.5, 0.0311310
2888.11, 0.0309620
2889.72, 0.0308500
2891.33, 0.0307940
2892.94, 0.0309620
2894.56, 0.0311870
2896.17, 0.0316930
2897.79, 0.0322550
2899.42, 0.0327040
2901.04, 0.0332100
2902.66, 0.0339970
2904.29, 0.0345590
2905.92, 0.0349520
2907.55, 0.0354020
2909.18, 0.0359630
2910.81, 0.0364130
2912.45, 0.0368630
2914.08, 0.0372000
2915.72, 0.0375370
2917.36, 0.0378180
2919.01, 0.0382110
2920.65, 0.0385480
2922.3, 0.0389420
2923.94, 0.0393910
2925.59, 0.0398970
2927.25, 0.0402900
2928.9, 0.0406270
2930.56, 0.0411330
2932.21, 0.0414700
2933.87, 0.0418640
2935.53, 0.0422570
2937.2, 0.0425380
2938.86, 0.0429310
2940.53, 0.0431000
2942.2, 0.0433810
2943.87, 0.0437180
2945.54, 0.0439430
2947.22, 0.0441680
2948.89, 0.0442800
2950.57, 0.0445610
2952.25, 0.0448980
2953.93, 0.0450100
2955.62, 0.0451230
2957.3, 0.0452350
2958.99, 0.0451790
2960.68, 0.0452910
2962.37, 0.0454600
2964.07, 0.0454040
2965.76, 0.0451790
2967.46, 0.0450670
2969.16, 0.0450100
2970.86, 0.0447300
2972.56, 0.0443360
2974.27, 0.0442240
2975.98, 0.0440550
2977.69, 0.0437180
2979.4, 0.0433250
2981.11, 0.0432120
2982.83, 0.0429880
2984.54, 0.0427070
2986.26, 0.0423690
2987.98, 0.0422010
2989.71, 0.0419760
2991.43, 0.0418070
2993.16, 0.0415830
2994.89, 0.0414700
2996.62, 0.0413020
2998.35, 0.0411330
3000.09, 0.0409650
3001.83, 0.0407960
3003.57, 0.0408520
3005.31, 0.0410770
3007.05, 0.0411890
3008.79, 0.0412460
3010.54, 0.0414700
3012.29, 0.0415270
3014.04, 0.0415830
3015.8, 0.0416950
3017.55, 0.0418640
3019.31, 0.0420320
3021.07, 0.0419760
3022.83, 0.0419200
3024.59, 0.0420320
3026.36, 0.0420880
3028.13, 0.0418640
3029.9, 0.0418640
3031.67, 0.0419200
3033.44, 0.0419200
3035.22, 0.0420320
3037.0, 0.0421450
3038.78, 0.0423130
3040.56, 0.0424820
3042.34, 0.0426500
3044.13, 0.0429310
3045.92, 0.0432690
3047.71, 0.0437740
3049.5, 0.0442800
3051.3, 0.0448420
3053.09, 0.0454040
3054.89, 0.0461340
3056.69, 0.0469770
3058.5, 0.0478200
3060.3, 0.0486630
3062.11, 0.0498430
3063.92, 0.0509670
3065.73, 0.0519780
3067.55, 0.0531020
3069.36, 0.0543390
3071.18, 0.0555190
3073.0, 0.0566420
3074.82, 0.0578220
3076.65, 0.0589460
3078.48, 0.0600700
3080.31, 0.0611380
3082.14, 0.0621490
3083.97, 0.0633290
3085.8, 0.0643970
3087.64, 0.0653520
3089.48, 0.0662510
3091.33, 0.0670940
3093.17, 0.0678250
3095.02, 0.0687240
3096.87, 0.0695110
3098.72, 0.0702410
3100.57, 0.0709150
3102.43, 0.0715340
3104.28, 0.0720390
3106.14, 0.0724330
3108.01, 0.0728820
3109.87, 0.0733880
3111.74, 0.0738370
3113.61, 0.0741180
3115.48, 0.0745120
3117.35, 0.0750170
3119.23, 0.0753550
3121.1, 0.0755790
3122.98, 0.0759730
3124.87, 0.0763660
3126.75, 0.0765910
3128.64, 0.0767590
3130.53, 0.0771530
3132.42, 0.0777710
3134.31, 0.0781640
3136.21, 0.0786140
3138.11, 0.0791200
3140.01, 0.0796250
3141.91, 0.0800750
3143.82, 0.0806370
3145.73, 0.0812550
3147.64, 0.0817610
3149.55, 0.0824350
3151.46, 0.0829970
3153.38, 0.0837270
3155.3, 0.0846260
3157.22, 0.0854130
3159.14, 0.0860870
3161.07, 0.0868180
3163.0, 0.0877730
3164.93, 0.0886720
3166.86, 0.0896840
3168.8, 0.0907510
3170.74, 0.0918750
3172.68, 0.0929990
3174.62, 0.0941790
3176.56, 0.0954150
3178.51, 0.0967080
3180.46, 0.0979440
3182.42, 0.0992930
3184.37, 0.100754
3186.33, 0.102159
3188.29, 0.103507
3190.25, 0.104800
3192.21, 0.106261
3194.18, 0.107722
3196.15, 0.109183
3198.12, 0.110812
3200.09, 0.112442
3202.07, 0.113903
3204.05, 0.115420
3206.03, 0.117050
3208.02, 0.118679
3210.0, 0.119972
3211.99, 0.121320
3213.98, 0.122950
3215.98, 0.124411
3217.97, 0.125816
3219.97, 0.127221
3221.97, 0.128569
3223.98, 0.129806
3225.98, 0.130986
3227.99, 0.132278
3230.0, 0.133514
3232.02, 0.134694
3234.03, 0.135931
3236.05, 0.137111
3238.07, 0.138178
3240.1, 0.139246
3242.12, 0.140426
3244.15, 0.141494
3246.18, 0.142617
3248.22, 0.143798
3250.25, 0.145034
3252.29, 0.146270
3254.33, 0.147394
3256.38, 0.148462
3258.43, 0.149585
3260.47, 0.150709
3262.53, 0.151889
3264.58, 0.152957
3266.64, 0.153968
3268.7, 0.154980
3270.76, 0.156048
3272.82, 0.157171
3274.89, 0.158071
3276.96, 0.158970
3279.04, 0.160093
3281.11, 0.161105
3283.19, 0.162060
3285.27, 0.163072
3287.35, 0.164083
3289.44, 0.165151
3291.53, 0.166275
3293.62, 0.167455
3295.71, 0.168691
3297.81, 0.170040
3299.91, 0.171613
3302.01, 0.173299
3304.11, 0.174872
3306.22, 0.176446
3308.33, 0.178300
3310.44, 0.180211
3312.56, 0.182121
3314.68, 0.184032
3316.8, 0.186055
3318.92, 0.188302
3321.05, 0.190494
3323.18, 0.192685
3325.31, 0.194989
3327.44, 0.197349
3329.58, 0.199766
3331.72, 0.202182
3333.86, 0.204598
3336.01, 0.207015
3338.16, 0.209375
3340.31, 0.211847
3342.46, 0.214320
3344.61, 0.216848
3346.77, 0.219321
3348.94, 0.221625
3351.1, 0.223816
3353.27, 0.226008
3355.44, 0.228087
3357.61, 0.230166
3359.79, 0.232189
3361.97, 0.234100
3364.15, 0.235954
3366.33, 0.237864
3368.52, 0.239606
3370.71, 0.241405
3372.9, 0.243428
3375.1, 0.245169
3377.3, 0.246743
3379.5, 0.248372
3381.71, 0.249946
3383.91, 0.251463
3386.12, 0.253036
3388.34, 0.254666
3390.55, 0.256296
3392.77, 0.257981
3394.99, 0.259555
3397.22, 0.261128
3399.45, 0.262758
3401.68, 0.264219
3403.91, 0.265624
3406.15, 0.267085
3408.39, 0.268658
3410.63, 0.270232
3412.87, 0.271693
3415.12, 0.273210
3417.37, 0.274783
3419.63, 0.276413
3421.88, 0.278098
3424.14, 0.279840
3426.41, 0.281582
3428.67, 0.283268
3430.94, 0.284898
3433.21, 0.286584
3435.49, 0.288269
3437.77, 0.290011
3440.05, 0.291753
3442.33, 0.293439
3444.62, 0.295013
3446.91, 0.296474
3449.2, 0.298216
3451.5, 0.300126
3453.8, 0.301980
3456.1, 0.303666
3458.41, 0.305408
3460.72, 0.307094
3463.03, 0.308667
3465.34, 0.310353
3467.66, 0.311927
3469.98, 0.313444
3472.31, 0.314905
3474.63, 0.316534
3476.96, 0.317995
3479.3, 0.319456
3481.64, 0.320861
3483.97, 0.322041
3486.32, 0.323221
3488.66, 0.324401
3491.01, 0.325581
3493.36, 0.326705
3495.72, 0.327773
3498.08, 0.328953
3500.44, 0.330245
3502.81, 0.331594
3505.18, 0.332774
3507.55, 0.334010
3509.92, 0.335415
3512.3, 0.336764
3514.68, 0.338000
3517.06, 0.339293
3519.45, 0.340641
3521.84, 0.341821
3524.24, 0.342833
3526.64, 0.343957
3529.04, 0.345193
3531.44, 0.346598
3533.85, 0.348115
3536.26, 0.349407
3538.67, 0.350756
3541.09, 0.352273
3543.51, 0.353622
3545.93, 0.354914
3548.36, 0.356375
3550.79, 0.357780
3553.22, 0.359016
3555.66, 0.360252
3558.1, 0.361433
3560.54, 0.362388
3562.99, 0.363512
3565.44, 0.364636
3567.9, 0.365759
3570.35, 0.366883
3572.81, 0.368063
3575.28, 0.369300
3577.75, 0.370592
3580.22, 0.371884
3582.69, 0.373233
3585.17, 0.374694
3587.65, 0.376211
3590.14, 0.377728
3592.62, 0.379246
3595.11, 0.380763
3597.61, 0.382449
3600.11, 0.383910
3602.61, 0.385202
3605.11, 0.386607
3607.62, 0.388068
3610.14, 0.389360
3612.65, 0.390540
3615.17, 0.391664
3617.69, 0.392844
3620.22, 0.394024
3622.75, 0.395092
3625.28, 0.396047
3627.82, 0.397003
3630.36, 0.397902
3632.9, 0.398745
3635.45, 0.399587
3638.0, 0.400262
3640.56, 0.401105
3643.12, 0.401891
3645.68, 0.402566
3648.24, 0.403184
3650.81, 0.403746
3653.39, 0.404251
3655.96, 0.404701
3658.54, 0.405094
3661.13, 0.405544
3663.71, 0.405825
3666.3, 0.405881
3668.9, 0.406162
3671.5, 0.406218
3674.1, 0.406218
3676.7, 0.406331
3679.31, 0.406668
3681.93, 0.407230
3684.54, 0.407904
3687.17, 0.408747
3689.79, 0.409534
3692.42, 0.410320
3695.05, 0.411107
3697.69, 0.411613
3700.32, 0.412175
3702.97, 0.412680
3705.61, 0.412905
3708.27, 0.413130
3710.92, 0.413523
3713.58, 0.413692
3716.24, 0.413804
3718.91, 0.414198
3721.58, 0.414366
3724.25, 0.414535
3726.93, 0.414816
3729.61, 0.415041
3732.29, 0.415209
3734.98, 0.415265
3737.67, 0.415321
3740.37, 0.415378
3743.07, 0.415434
3745.78, 0.415546
3748.49, 0.415546
3751.2, 0.415546
3753.91, 0.415602
3756.63, 0.415602
3759.36, 0.415602
3762.09, 0.415434
3764.82, 0.415321
3767.55, 0.415265
3770.29, 0.415321
3773.04, 0.415378
3775.78, 0.415265
3778.54, 0.415209
3781.29, 0.415041
3784.05, 0.414928
3786.82, 0.414760
3789.59, 0.414591
3792.36, 0.414422
3795.13, 0.414198
3797.92, 0.413804
3800.7, 0.413411
3803.49, 0.413018
3806.28, 0.412568
3809.08, 0.412119
3811.88, 0.411557
3814.68, 0.410826
3817.49, 0.410152
3820.31, 0.409477
3823.12, 0.408859
3825.94, 0.408129
3828.77, 0.407286
3831.6, 0.406443
3834.43, 0.405656
3837.27, 0.404813
3840.11, 0.403858
3842.96, 0.402959
3845.81, 0.402116
3848.67, 0.401105
3851.53, 0.400149
3854.39, 0.399082
3857.26, 0.398070
3860.13, 0.397115
3863.01, 0.396216
3865.89, 0.395204
3868.77, 0.394249
3871.66, 0.393182
3874.55, 0.392170
3877.45, 0.391102
3880.35, 0.389978
3883.26, 0.388911
3886.17, 0.387731
3889.09, 0.386607
3892.01, 0.385427
3894.93, 0.384191
3897.86, 0.382898
3900.79, 0.381662
3903.73, 0.380370
3906.67, 0.379021
3909.62, 0.377785
3912.57, 0.376155
3915.52, 0.374582
3918.48, 0.373008
3921.45, 0.371322
3924.42, 0.369356
3927.39, 0.367108
3930.37, 0.364579
3933.35, 0.361770
3936.34, 0.358735
3939.33, 0.356038
3942.32, 0.354689
3945.32, 0.354296
3948.33, 0.354071
3951.34, 0.353453
3954.35, 0.352273
3957.37, 0.350700
3960.39, 0.348958
3963.42, 0.346991
3966.45, 0.344743
3969.49, 0.342327
3972.53, 0.339742
3975.58, 0.337157
3978.63, 0.334291
3981.68, 0.331257
3984.75, 0.327942
3987.81, 0.324514
3990.88, 0.320917
3993.95, 0.317096
3997.03, 0.313107
4000.12, 0.308892
4003.21, 0.304509
4006.3, 0.300014
4009.4, 0.295350
4012.5, 0.290573
4015.61, 0.285797
4018.72, 0.280908
4021.84, 0.275907
4024.96, 0.270850
4028.09, 0.265961
4031.22, 0.261241
4034.36, 0.256577
4037.5, 0.252025
4040.65, 0.247867
4043.8, 0.243989
4046.96, 0.240393
4050.12, 0.237246
4053.29, 0.234493
4056.46, 0.232077
4059.64, 0.229997
4062.82, 0.228536
4066.0, 0.227413
4069.19, 0.226738
4072.39, 0.226513
4075.59, 0.226851
4078.8, 0.227637
4082.01, 0.228874
4085.23, 0.230447
4088.45, 0.232470
4091.68, 0.234774
4094.91, 0.237302
4098.15, 0.239887
4101.39, 0.242585
4104.63, 0.245450
4107.89, 0.248372
4111.14, 0.251351
4114.41, 0.254273
4117.67, 0.257195
4120.95, 0.260004
4124.23, 0.262477
4127.51, 0.264725
4130.8, 0.266916
4134.09, 0.268883
4137.39, 0.270512
4140.7, 0.271861
4144.01, 0.272760
4147.32, 0.273434
4150.64, 0.273772
4153.97, 0.273659
4157.3, 0.273378
4160.64, 0.272760
4163.98, 0.271749
4167.33, 0.270569
4170.68, 0.269220
4174.04, 0.267647
4177.4, 0.265961
4180.77, 0.264106
4184.14, 0.262140
4187.52, 0.260061
4190.91, 0.257981
4194.3, 0.255846
4197.69, 0.253711
4201.1, 0.251632
4204.5, 0.249496
4207.92, 0.247361
4211.34, 0.245169
4214.76, 0.243034
4218.19, 0.241067
4221.62, 0.239382
4225.06, 0.238145
4228.51, 0.237302
4231.96, 0.236741
4235.42, 0.236291
4238.88, 0.235841
4242.35, 0.235336
4245.83, 0.234718
4249.31, 0.233931
4252.79, 0.232976
4256.28, 0.231739
4259.78, 0.229829
4263.29, 0.227862
4266.79, 0.226008
4270.31, 0.224378
4273.83, 0.222973
4277.35, 0.221568
4280.89, 0.220051
4284.42, 0.218365
4287.97, 0.216567
4291.52, 0.214713
4295.07, 0.212690
4298.63, 0.210892
4302.2, 0.209431
4305.78, 0.208251
4309.35, 0.207464
4312.94, 0.207296
4316.53, 0.207520
4320.13, 0.207914
4323.73, 0.208251
4327.34, 0.208532
4330.96, 0.208532
4334.58, 0.208251
4338.21, 0.207745
4341.84, 0.207015
4345.48, 0.206228
4349.12, 0.205385
4352.77, 0.204711
4356.43, 0.204486
4360.1, 0.204711
4363.76, 0.205104
4367.44, 0.205666
4371.12, 0.206284
4374.81, 0.206958
4378.51, 0.207633
4382.21, 0.208026
4385.92, 0.208082
4389.63, 0.207914
4393.35, 0.207520
4397.08, 0.206958
4400.81, 0.206059
4404.55, 0.204992
4408.29, 0.203755
4412.04, 0.202070
4415.8, 0.200103
4419.57, 0.198024
4423.34, 0.195945
4427.12, 0.193809
4430.9, 0.191730
4434.69, 0.189539
4438.49, 0.187291
4442.29, 0.185043
4446.1, 0.182964
4449.92, 0.181166
4453.74, 0.179649
4457.57, 0.178412
4461.41, 0.177345
4465.25, 0.176446
4469.1, 0.175715
4472.95, 0.175097
4476.82, 0.174647
4480.69, 0.174254
4484.56, 0.173861
4488.44, 0.173524
4492.33, 0.173186
4496.23, 0.172737
4500.13, 0.172119
4504.04, 0.171107
4507.96, 0.169702
4511.88, 0.167792
4515.81, 0.165544
4519.75, 0.163521
4523.69, 0.161948
4527.65, 0.161105
4531.6, 0.160993
4535.57, 0.161498
4539.54, 0.162116
4543.52, 0.162735
4547.5, 0.163353
4551.5, 0.163802
4555.5, 0.164083
4559.5, 0.164364
4563.52, 0.164364
4567.54, 0.164083
4571.56, 0.163577
4575.6, 0.162847
4579.64, 0.162285
4583.69, 0.161948
4587.75, 0.161667
4591.81, 0.161049
4595.88, 0.160150
4599.96, 0.159082
4604.04, 0.157677
4608.14, 0.156216
4612.24, 0.154643
4616.34, 0.153013
4620.46, 0.151046
4624.58, 0.149023
4628.71, 0.147001
4632.84, 0.145259
4636.99, 0.144022
4641.14, 0.143292
4645.3, 0.142730
4649.47, 0.142280
4653.64, 0.141775
4657.82, 0.141437
4662.01, 0.141381
4666.21, 0.142168
4670.41, 0.143854
4674.62, 0.146326
4678.84, 0.149023
4683.07, 0.151496
4687.3, 0.153350
4691.54, 0.154530
4695.79, 0.155092
4700.05, 0.155429
4704.31, 0.155261
4708.59, 0.154643
4712.87, 0.153631
4717.15, 0.153294
4721.45, 0.154643
4725.76, 0.157902
4730.07, 0.162116
4734.39, 0.166612
4738.72, 0.170826
4743.05, 0.174647
4747.39, 0.177907
4751.75, 0.180548
4756.1, 0.182571
4760.47, 0.184144
4764.85, 0.185549
4769.23, 0.186954
4773.62, 0.188134
4778.02, 0.188864
4782.43, 0.188864
4786.85, 0.188302
4791.27, 0.187853
4795.7, 0.187965
4800.14, 0.189370
4804.59, 0.191955
4809.05, 0.194989
4813.51, 0.197743
4817.99, 0.199597
4822.47, 0.200047
4826.96, 0.199148
4831.46, 0.197181
4835.96, 0.194427
4840.48, 0.190719
4845.0, 0.185998
4849.54, 0.180829
4854.08, 0.176558
4858.63, 0.175322
4863.18, 0.178974
4867.75, 0.187628
4872.33, 0.200047
4876.91, 0.213870
4881.5, 0.227075
4886.1, 0.238763
4890.71, 0.249047
4895.33, 0.257532
4899.96, 0.264106
4904.59, 0.268827
4909.24, 0.271693
4913.89, 0.272929
4918.55, 0.273434
4923.22, 0.275233
4927.9, 0.279728
4932.59, 0.285966
4937.29, 0.292259
4942.0, 0.297541
4946.71, 0.301868
4951.44, 0.305240
4956.17, 0.307881
4960.91, 0.310185
4965.67, 0.312039
4970.43, 0.313050
4975.2, 0.313612
4979.98, 0.313893
4984.76, 0.314455
4989.56, 0.315467
4994.37, 0.316647
4999.18, 0.317490
5004.01, 0.317995
5008.84, 0.317995
5013.69, 0.317265
5018.54, 0.315804
5023.4, 0.314287
5028.28, 0.311870
5033.16, 0.307768
5038.05, 0.301362
5042.95, 0.291585
5047.86, 0.276694
5052.78, 0.255734
5057.71, 0.231739
5062.65, 0.216062
5067.6, 0.219152
5072.56, 0.236516
5077.53, 0.256183
5082.5, 0.272198
5087.49, 0.284280
5092.49, 0.293102
5097.5, 0.299564
5102.51, 0.304734
5107.54, 0.308667
5112.58, 0.311814
5117.62, 0.314399
5122.68, 0.316534
5127.75, 0.318276
5132.82, 0.319906
5137.91, 0.321198
5143.01, 0.321985
5148.12, 0.322772
5153.23, 0.324401
5158.36, 0.325525
5163.5, 0.326312
5168.65, 0.326874
5173.81, 0.327492
5178.98, 0.328054
5184.15, 0.328616
5189.34, 0.328897
5194.54, 0.328841
5199.75, 0.328503
5204.98, 0.328841
5210.21, 0.328166
5215.45, 0.328391
5220.7, 0.329852
5225.96, 0.330245
5231.23, 0.330077
5236.52, 0.329908
5241.81, 0.330021
5247.12, 0.330133
5252.44, 0.329908
5257.76, 0.329627
5263.1, 0.329571
5268.45, 0.329403
5273.81, 0.328897
5279.18, 0.328672
5284.56, 0.328391
5289.95, 0.327267
5295.36, 0.327211
5300.77, 0.327717
5306.2, 0.327380
5311.63, 0.326986
5317.08, 0.326481
5322.54, 0.325975
5328.01, 0.325413
5333.49, 0.324851
5338.98, 0.324064
5344.49, 0.322041
5350.0, 0.319737
5355.53, 0.320131
5361.07, 0.320749
5366.62, 0.320299
5372.18, 0.319400
5377.75, 0.318557
5383.34, 0.317658
5388.93, 0.316872
5394.54, 0.315692
5400.16, 0.314792
5405.79, 0.313556
5411.44, 0.312095
5417.09, 0.308948
5422.76, 0.306476
5428.43, 0.308274
5434.12, 0.309005
5439.83, 0.307881
5445.54, 0.307094
5451.26, 0.306588
5457.0, 0.305127
5462.75, 0.302655
5468.52, 0.302767
5474.29, 0.302711
5480.08, 0.301924
5485.88, 0.302655
5491.69, 0.302542
5497.51, 0.301868
5503.35, 0.301194
5509.2, 0.300744
5515.06, 0.299620
5520.93, 0.298384
5526.82, 0.297935
5532.71, 0.297878
5538.63, 0.297429
5544.55, 0.296305
5550.49, 0.294619
5556.44, 0.294001
5562.4, 0.294001
5568.37, 0.293046
5574.36, 0.289618
5580.36, 0.287427
5586.37, 0.288944
5592.4, 0.289169
5598.44, 0.287370
5604.49, 0.286078
5610.56, 0.285291
5616.63, 0.283886
5622.73, 0.283268
5628.83, 0.281807
5634.95, 0.278323
5641.08, 0.273828
5647.23, 0.274334
5653.39, 0.274390
5659.56, 0.273996
5665.74, 0.273378
5671.94, 0.269894
5678.15, 0.267647
5684.38, 0.266972
5690.62, 0.264387
5696.87, 0.263320
5703.14, 0.260623
5709.42, 0.256015
5715.72, 0.254610
5722.03, 0.254160
5728.35, 0.252980
5734.69, 0.250733
5741.03, 0.247698
5747.4, 0.244214
5753.78, 0.242922
5760.17, 0.237359
5766.58, 0.230728
5773.0, 0.232133
5779.44, 0.232077
5785.88, 0.230054
5792.35, 0.227469
5798.83, 0.224210
5805.32, 0.220950
5811.83, 0.216343
5818.35, 0.208757
5824.89, 0.204542
5831.45, 0.203474
5838.01, 0.201620
5844.59, 0.198248
5851.19, 0.193528
5857.8, 0.187853
5864.43, 0.182458
5871.07, 0.177569
5877.73, 0.168354
5884.4, 0.163128
5891.09, 0.159756
5897.79, 0.153912
5904.5, 0.151777
5911.23, 0.147282
5917.98, 0.141156
5924.75, 0.134807
5931.53, 0.126378
5938.32, 0.118960
5945.13, 0.116094
5951.96, 0.111543
5958.8, 0.105924
5965.65, 0.0988430
5972.53, 0.0932800
5979.42, 0.0883910
5986.32, 0.0825470
5993.24, 0.0774900
6000.18, 0.0736130
6007.13, 0.0686680
6014.1, 0.0637790
6021.08, 0.0597890
6028.09, 0.0560240
6035.1, 0.0519220
6042.14, 0.0470900
6049.19, 0.0424260
6056.25, 0.0407960
6063.34, 0.0389980
6070.44, 0.0364690
6077.55, 0.0349520
6084.69, 0.0342210
6091.84, 0.0333790
6099.0, 0.0328170
6106.19, 0.0322550
6113.39, 0.0321990
6120.61, 0.0332100
6127.84, 0.0345020
6135.09, 0.0354580
6142.36, 0.0366380
6149.65, 0.0380990
6156.95, 0.0395600
6164.27, 0.0415270
6171.61, 0.0438300
6178.97, 0.0453480
6186.34, 0.0473140
6193.73, 0.0506300
6201.14, 0.0536080
6208.57, 0.0562490
6216.01, 0.0588340
6223.47, 0.0615310
6230.95, 0.0641160
6238.45, 0.0668130
6245.97, 0.0695670
6253.5, 0.0722640
6261.06, 0.0746800
6268.63, 0.0770400
6276.21, 0.0792880
6283.82, 0.0813670
6291.45, 0.0831650
6299.1, 0.0847950
6306.76, 0.0862560
6314.44, 0.0874920
6322.14, 0.0885600
6329.86, 0.0895710
6337.6, 0.0894590
6345.35, 0.0899650
6353.13, 0.0927740
6360.92, 0.0941230
6368.74, 0.0942350
6376.57, 0.0956960
6384.43, 0.0972140
6392.3, 0.0981690
6400.19, 0.0983380
6408.1, 0.0956960
6416.03, 0.0951910
6423.98, 0.0984500
6431.95, 0.100079
6439.94, 0.101372
6447.95, 0.101934
6455.98, 0.102159
6464.03, 0.102215
6472.1, 0.101372
6480.19, 0.100192
6488.31, 0.0983380
6496.44, 0.0984500
6504.59, 0.101147
6512.76, 0.101597
6520.95, 0.100529
6529.16, 0.101260
6537.4, 0.101091
6545.65, 0.0999670
6553.92, 0.0988430
6562.22, 0.0977190
6570.54, 0.0956960
6578.88, 0.0956960
6587.23, 0.0957530
6595.61, 0.0954150
6604.02, 0.0955280
6612.44, 0.0948540
6620.89, 0.0937300
6629.35, 0.0912010
6637.84, 0.0894030
6646.35, 0.0911450
6654.88, 0.0924370
6663.44, 0.0917070
6672.01, 0.0903020
6680.61, 0.0891780
6689.23, 0.0894030
6697.88, 0.0891780
6706.54, 0.0875480
6715.23, 0.0865930
6723.94, 0.0863120
6732.67, 0.0859190
6741.42, 0.0851880
6750.2, 0.0841210
6759.0, 0.0831650
6767.82, 0.0818730
6776.67, 0.0804120
6785.54, 0.0786700
6794.44, 0.0777710
6803.35, 0.0781080
6812.29, 0.0774900
6821.26, 0.0761410
6830.24, 0.0754110
6839.25, 0.0751860
6848.29, 0.0737810
6857.35, 0.0712530
6866.43, 0.0702410
6875.54, 0.0712530
6884.67, 0.0711400
6893.82, 0.0705220
6903.0, 0.0693980
6912.2, 0.0686680
6921.43, 0.0679370
6930.69, 0.0668700
6939.96, 0.0656890
6949.27, 0.0641160
6958.59, 0.0621490
6967.95, 0.0615870
6977.33, 0.0610820
6986.73, 0.0599580
6996.16, 0.0587780
7005.61, 0.0577100
7015.09, 0.0564180
7024.6, 0.0551810
7034.13, 0.0539450
7043.69, 0.0522590
7053.27, 0.0514730
7062.88, 0.0511360
7072.52, 0.0503490
7082.18, 0.0494500
7091.87, 0.0484380
7101.58, 0.0475390
7111.32, 0.0466400
7121.09, 0.0457970
7130.88, 0.0450100
7140.71, 0.0439430
7150.56, 0.0431000
7160.43, 0.0423690
7170.33, 0.0414140
7180.27, 0.0409650
7190.23, 0.0402900
7200.21, 0.0393350
7210.23, 0.0384920
7220.27, 0.0378740
7230.34, 0.0369750
7240.44, 0.0361880
7250.56, 0.0354580
7260.72, 0.0346150
7270.9, 0.0336600
7281.12, 0.0329290
7291.36, 0.0321420
7301.63, 0.0312430
7311.93, 0.0303440
7322.25, 0.0295010
7332.61, 0.0284340
7343.0, 0.0275350
7353.41, 0.0268040
7363.86, 0.0260170
7374.33, 0.0252310
7384.83, 0.0245000
7395.37, 0.0237700
7405.93, 0.0231510
7416.53, 0.0225330
7427.15, 0.0219150
7437.81, 0.0212410
7448.5, 0.0205670
7459.22, 0.0198360
7469.96, 0.0191620
7480.74, 0.0185440
7491.55, 0.0179260
7502.39, 0.0173070
7513.27, 0.0168020
7524.17, 0.0161840
7535.11, 0.0155650
7546.08, 0.0150030
7557.08, 0.0145540
7568.11, 0.0139920
7579.17, 0.0134860
7590.27, 0.0130370
7601.4, 0.0125870
7612.56, 0.0120250
7623.76, 0.0116320
7634.98, 0.0111260
7646.24, 0.0106200
7657.54, 0.0101710
7668.87, 0.00983400
7680.23, 0.00938400
7691.62, 0.00904700
7703.05, 0.00876600
7714.51, 0.00848500
7726.01, 0.00820400
7737.54, 0.00803600
7749.11, 0.00786700
7760.71, 0.00792300
7772.35, 0.00797900
7784.02, 0.00809200
7795.72, 0.00826000
7807.46, 0.00848500
7819.23, 0.00882200
7831.04, 0.00927200
7842.89, 0.00983400
7854.77, 0.0106200
7866.69, 0.0116880
7878.65, 0.0128680
7890.64, 0.0144980
7902.67, 0.0165770
7914.74, 0.0188810
7926.84, 0.0215780
7938.98, 0.0248930
7951.16, 0.0289390
7963.37, 0.0334350
7975.62, 0.0387730
7987.91, 0.0450100
8000.24, 0.0519780
8012.6, 0.0596770
8025.01, 0.0683310
8037.45, 0.0778270
8049.93, 0.0880540
8062.45, 0.0981690
8075.01, 0.107385
8087.61, 0.114690
8100.24, 0.119803
8112.91, 0.122557
8125.63, 0.123287
8138.39, 0.122725
8151.18, 0.121770
8164.02, 0.121039
8176.9, 0.120534
8189.81, 0.119859
8202.77, 0.118904
8215.77, 0.117443
8228.82, 0.115926
8241.9, 0.114633
8255.02, 0.113791
8268.19, 0.113397
8281.39, 0.113734
8294.65, 0.115308
8307.94, 0.118230
8321.28, 0.122276
8334.66, 0.127389
8348.08, 0.133514
8361.54, 0.140201
8375.05, 0.147001
8388.6, 0.153519
8402.2, 0.159082
8415.84, 0.162903
8429.52, 0.165376
8443.25, 0.169759
8457.02, 0.178356
8470.84, 0.187572
8484.7, 0.194203
8498.61, 0.198698
8512.57, 0.201789
8526.57, 0.203755
8540.62, 0.204542
8554.71, 0.203868
8568.85, 0.201508
8583.04, 0.197687
8597.27, 0.193191
8611.55, 0.188471
8625.88, 0.183751
8640.26, 0.178525
8654.68, 0.172962
8669.16, 0.167061
8683.68, 0.160936
8698.25, 0.154755
8712.87, 0.148574
8727.53, 0.142224
8742.25, 0.135312
8757.02, 0.127783
8771.83, 0.119354
8786.7, 0.109913
8801.62, 0.0995180
8816.59, 0.0885600
8831.61, 0.0779400
8846.68, 0.0693420
8861.8, 0.0638350
8876.97, 0.0616440
8892.2, 0.0625430
8907.48, 0.0655210
8922.81, 0.0700160
8938.2, 0.0760850
8953.63, 0.0842330
8969.13, 0.0949100
8984.67, 0.107497
9000.27, 0.120253
9015.92, 0.131323
9031.63, 0.140145
9047.39, 0.146776
9063.21, 0.151271
9079.08, 0.153856
9095.01, 0.154924
9111.0, 0.154699
9127.04, 0.153463
9143.13, 0.151721
9159.28, 0.149529
9175.49, 0.146720
9191.76, 0.143404
9208.09, 0.139695
9224.47, 0.135874
9240.92, 0.131772
9257.42, 0.127389
9273.98, 0.122838
9290.6, 0.118005
9307.28, 0.112948
9324.02, 0.107778
9340.82, 0.103226
9357.68, 0.0996860
9374.6, 0.0969330
9391.58, 0.0952470
9408.62, 0.0944040
9425.73, 0.0939540
9442.9, 0.0938980
9460.13, 0.0941230
9477.42, 0.0946290
9494.78, 0.0951910
9512.2, 0.0957530
9529.69, 0.0962580
9547.24, 0.0966520
9564.86, 0.0969890
9582.54, 0.0972700
9600.28, 0.0976630
9618.1, 0.0980000
9635.97, 0.0983940
9653.92, 0.0986180
9671.93, 0.0985620
9690.01, 0.0982810
9708.16, 0.0976630
9726.37, 0.0968770
9744.65, 0.0954150
9763.0, 0.0926620
9781.43, 0.0878290
9799.92, 0.0803560
9818.48, 0.0732750
9837.1, 0.0718710
9855.8, 0.0763100
9874.58, 0.0814230
9893.42, 0.0845140
9912.34, 0.0855820
9931.33, 0.0850200
9950.39, 0.0829410
9969.52, 0.0795690
9988.74, 0.0750170
10008.0, 0.0687800
10027.4, 0.0608570
10046.8, 0.0531580
10066.3, 0.0514730
10085.9, 0.0593960
10105.6, 0.0676000
10125.3, 0.0697350
10145.1, 0.0705780
10165.0, 0.0737250
10185.0, 0.0781080
10205.0, 0.0826040
10225.2, 0.0867060
10245.4, 0.0907510
10265.7, 0.0946290
10286.0, 0.0978880
10306.5, 0.100304
10327.0, 0.101934
10347.6, 0.102777
10368.3, 0.102327
10389.1, 0.102215
10409.9, 0.104406
10430.9, 0.106935
10451.9, 0.108677
10473.0, 0.109857
10494.2, 0.110925
10515.5, 0.111824
10536.9, 0.112611
10558.4, 0.113566
10579.9, 0.114521
10601.5, 0.115476
10623.3, 0.116432
10645.1, 0.117275
10667.0, 0.117893
10689.0, 0.118342
10711.1, 0.118904
10733.2, 0.119185
10755.5, 0.119410
10777.9, 0.119747
10800.3, 0.119803
10822.9, 0.119747
10845.5, 0.119466
10868.2, 0.119129
10891.1, 0.118623
10914.0, 0.117949
10937.0, 0.117218
10960.2, 0.116544
10983.4, 0.115814
11006.7, 0.114690
11030.1, 0.113341
11053.6, 0.112161
11077.3, 0.110812
11101.0, 0.109239
11124.8, 0.107722
11148.7, 0.106261
11172.7, 0.104687
11196.9, 0.103002
11221.1, 0.101260
11245.4, 0.0998550
11269.9, 0.0986750
11294.4, 0.0974950
11319.1, 0.0964830
11343.9, 0.0954720
11368.8, 0.0942920
11393.7, 0.0932240
11418.8, 0.0918190
11444.0, 0.0904140
11469.4, 0.0891220
11494.8, 0.0876610
11520.3, 0.0862000
11546.0, 0.0849070
11571.8, 0.0831650
11597.7, 0.0814800
11623.7, 0.0799060
11649.8, 0.0784450
11676.0, 0.0770970
11702.4, 0.0754670
11728.9, 0.0740060
11755.5, 0.0724890
11782.2, 0.0708590
11809.0, 0.0693980
11836.0, 0.0679930
11863.0, 0.0664760
11890.3, 0.0649030
11917.6, 0.0634420
11945.0, 0.0621490
11972.6, 0.0608010
12000.4, 0.0592830
12028.2, 0.0579350
12056.2, 0.0564180
12084.3, 0.0546760
12112.5, 0.0530460
12140.9, 0.0514160
12169.4, 0.0496740
12198.0, 0.0477640
12226.8, 0.0462470
12255.7, 0.0446730
12284.7, 0.0431560
12313.9, 0.0415830
12343.2, 0.0400090
12372.7, 0.0382670
12402.3, 0.0368630
12432.0, 0.0354580
12461.9, 0.0341090
12491.9, 0.0328730
12522.1, 0.0317490
12552.4, 0.0309060
12582.9, 0.0301190
12613.5, 0.0292200
12644.3, 0.0284340
12675.2, 0.0279840
12706.3, 0.0278150
12737.5, 0.0276470
12768.9, 0.0277030
12800.4, 0.0282090
12832.1, 0.0288830
12863.9, 0.0295570
12895.9, 0.0302880
12928.1, 0.0311310
12960.4, 0.0322550
12992.9, 0.0335470
13025.5, 0.0351210
13058.3, 0.0364690
13091.3, 0.0378740
13124.4, 0.0392790
13157.8, 0.0404030
13191.2, 0.0414700
13224.9, 0.0425380
13258.7, 0.0437740
13292.7, 0.0447860
13326.9, 0.0455160
13361.2, 0.0461340
13395.7, 0.0467520
13430.4, 0.0470330
13465.3, 0.0472020
13500.4, 0.0474830
13535.7, 0.0478200
13571.1, 0.0479330
13606.7, 0.0479890
13642.5, 0.0481010
13678.5, 0.0478760
13714.7, 0.0475390
13751.1, 0.0474830
13787.6, 0.0475390
13824.4, 0.0474270
13861.4, 0.0472580
13898.5, 0.0472020
13935.9, 0.0473710
13973.5, 0.0471460
14011.2, 0.0470900
14049.2, 0.0470330
14087.4, 0.0468650
14125.8, 0.0471460
14164.3, 0.0473710
14203.2, 0.0472020
14242.2, 0.0470900
14281.4, 0.0469210
14320.9, 0.0469770
14360.5, 0.0471460
14400.4, 0.0467520
14440.5, 0.0460780
14480.9, 0.0456850
14521.4, 0.0452350
14562.2, 0.0445050
14603.3, 0.0438300
14644.5, 0.0431560
14686.0, 0.0420880
14727.7, 0.0406270
14769.7, 0.0390540
14811.9, 0.0373680
14854.3, 0.0353450
14897.0, 0.0329850
14939.9, 0.0307370
14983.1, 0.0280960
15026.5, 0.0259610
15070.2, 0.0253990
15114.2, 0.0267480
15158.3, 0.0304000
15202.8, 0.0338280
15247.5, 0.0341090
15292.5, 0.0311870
15337.7, 0.0276470
15383.2, 0.0245560
15429.0, 0.0227580
15475.1, 0.0243320
15521.4, 0.0293890
15568.0, 0.0339970
15614.9, 0.0348960
15662.1, 0.0330410
15709.6, 0.0321420
15757.3, 0.0343900
15805.4, 0.0395040
15853.7, 0.0471460
15902.3, 0.0577100
15951.2, 0.0727700
16000.5, 0.0897960
16050.0, 0.100585
16099.8, 0.0994610
16150.0, 0.0900210
16200.5, 0.0795130
16251.3, 0.0713650
16302.4, 0.0654090
16353.8, 0.0620370
16405.5, 0.0622060
16457.6, 0.0665890
16510.0, 0.0733320
16562.8, 0.0783890
16615.9, 0.0794570
16669.3, 0.0769280
16723.1, 0.0739500
16777.2, 0.0716460
16831.7, 0.0698480
16886.5, 0.0685550
16941.7, 0.0677120
16997.2, 0.0670380
17053.1, 0.0665320
17109.4, 0.0662510
17166.1, 0.0658020
17223.1, 0.0652960
17280.5, 0.0643970
17338.3, 0.0631610
17396.5, 0.0620930
17455.1, 0.0608010
17514.0, 0.0598450
17573.4, 0.0584970
17633.2, 0.0569800
17693.4, 0.0554620
17754.0, 0.0541700
17815.0, 0.0531580
17876.4, 0.0516970
17938.3, 0.0499550
18000.5, 0.0486070
18063.3, 0.0478200
18126.4, 0.0473140
18190.0, 0.0464720
18254.1, 0.0461910
18318.6, 0.0461910
18383.5, 0.0467520
18449.0, 0.0472580
18514.9, 0.0482130
18581.2, 0.0491130
18648.0, 0.0488320
18715.4, 0.0488320
18783.2, 0.0489440
18851.5, 0.0484380
18920.3, 0.0484940
18989.6, 0.0488320
19059.4, 0.0483820
19129.7, 0.0477080
19200.6, 0.0475950
19272.0, 0.0478760
19343.9, 0.0479330
19416.3, 0.0478760
19489.3, 0.0481010
19562.8, 0.0492250
19637.0, 0.0500680
19711.6, 0.0509110
19786.8, 0.0520910
19862.6, 0.0526530
19939.0, 0.0533830
20016.0, 0.0530460
20093.6, 0.0527650
20171.8, 0.0525970
20250.6, 0.0518660
20330.0, 0.0511360
20410.0, 0.0506300
20490.7, 0.0499550
20572.0, 0.0491130
20654.0, 0.0479890
20736.6, 0.0476520
20819.9, 0.0483260
20903.8, 0.0495060
20988.5, 0.0514160
21073.8, 0.0542260
21159.8, 0.0547880
21246.5, 0.0545630
21334.0, 0.0545070
21422.1, 0.0549000
21511.0, 0.0543390
21600.7, 0.0535520
21691.0, 0.0528210
21782.1, 0.0501240
21874.0, 0.0467520
21966.7, 0.0460220
22060.2, 0.0474270
22154.5, 0.0501240
22249.6, 0.0511360
22345.5, 0.0518100
22442.2, 0.0513600
22539.8, 0.0506860
22638.2, 0.0486070
22737.5, 0.0487750
22837.7, 0.0502930
22938.7, 0.0524840
23040.7, 0.0555750
23143.5, 0.0583840
23247.3, 0.0584970
23352.1, 0.0579110
23457.7, 0.0569300
23564.4, 0.0560480
23672.0, 0.0549200
23780.5, 0.0535470
23890.1, 0.0523700
24000.7, 0.0509970
24112.3, 0.0500160
24225.0, 0.0497710
24338.7, 0.0475150
24453.5, 0.0455050
24569.4, 0.0433960
24686.4, 0.0411410
24804.5, 0.0398660
24923.8, 0.0391300
25044.2, 0.0375610
25165.8, 0.0353060
25288.6, 0.0335890
25412.5, 0.0325600
25537.7, 0.0311380
25664.1, 0.0297150
25791.8, 0.0285880
25920.8, 0.0280970
26051.1, 0.0263320
26182.6, 0.0246160
26315.5, 0.0240760
26449.8, 0.0232920
26585.4, 0.0224580
26722.5, 0.0218210
26860.9, 0.0207420
27000.8, 0.0192220
27142.1, 0.0189280
27285.0, 0.0190750
27429.4, 0.0192710
27575.3, 0.0202520
27722.7, 0.0219680
27871.8, 0.0250080
28022.4, 0.0296660
28174.7, 0.0346190
28328.7, 0.0391300
28484.4, 0.0439850
28641.7, 0.0485450
28800.9, 0.0529580
28961.8, 0.0556060
29124.5, 0.0564400
29289.0, 0.0558020
29455.4, 0.0552630
29623.8, 0.0539880
29794.0, 0.0521740
29966.3, 0.0504080
30140.5, 0.0484960
30316.7, 0.0466820
30495.1, 0.0453580
30675.5, 0.0443280
30858.1, 0.0436420
31042.8, 0.0431510
31229.8, 0.0422690
31419.1, 0.0418760
31610.7, 0.0424160
31804.6, 0.0433470
32000.9, 0.0440830
32199.7, 0.0458480
32400.9, 0.0484960
32604.8, 0.0511440
32811.1, 0.0537920
33020.1, 0.0580580
33231.8, 0.0646290
33446.2, 0.0719840
33663.4, 0.0807610
33883.4, 0.0899310
34106.3, 0.0998360
34332.1, 0.109300
34561.0, 0.118813
34792.9, 0.128375
35028.0, 0.136466
35266.3, 0.143184
35507.8, 0.148136
35752.7, 0.151667
36001.0, 0.154413
36252.8, 0.155246
36508.1, 0.154266
36767.0, 0.153285
37029.7, 0.153824
37296.1, 0.156374
37566.3, 0.160542
37840.5, 0.165642
38118.8, 0.170889
38401.2, 0.175939
38687.8, 0.178734
38978.6, 0.179960
39273.9, 0.180352
39573.7, 0.180794
39878.1, 0.180892
40187.3, 0.179715
40501.2, 0.180598
40820.0, 0.183245
41144.0, 0.184226
41473.2, 0.183049
41807.6, 0.178979
42147.5, 0.170938
42493.0, 0.161278
42844.2, 0.152696
43201.2, 0.146861
43564.3, 0.142889
43933.5, 0.142203
44309.0, 0.147891
44691.0, 0.160101
45079.6, 0.176233
45475.0, 0.190307
45877.5, 0.198103
46287.1, 0.197760
46704.2, 0.194180
47128.7, 0.194769
47561.1, 0.203252
48001.5, 0.217914
48450.1, 0.228603
48907.2, 0.225857
49373.0, 0.213500
49847.7, 0.204086
50331.5, 0.195161
50825.0, 0.183491
51328.2, 0.172409
51841.5, 0.165691
52365.1, 0.169810
52899.4, 0.181725
53444.8, 0.188737
54001.5, 0.183932
54570.1, 0.172997
55150.6, 0.161523
55743.6, 0.151421
56349.5, 0.144458
56968.7, 0.140487
57601.7, 0.137005
58248.9, 0.136270
58910.9, 0.144262
59588.1, 0.159120
60281.0, 0.169810
60990.2, 0.171428
61716.3, 0.172065
62459.8, 0.173586
63221.6, 0.166721
64002.1, 0.155688
64802.1, 0.146616
65622.1, 0.139310
66463.4, 0.141958
67326.6, 0.159758
68212.4, 0.174958
69121.9, 0.179470
70056.0, 0.176675
71015.7, 0.175596
72002.0, 0.176675
73016.3, 0.175155
74059.4, 0.168192
75132.7, 0.156031
76237.6, 0.144998
77375.5, 0.140536
78547.9, 0.149362
79756.3, 0.173733
81002.5, 0.183196
82288.5, 0.171967
83615.7, 0.166770
84986.5, 0.168094
86402.9, 0.167505
87867.4, 0.166034
89382.4, 0.164661
90950.5, 0.165102
92574.6, 0.165936
94257.2, 0.159071
96002.7, 0.152304
97814.1, 0.145831
99695.1, 0.141026
101650.0, 0.142252
103683.0, 0.148136
105799.0, 0.156570
108003.0, 0.166622
110301.0, 0.171232
112699.0, 0.167750
115204.0, 0.162209
117822.0, 0.158630
120562.0, 0.157208
123433.0, 0.157061
126443.0, 0.163190
129604.0, 0.174811
132926.0, 0.182559
136424.0, 0.192562
140111.0, 0.202418
144003.0, 0.199035
148118.0, 0.195455
152474.0, 0.191483
157095.0, 0.188296
162004.0, 0.193690
167231.0, 0.207518
172805.0, 0.213991
178764.0, 0.228603
185148.0, 0.241647
192005.0, 0.224043
199390.0, 0.204331
207366.0, 0.195455
216006.0, 0.186237
