Database of Origin, USGS Spectral Database
Sample Description, See USGS database for additional info
Date Added,2016-08-03 20:58:52.107969

Data ID,USGS_and05          
Sample ID, andesine_hs142.2101
Mineral Name, andesine
Material Class,Tectosilicate

Wavelength
1404.54, 0.536372
1404.92, 0.538695
1405.3, 0.537208
1405.68, 0.535071
1406.06, 0.534700
1406.44, 0.535071
1406.83, 0.535350
1407.21, 0.535908
1407.59, 0.536000
1407.97, 0.536279
1408.35, 0.535350
1408.74, 0.535350
1409.12, 0.536372
1409.5, 0.536651
1409.89, 0.536930
1410.27, 0.537673
1410.65, 0.535350
1411.04, 0.534421
1411.42, 0.536651
1411.81, 0.538044
1412.19, 0.537487
1412.58, 0.537766
1412.96, 0.537859
1413.35, 0.537394
1413.73, 0.536279
1414.12, 0.535350
1414.5, 0.536744
1414.89, 0.539717
1415.28, 0.538788
1415.66, 0.537394
1416.05, 0.538137
1416.44, 0.539159
1416.82, 0.539624
1417.21, 0.538974
1417.6, 0.539252
1417.98, 0.538137
1418.37, 0.537208
1418.76, 0.537022
1419.15, 0.537115
1419.54, 0.537766
1419.93, 0.539252
1420.32, 0.538974
1420.71, 0.538323
1421.09, 0.538602
1421.48, 0.538881
1421.88, 0.538602
1422.27, 0.537115
1422.66, 0.537301
1423.05, 0.537859
1423.44, 0.537766
1423.83, 0.538137
1424.22, 0.538974
1424.61, 0.538509
1425.0, 0.537208
1425.39, 0.538323
1425.78, 0.538881
1426.18, 0.539717
1426.57, 0.539438
1426.96, 0.539903
1427.36, 0.540646
1427.75, 0.539717
1428.14, 0.538416
1428.54, 0.538602
1428.93, 0.539903
1429.32, 0.541389
1429.72, 0.540925
1430.11, 0.539624
1430.51, 0.539438
1430.9, 0.539345
1431.3, 0.538695
1431.69, 0.538602
1432.09, 0.539345
1432.48, 0.540181
1432.88, 0.539624
1433.28, 0.539810
1433.67, 0.540832
1434.07, 0.540832
1434.46, 0.540460
1434.86, 0.540181
1435.26, 0.540274
1435.66, 0.539996
1436.05, 0.540646
1436.45, 0.540181
1436.85, 0.539531
1437.25, 0.539252
1437.65, 0.539252
1438.05, 0.539903
1438.44, 0.541389
1438.84, 0.540739
1439.24, 0.541203
1439.64, 0.541111
1440.04, 0.540832
1440.44, 0.540553
1440.84, 0.539810
1441.24, 0.539159
1441.65, 0.539624
1442.05, 0.540553
1442.45, 0.540832
1442.85, 0.542876
1443.25, 0.542783
1443.65, 0.541482
1444.05, 0.540739
1444.46, 0.541296
1444.86, 0.540832
1445.26, 0.541389
1445.67, 0.541482
1446.07, 0.541111
1446.47, 0.542411
1446.88, 0.542132
1447.28, 0.542225
1447.68, 0.542040
1448.09, 0.542132
1448.49, 0.543526
1448.9, 0.544084
1449.3, 0.543619
1449.71, 0.543898
1450.11, 0.543433
1450.52, 0.543340
1450.93, 0.542132
1451.33, 0.541761
1451.74, 0.542969
1452.14, 0.543805
1452.55, 0.543619
1452.96, 0.542504
1453.36, 0.542597
1453.77, 0.542690
1454.18, 0.542597
1454.59, 0.542411
1455.0, 0.543062
1455.41, 0.543340
1455.81, 0.543247
1456.22, 0.543619
1456.63, 0.544641
1457.04, 0.545106
1457.45, 0.544362
1457.86, 0.544269
1458.27, 0.544269
1458.68, 0.544548
1459.09, 0.545106
1459.5, 0.545106
1459.91, 0.545756
1460.32, 0.546592
1460.74, 0.545477
1461.15, 0.544084
1461.56, 0.543898
1461.97, 0.544920
1462.39, 0.546128
1462.8, 0.545291
1463.21, 0.545106
1463.62, 0.545477
1464.04, 0.545570
1464.45, 0.546035
1464.86, 0.545663
1465.28, 0.545756
1465.69, 0.545199
1466.11, 0.546035
1466.52, 0.546685
1466.94, 0.546592
1467.35, 0.546871
1467.77, 0.547707
1468.18, 0.547986
1468.6, 0.547336
1469.02, 0.547428
1469.43, 0.546685
1469.85, 0.546499
1470.27, 0.548450
1470.68, 0.548543
1471.1, 0.547336
1471.52, 0.547893
1471.94, 0.549287
1472.35, 0.550123
1472.77, 0.548729
1473.19, 0.548636
1473.61, 0.550216
1474.03, 0.549751
1474.45, 0.550123
1474.87, 0.550494
1475.29, 0.550773
1475.71, 0.550866
1476.13, 0.550680
1476.55, 0.550587
1476.97, 0.551331
1477.39, 0.551795
1477.81, 0.551795
1478.23, 0.551609
1478.65, 0.551331
1479.07, 0.549658
1479.5, 0.550216
1479.92, 0.551609
1480.34, 0.551516
1480.76, 0.551609
1481.19, 0.552631
1481.61, 0.552353
1482.03, 0.553282
1482.46, 0.554861
1482.88, 0.553932
1483.31, 0.552074
1483.73, 0.552817
1484.16, 0.555326
1484.58, 0.556719
1485.01, 0.556162
1485.43, 0.556255
1485.86, 0.557091
1486.28, 0.556905
1486.71, 0.555976
1487.14, 0.554861
1487.56, 0.555697
1487.99, 0.556719
1488.42, 0.556627
1488.84, 0.556441
1489.27, 0.556812
1489.7, 0.556812
1490.13, 0.557184
1490.56, 0.558206
1490.98, 0.558485
1491.41, 0.558485
1491.84, 0.559228
1492.27, 0.559786
1492.7, 0.559135
1493.13, 0.558392
1493.56, 0.559693
1493.99, 0.560343
1494.42, 0.560064
1494.85, 0.560157
1495.29, 0.559507
1495.72, 0.560436
1496.15, 0.561458
1496.58, 0.560250
1497.01, 0.560064
1497.44, 0.561179
1497.88, 0.561830
1498.31, 0.562108
1498.74, 0.561737
1499.18, 0.562201
1499.61, 0.563781
1500.04, 0.564338
1500.48, 0.563781
1500.91, 0.563781
1501.35, 0.564245
1501.78, 0.564152
1502.22, 0.563874
1502.65, 0.564803
1503.09, 0.566103
1503.53, 0.567404
1503.96, 0.566011
1504.4, 0.565360
1504.83, 0.566754
1505.27, 0.567404
1505.71, 0.567683
1506.15, 0.568333
1506.58, 0.568055
1507.02, 0.567869
1507.46, 0.568984
1507.9, 0.569727
1508.34, 0.569170
1508.78, 0.568705
1509.21, 0.569355
1509.66, 0.570656
1510.09, 0.570563
1510.53, 0.570563
1510.97, 0.572143
1511.42, 0.572886
1511.86, 0.572328
1512.3, 0.572328
1512.74, 0.572886
1513.18, 0.572979
1513.62, 0.572886
1514.06, 0.573536
1514.51, 0.574372
1514.95, 0.574094
1515.39, 0.573815
1515.83, 0.573908
1516.28, 0.574930
1516.72, 0.576509
1517.16, 0.576231
1517.61, 0.575487
1518.05, 0.575116
1518.5, 0.576138
1518.94, 0.576695
1519.39, 0.576231
1519.83, 0.576509
1520.28, 0.576788
1520.73, 0.576602
1521.17, 0.577160
1521.62, 0.578646
1522.07, 0.578832
1522.51, 0.578739
1522.96, 0.578739
1523.41, 0.579204
1523.85, 0.579390
1524.3, 0.579668
1524.75, 0.580133
1525.2, 0.580505
1525.65, 0.580969
1526.1, 0.581805
1526.55, 0.581805
1527.0, 0.581712
1527.45, 0.581712
1527.9, 0.581898
1528.35, 0.582456
1528.8, 0.583571
1529.25, 0.583663
1529.7, 0.583292
1530.15, 0.583292
1530.6, 0.583106
1531.05, 0.582920
1531.51, 0.583385
1531.96, 0.584128
1532.41, 0.584871
1532.87, 0.585429
1533.32, 0.586822
1533.77, 0.586358
1534.23, 0.585150
1534.68, 0.585336
1535.14, 0.586451
1535.59, 0.586730
1536.05, 0.587194
1536.5, 0.587844
1536.96, 0.588495
1537.41, 0.589238
1537.87, 0.589610
1538.32, 0.589703
1538.78, 0.590074
1539.24, 0.589981
1539.7, 0.589517
1540.15, 0.589796
1540.61, 0.590539
1541.07, 0.590910
1541.53, 0.591096
1541.98, 0.590818
1542.44, 0.591375
1542.9, 0.591840
1543.36, 0.591561
1543.82, 0.591375
1544.28, 0.592118
1544.74, 0.592583
1545.2, 0.592676
1545.66, 0.593140
1546.12, 0.593512
1546.59, 0.593605
1547.05, 0.593884
1547.51, 0.594162
1547.97, 0.594069
1548.43, 0.593884
1548.9, 0.594906
1549.36, 0.595928
1549.82, 0.595742
1550.29, 0.595928
1550.75, 0.595742
1551.21, 0.595277
1551.68, 0.595091
1552.14, 0.595649
1552.61, 0.596299
1553.07, 0.596485
1553.54, 0.596671
1554.0, 0.597321
1554.47, 0.597786
1554.93, 0.598065
1555.4, 0.598158
1555.87, 0.598622
1556.34, 0.598343
1556.8, 0.598901
1557.27, 0.599272
1557.74, 0.599644
1558.21, 0.600109
1558.68, 0.599830
1559.14, 0.599458
1559.61, 0.599365
1560.08, 0.599737
1560.55, 0.600387
1561.02, 0.600852
1561.49, 0.601131
1561.96, 0.601595
1562.43, 0.601409
1562.9, 0.600666
1563.38, 0.601038
1563.85, 0.601874
1564.32, 0.602431
1564.79, 0.602896
1565.26, 0.602617
1565.74, 0.602617
1566.21, 0.603453
1566.68, 0.603453
1567.16, 0.603639
1567.63, 0.604197
1568.1, 0.603825
1568.58, 0.603918
1569.05, 0.604104
1569.53, 0.604661
1570.0, 0.604754
1570.48, 0.604940
1570.96, 0.604940
1571.43, 0.604847
1571.91, 0.605776
1572.39, 0.606334
1572.86, 0.605404
1573.34, 0.605219
1573.82, 0.605776
1574.3, 0.606241
1574.77, 0.606427
1575.25, 0.607170
1575.73, 0.607356
1576.21, 0.607263
1576.69, 0.607263
1577.17, 0.607449
1577.65, 0.608099
1578.13, 0.608656
1578.61, 0.608842
1579.09, 0.608656
1579.57, 0.608378
1580.05, 0.608749
1580.54, 0.609214
1581.02, 0.609400
1581.5, 0.609028
1581.98, 0.609121
1582.47, 0.609307
1582.95, 0.609678
1583.43, 0.610236
1583.92, 0.610886
1584.4, 0.610236
1584.88, 0.609771
1585.37, 0.610236
1585.85, 0.610608
1586.34, 0.611072
1586.82, 0.611722
1587.31, 0.611537
1587.8, 0.611258
1588.28, 0.611722
1588.77, 0.612466
1589.26, 0.613116
1589.74, 0.613116
1590.23, 0.612652
1590.72, 0.612559
1591.21, 0.612559
1591.7, 0.612559
1592.19, 0.613302
1592.67, 0.614045
1593.16, 0.614417
1593.65, 0.614324
1594.14, 0.614788
1594.63, 0.614417
1595.12, 0.613766
1595.61, 0.613766
1596.11, 0.614231
1596.6, 0.614603
1597.09, 0.614510
1597.58, 0.614417
1598.08, 0.614881
1598.57, 0.615160
1599.06, 0.614974
1599.55, 0.615067
1600.05, 0.615532
1600.54, 0.615718
1601.04, 0.615346
1601.53, 0.616275
1602.03, 0.617390
1602.52, 0.617297
1603.02, 0.617111
1603.51, 0.617297
1604.01, 0.617855
1604.5, 0.617947
1605.0, 0.617483
1605.5, 0.617762
1606.0, 0.618133
1606.49, 0.618691
1606.99, 0.618598
1607.49, 0.617669
1607.99, 0.618226
1608.49, 0.619248
1608.99, 0.619527
1609.49, 0.619248
1609.99, 0.619062
1610.49, 0.619062
1610.99, 0.620084
1611.49, 0.620642
1611.99, 0.620363
1612.49, 0.620177
1612.99, 0.620270
1613.49, 0.620177
1614.0, 0.620270
1614.5, 0.620828
1615.0, 0.621292
1615.51, 0.620921
1616.01, 0.620921
1616.51, 0.621106
1617.02, 0.621292
1617.52, 0.621664
1618.03, 0.621385
1618.53, 0.621014
1619.04, 0.621478
1619.54, 0.622407
1620.05, 0.622686
1620.55, 0.622036
1621.06, 0.621943
1621.57, 0.622500
1622.08, 0.622779
1622.58, 0.623058
1623.09, 0.622686
1623.6, 0.622500
1624.11, 0.622593
1624.62, 0.623336
1625.13, 0.623894
1625.64, 0.623801
1626.15, 0.623801
1626.66, 0.623801
1627.17, 0.624080
1627.68, 0.623987
1628.19, 0.623894
1628.7, 0.624358
1629.21, 0.624730
1629.72, 0.624637
1630.24, 0.624544
1630.75, 0.624451
1631.26, 0.624544
1631.78, 0.625009
1632.29, 0.625102
1632.8, 0.625287
1633.32, 0.625659
1633.83, 0.625473
1634.35, 0.625473
1634.86, 0.625566
1635.38, 0.625473
1635.9, 0.625752
1636.41, 0.625566
1636.93, 0.626031
1637.45, 0.626309
1637.96, 0.625938
1638.48, 0.626031
1639.0, 0.626495
1639.52, 0.626867
1640.04, 0.626495
1640.56, 0.626217
1641.08, 0.626309
1641.59, 0.626402
1642.11, 0.626774
1642.63, 0.627146
1643.16, 0.627517
1643.68, 0.627610
1644.2, 0.627889
1644.72, 0.628075
1645.24, 0.627889
1645.76, 0.627703
1646.29, 0.628261
1646.81, 0.628725
1647.33, 0.628911
1647.86, 0.628632
1648.38, 0.628818
1648.9, 0.629468
1649.43, 0.629282
1649.95, 0.629190
1650.48, 0.629933
1651.0, 0.630119
1651.53, 0.629933
1652.06, 0.629933
1652.58, 0.629747
1653.11, 0.629654
1653.64, 0.630305
1654.17, 0.630583
1654.69, 0.630212
1655.22, 0.630026
1655.75, 0.630119
1656.28, 0.630212
1656.81, 0.630676
1657.34, 0.631048
1657.87, 0.630862
1658.4, 0.630676
1658.93, 0.630955
1659.46, 0.630955
1659.99, 0.631234
1660.52, 0.631326
1661.05, 0.631420
1661.59, 0.631698
1662.12, 0.632163
1662.65, 0.632906
1663.19, 0.632999
1663.72, 0.632813
1664.26, 0.632999
1664.79, 0.632627
1665.32, 0.632256
1665.86, 0.632720
1666.39, 0.632813
1666.93, 0.633185
1667.47, 0.633928
1668.0, 0.633928
1668.54, 0.633835
1669.08, 0.633742
1669.61, 0.634021
1670.15, 0.633835
1670.69, 0.634114
1671.23, 0.634393
1671.77, 0.634578
1672.31, 0.634578
1672.85, 0.634485
1673.39, 0.634857
1673.93, 0.634857
1674.47, 0.634857
1675.01, 0.635507
1675.55, 0.635693
1676.09, 0.635693
1676.64, 0.635601
1677.18, 0.635507
1677.72, 0.635693
1678.26, 0.636158
1678.81, 0.636530
1679.35, 0.636808
1679.89, 0.636808
1680.44, 0.636901
1680.98, 0.636901
1681.53, 0.636437
1682.07, 0.636530
1682.62, 0.636715
1683.17, 0.636715
1683.71, 0.636994
1684.26, 0.637087
1684.81, 0.637273
1685.36, 0.636994
1685.9, 0.637087
1686.45, 0.637087
1687.0, 0.637087
1687.55, 0.637552
1688.1, 0.637830
1688.65, 0.638202
1689.2, 0.638574
1689.75, 0.638759
1690.3, 0.638295
1690.85, 0.638016
1691.41, 0.638109
1691.96, 0.638666
1692.51, 0.639038
1693.06, 0.638945
1693.61, 0.638666
1694.17, 0.638388
1694.72, 0.638481
1695.28, 0.638666
1695.83, 0.638945
1696.39, 0.638945
1696.94, 0.638852
1697.5, 0.639131
1698.05, 0.639781
1698.61, 0.639688
1699.17, 0.639038
1699.72, 0.639503
1700.28, 0.639688
1700.84, 0.639503
1701.4, 0.639967
1701.95, 0.640339
1702.51, 0.640432
1703.07, 0.640432
1703.63, 0.640060
1704.19, 0.639874
1704.75, 0.640060
1705.31, 0.640246
1705.88, 0.640432
1706.44, 0.640432
1707.0, 0.640432
1707.56, 0.640710
1708.12, 0.640710
1708.69, 0.640989
1709.25, 0.641361
1709.81, 0.641268
1710.38, 0.640989
1710.94, 0.640896
1711.51, 0.640989
1712.07, 0.641454
1712.64, 0.641640
1713.2, 0.641640
1713.77, 0.641547
1714.34, 0.641547
1714.9, 0.642011
1715.47, 0.641918
1716.04, 0.641918
1716.61, 0.642290
1717.18, 0.642383
1717.74, 0.642104
1718.31, 0.642290
1718.88, 0.642383
1719.45, 0.642104
1720.02, 0.642290
1720.59, 0.642569
1721.17, 0.642476
1721.74, 0.642755
1722.31, 0.642940
1722.88, 0.642940
1723.45, 0.643033
1724.03, 0.643219
1724.6, 0.643591
1725.18, 0.643777
1725.75, 0.643591
1726.33, 0.643777
1726.9, 0.644055
1727.48, 0.644427
1728.05, 0.644334
1728.63, 0.643962
1729.2, 0.643869
1729.78, 0.643962
1730.36, 0.644055
1730.94, 0.644148
1731.51, 0.644520
1732.09, 0.644427
1732.67, 0.644613
1733.25, 0.645077
1733.83, 0.645356
1734.41, 0.645356
1734.99, 0.645170
1735.57, 0.645356
1736.15, 0.645542
1736.73, 0.645542
1737.32, 0.645356
1737.9, 0.645263
1738.48, 0.645263
1739.07, 0.645542
1739.65, 0.645728
1740.23, 0.645913
1740.82, 0.646192
1741.4, 0.646099
1741.99, 0.646378
1742.57, 0.647028
1743.16, 0.647307
1743.74, 0.647214
1744.33, 0.647214
1744.92, 0.647028
1745.51, 0.646936
1746.09, 0.647214
1746.68, 0.647214
1747.27, 0.647121
1747.86, 0.647214
1748.45, 0.647865
1749.04, 0.648143
1749.63, 0.647958
1750.22, 0.648050
1750.81, 0.648329
1751.4, 0.648422
1751.99, 0.648515
1752.59, 0.648329
1753.18, 0.648236
1753.77, 0.648515
1754.37, 0.649165
1754.96, 0.649258
1755.56, 0.648980
1756.15, 0.649258
1756.74, 0.649723
1757.34, 0.649630
1757.94, 0.649444
1758.53, 0.649351
1759.13, 0.649258
1759.73, 0.649444
1760.32, 0.649630
1760.92, 0.649816
1761.52, 0.649816
1762.12, 0.649723
1762.72, 0.649630
1763.32, 0.649816
1763.92, 0.650187
1764.52, 0.650280
1765.12, 0.650559
1765.72, 0.650838
1766.32, 0.651116
1766.92, 0.650745
1767.53, 0.650466
1768.13, 0.650745
1768.73, 0.651024
1769.34, 0.651024
1769.94, 0.650931
1770.55, 0.651302
1771.15, 0.651395
1771.76, 0.651302
1772.36, 0.651209
1772.97, 0.650931
1773.57, 0.651209
1774.18, 0.651209
1774.79, 0.651116
1775.4, 0.651209
1776.0, 0.651488
1776.61, 0.651674
1777.22, 0.651674
1777.83, 0.651674
1778.44, 0.651953
1779.05, 0.651860
1779.66, 0.651767
1780.27, 0.652046
1780.88, 0.652510
1781.5, 0.652603
1782.11, 0.652417
1782.72, 0.652046
1783.33, 0.651860
1783.95, 0.652324
1784.56, 0.652510
1785.18, 0.652510
1785.79, 0.652417
1786.41, 0.652510
1787.02, 0.653068
1787.64, 0.653068
1788.26, 0.652417
1788.87, 0.652231
1789.49, 0.652789
1790.11, 0.652882
1790.73, 0.652882
1791.35, 0.652975
1791.96, 0.653253
1792.58, 0.653253
1793.21, 0.653161
1793.83, 0.653346
1794.45, 0.653161
1795.07, 0.653161
1795.69, 0.653253
1796.31, 0.653346
1796.93, 0.653625
1797.56, 0.653718
1798.18, 0.653625
1798.8, 0.653811
1799.43, 0.654090
1800.05, 0.654090
1800.68, 0.654090
1801.3, 0.654090
1801.93, 0.653811
1802.56, 0.653997
1803.18, 0.654368
1803.81, 0.654554
1804.44, 0.654554
1805.07, 0.654647
1805.7, 0.654926
1806.33, 0.654926
1806.95, 0.654740
1807.58, 0.654647
1808.22, 0.654647
1808.85, 0.654926
1809.48, 0.655019
1810.11, 0.655205
1810.74, 0.655576
1811.38, 0.655669
1812.01, 0.655762
1812.64, 0.655855
1813.28, 0.655762
1813.91, 0.655576
1814.55, 0.655483
1815.18, 0.655855
1815.82, 0.655948
1816.45, 0.656041
1817.09, 0.656412
1817.73, 0.656598
1818.36, 0.656691
1819.0, 0.656319
1819.64, 0.656877
1820.28, 0.657434
1820.92, 0.657249
1821.56, 0.657156
1822.2, 0.656784
1822.84, 0.656970
1823.48, 0.657249
1824.12, 0.657156
1824.76, 0.657249
1825.41, 0.657992
1826.05, 0.658549
1826.69, 0.657992
1827.34, 0.657806
1827.98, 0.658364
1828.63, 0.658456
1829.27, 0.658456
1829.92, 0.658828
1830.56, 0.658828
1831.21, 0.658549
1831.86, 0.658549
1832.5, 0.658921
1833.15, 0.659014
1833.8, 0.659293
1834.45, 0.659386
1835.1, 0.659664
1835.75, 0.659850
1836.4, 0.659478
1837.05, 0.659478
1837.7, 0.659757
1838.35, 0.659571
1839.01, 0.659850
1839.66, 0.660036
1840.31, 0.659757
1840.96, 0.660036
1841.62, 0.660686
1842.27, 0.660315
1842.93, 0.660222
1843.58, 0.660315
1844.24, 0.660315
1844.9, 0.660408
1845.55, 0.660408
1846.21, 0.660872
1846.87, 0.661337
1847.53, 0.661058
1848.18, 0.661337
1848.84, 0.661244
1849.5, 0.661151
1850.16, 0.661058
1850.82, 0.661058
1851.48, 0.660872
1852.14, 0.661244
1852.81, 0.661430
1853.47, 0.661615
1854.13, 0.661337
1854.8, 0.661058
1855.46, 0.661058
1856.12, 0.661430
1856.79, 0.661615
1857.45, 0.661522
1858.12, 0.661244
1858.79, 0.661708
1859.45, 0.662266
1860.12, 0.662080
1860.79, 0.661337
1861.46, 0.661151
1862.12, 0.661430
1862.79, 0.661708
1863.46, 0.661894
1864.13, 0.661708
1864.8, 0.661337
1865.48, 0.661337
1866.15, 0.661151
1866.82, 0.661430
1867.49, 0.662173
1868.16, 0.662080
1868.84, 0.661801
1869.51, 0.661615
1870.19, 0.661987
1870.86, 0.662359
1871.54, 0.661430
1872.21, 0.661430
1872.89, 0.661987
1873.56, 0.661615
1874.24, 0.661244
1874.92, 0.661430
1875.6, 0.661244
1876.28, 0.661430
1876.96, 0.661522
1877.64, 0.661058
1878.32, 0.660872
1879.0, 0.660965
1879.68, 0.661058
1880.36, 0.660593
1881.04, 0.659943
1881.73, 0.659850
1882.41, 0.660129
1883.09, 0.660129
1883.78, 0.660222
1884.46, 0.660036
1885.15, 0.659850
1885.83, 0.659664
1886.52, 0.659850
1887.21, 0.659757
1887.89, 0.659293
1888.58, 0.658828
1889.27, 0.658921
1889.96, 0.659107
1890.65, 0.658735
1891.34, 0.658085
1892.03, 0.657899
1892.72, 0.657806
1893.41, 0.657434
1894.1, 0.657156
1894.79, 0.656691
1895.49, 0.656227
1896.18, 0.656041
1896.87, 0.655855
1897.57, 0.655855
1898.26, 0.655390
1898.96, 0.655205
1899.65, 0.654926
1900.35, 0.654275
1901.05, 0.653904
1901.74, 0.653532
1902.44, 0.653439
1903.14, 0.652975
1903.84, 0.652696
1904.54, 0.653253
1905.24, 0.653253
1905.94, 0.652510
1906.64, 0.652324
1907.34, 0.652046
1908.04, 0.651860
1908.75, 0.651953
1909.45, 0.651860
1910.15, 0.652139
1910.86, 0.652696
1911.56, 0.652417
1912.27, 0.652231
1912.97, 0.652696
1913.68, 0.652696
1914.39, 0.652510
1915.09, 0.652975
1915.8, 0.653253
1916.51, 0.653439
1917.22, 0.653439
1917.93, 0.653532
1918.64, 0.653904
1919.35, 0.654461
1920.06, 0.654833
1920.77, 0.654554
1921.48, 0.653904
1922.19, 0.654183
1922.91, 0.654926
1923.62, 0.655483
1924.33, 0.655483
1925.05, 0.655390
1925.76, 0.655762
1926.48, 0.656412
1927.19, 0.656598
1927.91, 0.656691
1928.63, 0.656877
1929.35, 0.656877
1930.07, 0.657063
1930.78, 0.657620
1931.5, 0.657713
1932.22, 0.657341
1932.94, 0.657434
1933.66, 0.657806
1934.39, 0.657806
1935.11, 0.658085
1935.83, 0.658642
1936.55, 0.659014
1937.28, 0.658828
1938.0, 0.658735
1938.73, 0.658828
1939.45, 0.659386
1940.18, 0.659293
1940.9, 0.659386
1941.63, 0.659757
1942.36, 0.659943
1943.09, 0.659850
1943.81, 0.659850
1944.54, 0.659850
1945.27, 0.659943
1946.0, 0.660408
1946.73, 0.660686
1947.47, 0.660872
1948.2, 0.660779
1948.93, 0.660593
1949.66, 0.660686
1950.4, 0.661058
1951.13, 0.661244
1951.86, 0.661058
1952.6, 0.661151
1953.34, 0.661615
1954.07, 0.661894
1954.81, 0.661615
1955.55, 0.661615
1956.29, 0.661801
1957.02, 0.661987
1957.76, 0.661894
1958.5, 0.661987
1959.24, 0.662452
1959.98, 0.662823
1960.72, 0.662637
1961.47, 0.662637
1962.21, 0.662637
1962.95, 0.662916
1963.7, 0.663195
1964.44, 0.663195
1965.18, 0.663102
1965.93, 0.663102
1966.67, 0.663381
1967.42, 0.663474
1968.17, 0.663659
1968.92, 0.663567
1969.66, 0.663288
1970.41, 0.663474
1971.16, 0.663474
1971.91, 0.663567
1972.66, 0.663845
1973.41, 0.663938
1974.16, 0.663845
1974.92, 0.663752
1975.67, 0.663938
1976.42, 0.664124
1977.18, 0.664310
1977.93, 0.664310
1978.69, 0.664310
1979.44, 0.664589
1980.2, 0.664774
1980.95, 0.664960
1981.71, 0.664960
1982.47, 0.665053
1983.23, 0.665146
1983.99, 0.665239
1984.74, 0.665239
1985.51, 0.665425
1986.27, 0.665703
1987.03, 0.665796
1987.79, 0.665796
1988.55, 0.666168
1989.32, 0.666168
1990.08, 0.666354
1990.84, 0.666633
1991.61, 0.666447
1992.37, 0.666354
1993.14, 0.666725
1993.9, 0.666911
1994.67, 0.667004
1995.44, 0.666725
1996.21, 0.666818
1996.98, 0.667004
1997.75, 0.667283
1998.52, 0.667469
1999.29, 0.667376
2000.06, 0.667376
2000.83, 0.667655
2001.6, 0.668026
2002.38, 0.668026
2003.15, 0.668212
2003.93, 0.668305
2004.7, 0.668584
2005.48, 0.669141
2006.25, 0.669141
2007.03, 0.669141
2007.81, 0.669048
2008.58, 0.668955
2009.36, 0.669420
2010.14, 0.669699
2010.92, 0.669977
2011.7, 0.670070
2012.48, 0.669977
2013.26, 0.670163
2014.05, 0.670070
2014.83, 0.670163
2015.61, 0.670349
2016.4, 0.670535
2017.18, 0.670814
2017.97, 0.670721
2018.75, 0.670628
2019.54, 0.670906
2020.32, 0.671185
2021.11, 0.671557
2021.9, 0.671464
2022.69, 0.671464
2023.48, 0.671464
2024.27, 0.671464
2025.06, 0.671743
2025.85, 0.671836
2026.64, 0.671836
2027.44, 0.672114
2028.23, 0.672300
2029.02, 0.672393
2029.82, 0.672486
2030.61, 0.672672
2031.41, 0.672672
2032.2, 0.672300
2033.0, 0.672207
2033.8, 0.672486
2034.6, 0.672672
2035.4, 0.672858
2036.2, 0.672765
2037.0, 0.672950
2037.8, 0.673043
2038.6, 0.672950
2039.4, 0.672858
2040.2, 0.673322
2041.01, 0.673322
2041.81, 0.673601
2042.61, 0.673880
2043.42, 0.673880
2044.22, 0.673880
2045.03, 0.674065
2045.84, 0.673972
2046.65, 0.673601
2047.46, 0.673972
2048.26, 0.674158
2049.07, 0.674158
2049.88, 0.674251
2050.69, 0.674530
2051.51, 0.674530
2052.32, 0.674344
2053.13, 0.674437
2053.94, 0.674437
2054.76, 0.674530
2055.57, 0.674623
2056.39, 0.674716
2057.2, 0.674716
2058.02, 0.674344
2058.84, 0.674344
2059.66, 0.674809
2060.48, 0.674994
2061.29, 0.674902
2062.11, 0.674809
2062.94, 0.674809
2063.76, 0.674623
2064.58, 0.674530
2065.4, 0.674623
2066.22, 0.674902
2067.05, 0.674994
2067.87, 0.674994
2068.7, 0.674994
2069.52, 0.674994
2070.35, 0.675180
2071.18, 0.675180
2072.0, 0.675087
2072.83, 0.674809
2073.66, 0.674716
2074.49, 0.674809
2075.32, 0.674809
2076.15, 0.674994
2076.98, 0.675087
2077.82, 0.675087
2078.65, 0.674994
2079.48, 0.674809
2080.32, 0.675180
2081.15, 0.675180
2081.99, 0.674994
2082.83, 0.675180
2083.66, 0.675273
2084.5, 0.675366
2085.34, 0.675273
2086.18, 0.675552
2087.02, 0.675738
2087.86, 0.675552
2088.7, 0.675459
2089.54, 0.675552
2090.39, 0.675831
2091.23, 0.675831
2092.07, 0.675645
2092.92, 0.675645
2093.76, 0.675831
2094.61, 0.675831
2095.45, 0.675831
2096.3, 0.675831
2097.15, 0.675924
2098.0, 0.676017
2098.85, 0.676202
2099.7, 0.676481
2100.55, 0.676667
2101.4, 0.676667
2102.25, 0.676667
2103.1, 0.676574
2103.96, 0.676574
2104.81, 0.676667
2105.67, 0.676853
2106.52, 0.676760
2107.38, 0.676946
2108.24, 0.677224
2109.09, 0.676946
2109.95, 0.677038
2110.81, 0.677410
2111.67, 0.677503
2112.53, 0.677410
2113.39, 0.677596
2114.25, 0.677782
2115.12, 0.677503
2115.98, 0.677689
2116.84, 0.678153
2117.71, 0.678153
2118.58, 0.677968
2119.44, 0.677875
2120.31, 0.677968
2121.18, 0.678061
2122.04, 0.678153
2122.91, 0.678339
2123.78, 0.678432
2124.65, 0.678525
2125.52, 0.678711
2126.4, 0.678618
2127.27, 0.678618
2128.14, 0.678804
2129.02, 0.678897
2129.89, 0.678897
2130.77, 0.679268
2131.64, 0.679733
2132.52, 0.679640
2133.4, 0.679361
2134.27, 0.679268
2135.15, 0.679175
2136.03, 0.679361
2136.91, 0.679640
2137.79, 0.679919
2138.68, 0.679919
2139.56, 0.679919
2140.44, 0.679640
2141.33, 0.679361
2142.21, 0.679733
2143.1, 0.680105
2143.99, 0.680012
2144.87, 0.679826
2145.76, 0.679826
2146.65, 0.680290
2147.54, 0.680383
2148.43, 0.680290
2149.32, 0.680012
2150.21, 0.679919
2151.1, 0.680012
2151.99, 0.679919
2152.89, 0.680105
2153.78, 0.680197
2154.68, 0.679919
2155.57, 0.679919
2156.47, 0.680012
2157.37, 0.680012
2158.27, 0.679826
2159.16, 0.679826
2160.06, 0.679919
2160.96, 0.680012
2161.86, 0.679826
2162.77, 0.679640
2163.67, 0.679547
2164.57, 0.679454
2165.48, 0.679454
2166.38, 0.679640
2167.29, 0.679733
2168.2, 0.679640
2169.1, 0.679361
2170.01, 0.679361
2170.92, 0.679268
2171.83, 0.678990
2172.74, 0.678897
2173.65, 0.678897
2174.56, 0.678804
2175.47, 0.678711
2176.39, 0.678804
2177.3, 0.678711
2178.22, 0.678432
2179.13, 0.678246
2180.05, 0.678153
2180.96, 0.678061
2181.88, 0.677689
2182.8, 0.677689
2183.72, 0.677875
2184.64, 0.677689
2185.56, 0.677224
2186.48, 0.676946
2187.41, 0.676946
2188.33, 0.677038
2189.25, 0.676946
2190.18, 0.677131
2191.1, 0.676946
2192.03, 0.676760
2192.96, 0.676667
2193.89, 0.676667
2194.82, 0.676574
2195.74, 0.676481
2196.68, 0.676574
2197.61, 0.676295
2198.54, 0.676109
2199.47, 0.676109
2200.4, 0.676388
2201.34, 0.676388
2202.28, 0.676295
2203.21, 0.676017
2204.15, 0.676017
2205.08, 0.676109
2206.02, 0.676109
2206.96, 0.675831
2207.9, 0.675738
2208.84, 0.675831
2209.78, 0.675831
2210.73, 0.676017
2211.67, 0.676109
2212.61, 0.676109
2213.56, 0.676295
2214.5, 0.676295
2215.45, 0.676295
2216.4, 0.676481
2217.35, 0.676481
2218.3, 0.676853
2219.24, 0.677131
2220.2, 0.676946
2221.15, 0.676760
2222.1, 0.676667
2223.05, 0.676667
2224.0, 0.676853
2224.96, 0.677038
2225.91, 0.677131
2226.87, 0.677038
2227.83, 0.677038
2228.79, 0.676853
2229.74, 0.676667
2230.7, 0.676667
2231.66, 0.676481
2232.63, 0.676388
2233.59, 0.676574
2234.55, 0.676481
2235.51, 0.676760
2236.48, 0.676760
2237.44, 0.676760
2238.41, 0.676760
2239.38, 0.676946
2240.34, 0.677038
2241.31, 0.677317
2242.28, 0.677410
2243.25, 0.677317
2244.22, 0.677317
2245.19, 0.677224
2246.17, 0.677410
2247.14, 0.677689
2248.12, 0.677689
2249.09, 0.677689
2250.07, 0.677875
2251.04, 0.677968
2252.02, 0.677875
2253.0, 0.678061
2253.98, 0.678061
2254.96, 0.677892
2255.94, 0.678145
2256.92, 0.677723
2257.91, 0.677218
2258.89, 0.677639
2259.88, 0.677639
2260.86, 0.677470
2261.85, 0.677723
2262.83, 0.677723
2263.82, 0.677723
2264.81, 0.677639
2265.8, 0.677808
2266.79, 0.677639
2267.78, 0.677218
2268.78, 0.676628
2269.77, 0.676375
2270.76, 0.676543
2271.76, 0.676122
2272.75, 0.675532
2273.75, 0.675363
2274.75, 0.675110
2275.75, 0.674604
2276.75, 0.674604
2277.75, 0.674942
2278.75, 0.674352
2279.75, 0.673593
2280.75, 0.673087
2281.76, 0.672750
2282.76, 0.673003
2283.77, 0.673340
2284.77, 0.672919
2285.78, 0.672076
2286.79, 0.672160
2287.8, 0.672329
2288.81, 0.672413
2289.82, 0.672581
2290.83, 0.672329
2291.84, 0.672834
2292.86, 0.672581
2293.87, 0.671991
2294.89, 0.672160
2295.91, 0.672413
2296.92, 0.673171
2297.94, 0.673171
2298.96, 0.673003
2299.98, 0.672919
2301.0, 0.673340
2302.02, 0.673762
2303.04, 0.674352
2304.07, 0.674604
2305.09, 0.674773
2306.12, 0.674942
2307.15, 0.675026
2308.17, 0.675026
2309.2, 0.675785
2310.23, 0.676206
2311.26, 0.676206
2312.29, 0.676290
2313.32, 0.676712
2314.35, 0.676965
2315.39, 0.677470
2316.42, 0.677892
2317.46, 0.678145
2318.5, 0.678061
2319.53, 0.678145
2320.57, 0.678482
2321.61, 0.678566
2322.65, 0.678651
2323.69, 0.678651
2324.73, 0.678313
2325.78, 0.678398
2326.82, 0.678988
2327.86, 0.679072
2328.91, 0.678988
2329.96, 0.678819
2331.01, 0.678313
2332.05, 0.678566
2333.1, 0.678988
2334.15, 0.678988
2335.21, 0.679156
2336.26, 0.679156
2337.31, 0.678735
2338.36, 0.678313
2339.42, 0.678229
2340.48, 0.678061
2341.53, 0.677976
2342.59, 0.678229
2343.65, 0.678229
2344.71, 0.678313
2345.77, 0.678229
2346.83, 0.678229
2347.9, 0.678229
2348.96, 0.678145
2350.02, 0.677639
2351.09, 0.677639
2352.16, 0.677723
2353.23, 0.677555
2354.29, 0.677470
2355.36, 0.677302
2356.43, 0.676965
2357.51, 0.676796
2358.58, 0.677133
2359.65, 0.677049
2360.73, 0.676965
2361.8, 0.677049
2362.88, 0.676965
2363.96, 0.676796
2365.03, 0.676543
2366.11, 0.675953
2367.19, 0.675700
2368.27, 0.675700
2369.36, 0.675616
2370.44, 0.675532
2371.53, 0.675279
2372.61, 0.675026
2373.7, 0.675026
2374.78, 0.675279
2375.87, 0.674942
2376.96, 0.674689
2378.05, 0.674689
2379.14, 0.674352
2380.24, 0.673762
2381.33, 0.673424
2382.42, 0.673593
2383.52, 0.673424
2384.61, 0.673509
2385.71, 0.673509
2386.81, 0.673256
2387.91, 0.673256
2389.01, 0.673003
2390.11, 0.672834
2391.22, 0.672581
2392.32, 0.672329
2393.42, 0.672497
2394.53, 0.672581
2395.64, 0.672497
2396.74, 0.672581
2397.85, 0.672750
2398.96, 0.672581
2400.07, 0.672497
2401.18, 0.672497
2402.3, 0.672666
2403.41, 0.672497
2404.52, 0.672076
2405.64, 0.671991
2406.76, 0.672160
2407.88, 0.671738
2408.99, 0.671738
2410.11, 0.671823
2411.23, 0.671401
2412.36, 0.671738
2413.48, 0.671823
2414.6, 0.671233
2415.73, 0.671233
2416.85, 0.671233
2417.98, 0.670811
2419.11, 0.671401
2420.24, 0.671486
2421.37, 0.670980
2422.5, 0.670474
2423.64, 0.670390
2424.77, 0.670727
2425.9, 0.670811
2427.04, 0.670558
2428.18, 0.670474
2429.31, 0.670558
2430.45, 0.670305
2431.59, 0.670137
2432.73, 0.669800
2433.88, 0.669463
2435.02, 0.668957
2436.16, 0.669210
2437.31, 0.669294
2438.45, 0.669041
2439.6, 0.669125
2440.75, 0.668957
2441.9, 0.668704
2443.05, 0.668620
2444.2, 0.668198
2445.35, 0.667777
2446.51, 0.667861
2447.67, 0.667777
2448.82, 0.667018
2449.98, 0.666934
2451.14, 0.666934
2452.3, 0.666934
2453.46, 0.667018
2454.62, 0.666765
2455.78, 0.666681
2456.94, 0.666428
2458.11, 0.666175
2459.28, 0.666175
2460.44, 0.665838
2461.61, 0.665248
2462.78, 0.664911
2463.95, 0.665164
2465.12, 0.665164
2466.3, 0.664995
2467.47, 0.664573
2468.65, 0.664405
2469.82, 0.664321
2471.0, 0.663815
2472.18, 0.663731
2473.36, 0.664152
2474.54, 0.663899
2475.72, 0.663225
2476.9, 0.662888
2478.08, 0.662719
2479.27, 0.662719
2480.46, 0.662888
2481.64, 0.662382
2482.83, 0.661792
2484.02, 0.661623
2485.21, 0.661539
2486.4, 0.661539
2487.6, 0.661286
2488.79, 0.661370
2489.99, 0.661286
2491.18, 0.660949
2492.38, 0.660527
2493.58, 0.660106
2494.78, 0.659937
2495.98, 0.660274
2497.18, 0.660359
2498.39, 0.660022
2499.59, 0.659769
2500.8, 0.659769
2502.01, 0.659769
2503.21, 0.659347
2504.42, 0.659347
2505.63, 0.659263
2506.84, 0.659432
2508.06, 0.659347
2509.27, 0.659347
2510.49, 0.659347
2511.7, 0.659179
2512.92, 0.659179
2514.14, 0.659179
2515.36, 0.659094
2516.58, 0.658841
2517.8, 0.658673
2519.03, 0.658420
2520.25, 0.658420
2521.48, 0.658757
2522.7, 0.658420
2523.93, 0.657999
2525.16, 0.657999
2526.39, 0.658083
2527.62, 0.658336
2528.86, 0.658757
2530.09, 0.658251
2531.33, 0.657156
2532.56, 0.656566
2533.8, 0.657156
2535.04, 0.656734
2536.28, 0.655891
2537.52, 0.657071
2538.76, 0.657914
2540.01, 0.658251
2541.25, 0.657324
2542.5, 0.654964
2543.75, 0.655048
2544.99, 0.656566
2546.24, 0.656481
2547.49, 0.654964
2548.75, 0.655891
2550.0, 0.655385
2551.26, 0.653868
2552.51, 0.652857
2553.77, 0.654964
2555.03, 0.657408
2556.29, 0.657914
2557.55, 0.657493
2558.81, 0.655470
2560.08, 0.649653
2561.34, 0.643921
2562.61, 0.643753
2563.88, 0.645439
2565.14, 0.650159
2566.41, 0.655133
2567.68, 0.654205
2568.96, 0.648558
2570.23, 0.648726
2571.51, 0.652014
2572.78, 0.645186
2574.06, 0.645692
2575.34, 0.649485
2576.62, 0.647125
2577.9, 0.649991
2579.18, 0.653025
2580.47, 0.649401
2581.75, 0.647377
2583.04, 0.640044
2584.32, 0.638527
2585.61, 0.645186
2586.9, 0.643500
2588.2, 0.644764
2589.49, 0.648220
2590.78, 0.651002
2592.08, 0.647968
2593.37, 0.628159
2594.67, 0.609277
2595.97, 0.623354
2597.27, 0.643753
2598.57, 0.651845
2599.88, 0.650581
2601.18, 0.646450
2602.49, 0.643921
2603.79, 0.638105
2605.1, 0.628580
2606.41, 0.632289
2607.72, 0.640212
2609.03, 0.642151
2610.35, 0.644343
2611.66, 0.646787
2612.98, 0.646029
2614.3, 0.645692
2615.62, 0.637094
2616.94, 0.630772
2618.26, 0.636756
2619.58, 0.631277
2620.91, 0.631615
2622.23, 0.643837
2623.56, 0.647293
2624.89, 0.643079
2626.22, 0.633132
2627.55, 0.636166
2628.88, 0.634649
2630.21, 0.624281
2631.55, 0.631615
2632.89, 0.638358
2634.22, 0.638780
2635.56, 0.642573
2636.9, 0.643500
2638.25, 0.643163
2639.59, 0.642236
2640.93, 0.640634
2642.28, 0.639201
2643.63, 0.639032
2644.98, 0.635576
2646.33, 0.635155
2647.68, 0.637431
2649.03, 0.638021
2650.39, 0.635323
2651.74, 0.629591
2653.1, 0.628159
2654.46, 0.629423
2655.82, 0.628749
2657.18, 0.630603
2658.54, 0.626388
2659.9, 0.622848
2661.27, 0.622427
2662.64, 0.620993
2664.01, 0.607254
2665.38, 0.594525
2666.74, 0.593261
2668.12, 0.599667
2669.49, 0.586264
2670.87, 0.579015
2672.24, 0.593176
2673.62, 0.593851
2675.0, 0.583314
2676.38, 0.572356
2677.76, 0.570754
2679.15, 0.570164
2680.54, 0.575475
2681.92, 0.576149
2683.31, 0.571513
2684.7, 0.568900
2686.09, 0.565697
2687.48, 0.562746
2688.88, 0.559712
2690.27, 0.555244
2691.67, 0.546562
2693.07, 0.531052
2694.47, 0.521611
2695.87, 0.518661
2697.27, 0.514952
2698.67, 0.507112
2700.08, 0.495986
2701.49, 0.487050
2702.9, 0.484016
2704.31, 0.481909
2705.72, 0.480981
2707.13, 0.479717
2708.54, 0.475081
2709.96, 0.468337
2711.38, 0.468759
2712.8, 0.478115
2714.22, 0.480391
2715.64, 0.478115
2717.06, 0.473311
2718.49, 0.464881
2719.91, 0.450298
2721.34, 0.448697
2722.77, 0.448697
2724.2, 0.440099
2725.63, 0.441195
2727.07, 0.444060
2728.5, 0.441785
2729.94, 0.437738
2731.38, 0.433439
2732.82, 0.427202
2734.26, 0.418182
2735.7, 0.414895
2737.15, 0.411945
2738.59, 0.400481
2740.04, 0.391883
2741.49, 0.392304
2742.94, 0.395170
2744.39, 0.393821
2745.84, 0.389775
2747.3, 0.385392
2748.76, 0.380840
2750.21, 0.375782
2751.67, 0.370219
2753.14, 0.363391
2754.6, 0.351337
2756.06, 0.346954
2757.53, 0.350157
2759.0, 0.349061
2760.46, 0.344425
2761.94, 0.338693
2763.41, 0.338019
2764.88, 0.340463
2766.36, 0.339958
2767.83, 0.337766
2769.31, 0.335574
2770.79, 0.332708
2772.27, 0.332793
2773.76, 0.332708
2775.24, 0.330854
2776.73, 0.328241
2778.22, 0.326218
2779.71, 0.323942
2781.2, 0.321581
2782.69, 0.320401
2784.18, 0.319053
2785.68, 0.314922
2787.18, 0.311550
2788.68, 0.311635
2790.18, 0.312225
2791.68, 0.311213
2793.19, 0.309780
2794.69, 0.308094
2796.2, 0.306577
2797.71, 0.305650
2799.22, 0.304807
2800.73, 0.302700
2802.24, 0.299665
2803.76, 0.298991
2805.28, 0.300761
2806.8, 0.301267
2808.32, 0.301182
2809.84, 0.301351
2811.36, 0.301688
2812.89, 0.301857
2814.42, 0.301941
2815.94, 0.302700
2817.48, 0.303458
2819.01, 0.303711
2820.54, 0.304723
2822.08, 0.306408
2823.61, 0.307926
2825.15, 0.309106
2826.69, 0.310117
2828.23, 0.310960
2829.78, 0.312225
2831.32, 0.313236
2832.87, 0.313742
2834.42, 0.313995
2835.97, 0.314754
2837.52, 0.315344
2839.08, 0.316271
2840.63, 0.316945
2842.19, 0.317367
2843.75, 0.317535
2845.31, 0.317451
2846.87, 0.317114
2848.44, 0.316608
2850.0, 0.316439
2851.57, 0.316355
2853.14, 0.315934
2854.71, 0.315428
2856.28, 0.315428
2857.86, 0.315259
2859.43, 0.314669
2861.01, 0.314416
2862.59, 0.313995
2864.17, 0.313405
2865.76, 0.312815
2867.34, 0.312478
2868.93, 0.312309
2870.52, 0.311888
2872.11, 0.311213
2873.7, 0.310876
2875.29, 0.310707
2876.89, 0.310286
2878.49, 0.309780
2880.08, 0.309190
2881.69, 0.308853
2883.29, 0.308684
2884.89, 0.308516
2886.5, 0.308179
2888.11, 0.307673
2889.72, 0.307251
2891.33, 0.306999
2892.94, 0.306577
2894.56, 0.305903
2896.17, 0.305650
2897.79, 0.305397
2899.42, 0.304891
2901.04, 0.304133
2902.66, 0.303880
2904.29, 0.303795
2905.92, 0.303627
2907.55, 0.303374
2909.18, 0.303121
2910.81, 0.302952
2912.45, 0.302952
2914.08, 0.302700
2915.72, 0.302362
2917.36, 0.302109
2919.01, 0.301941
2920.65, 0.301688
2922.3, 0.301267
2923.94, 0.300929
2925.59, 0.301182
2927.25, 0.301435
2928.9, 0.301351
2930.56, 0.301014
2932.21, 0.300845
2933.87, 0.300508
2935.53, 0.300424
2937.2, 0.300508
2938.86, 0.300508
2940.53, 0.300424
2942.2, 0.300424
2943.87, 0.300424
2945.54, 0.300255
2947.22, 0.300339
2948.89, 0.300424
2950.57, 0.300339
2952.25, 0.300339
2953.93, 0.300171
2955.62, 0.300002
2957.3, 0.300255
2958.99, 0.300508
2960.68, 0.300424
2962.37, 0.300424
2964.07, 0.300929
2965.76, 0.301098
2967.46, 0.301182
2969.16, 0.301435
2970.86, 0.301857
2972.56, 0.302109
2974.27, 0.302278
2975.98, 0.302700
2977.69, 0.303121
2979.4, 0.303205
2981.11, 0.303205
2982.83, 0.303711
2984.54, 0.304217
2986.26, 0.304554
2987.98, 0.304807
2989.71, 0.304976
2991.43, 0.305228
2993.16, 0.305650
2994.89, 0.305987
2996.62, 0.306071
2998.35, 0.306324
3000.09, 0.306746
3001.83, 0.307336
3003.57, 0.307504
3005.31, 0.307420
3007.05, 0.307842
3008.79, 0.308263
3010.54, 0.308516
3012.29, 0.308769
3014.04, 0.309022
3015.8, 0.309106
3017.55, 0.309527
3019.31, 0.310117
3021.07, 0.310286
3022.83, 0.310370
3024.59, 0.310623
3026.36, 0.311045
3028.13, 0.311466
3029.9, 0.311719
3031.67, 0.311972
3033.44, 0.312225
3035.22, 0.312478
3037.0, 0.312562
3038.78, 0.312815
3040.56, 0.313152
3042.34, 0.313489
3044.13, 0.313742
3045.92, 0.313911
3047.71, 0.314164
3049.5, 0.314416
3051.3, 0.314416
3053.09, 0.314501
3054.89, 0.314838
3056.69, 0.315344
3058.5, 0.315765
3060.3, 0.315934
3062.11, 0.316271
3063.92, 0.316524
3065.73, 0.316777
3067.55, 0.317114
3069.36, 0.317367
3071.18, 0.317451
3073.0, 0.317535
3074.82, 0.317957
3076.65, 0.318210
3078.48, 0.318547
3080.31, 0.318631
3082.14, 0.318800
3083.97, 0.319305
3085.8, 0.319811
3087.64, 0.320148
3089.48, 0.320401
3091.33, 0.320738
3093.17, 0.321244
3095.02, 0.321581
3096.87, 0.321919
3098.72, 0.322424
3100.57, 0.323014
3102.43, 0.323436
3104.28, 0.323942
3106.14, 0.324363
3108.01, 0.324869
3109.87, 0.325375
3111.74, 0.326049
3113.61, 0.326808
3115.48, 0.327398
3117.35, 0.327988
3119.23, 0.328578
3121.1, 0.329252
3122.98, 0.329842
3124.87, 0.330517
3126.75, 0.331275
3128.64, 0.331865
3130.53, 0.332624
3132.42, 0.333467
3134.31, 0.334057
3136.21, 0.334647
3138.11, 0.335321
3140.01, 0.336080
3141.91, 0.337092
3143.82, 0.337934
3145.73, 0.338440
3147.64, 0.339283
3149.55, 0.340295
3151.46, 0.341053
3153.38, 0.341896
3155.3, 0.342739
3157.22, 0.343414
3159.14, 0.344256
3161.07, 0.345015
3163.0, 0.345774
3164.93, 0.346617
3166.86, 0.347628
3168.8, 0.348555
3170.74, 0.349230
3172.68, 0.350073
3174.62, 0.350916
3176.56, 0.351843
3178.51, 0.352770
3180.46, 0.353697
3182.42, 0.354625
3184.37, 0.355552
3186.33, 0.356310
3188.29, 0.357238
3190.25, 0.358249
3192.21, 0.359345
3194.18, 0.360272
3196.15, 0.361284
3198.12, 0.362380
3200.09, 0.363223
3202.07, 0.364150
3204.05, 0.365414
3206.03, 0.366173
3208.02, 0.367016
3210.0, 0.368280
3211.99, 0.369460
3213.98, 0.370472
3215.98, 0.371483
3217.97, 0.372579
3219.97, 0.373759
3221.97, 0.374771
3223.98, 0.375867
3225.98, 0.377131
3227.99, 0.378143
3230.0, 0.379070
3232.02, 0.380334
3234.03, 0.381683
3236.05, 0.382779
3238.07, 0.383706
3240.1, 0.384718
3242.12, 0.385813
3244.15, 0.386825
3246.18, 0.387921
3248.22, 0.389101
3250.25, 0.390281
3252.29, 0.391293
3254.33, 0.392220
3256.38, 0.393400
3258.43, 0.394580
3260.47, 0.395591
3262.53, 0.396519
3264.58, 0.397699
3266.64, 0.398879
3268.7, 0.399890
3270.76, 0.400986
3272.82, 0.402166
3274.89, 0.403347
3276.96, 0.404442
3279.04, 0.405370
3281.11, 0.406465
3283.19, 0.407730
3285.27, 0.408994
3287.35, 0.409921
3289.44, 0.410680
3291.53, 0.411860
3293.62, 0.413040
3295.71, 0.414136
3297.81, 0.415232
3299.91, 0.416412
3302.01, 0.417424
3304.11, 0.418604
3306.22, 0.419868
3308.33, 0.420880
3310.44, 0.421975
3312.56, 0.423071
3314.68, 0.423999
3316.8, 0.424841
3318.92, 0.425853
3321.05, 0.426865
3323.18, 0.427792
3325.31, 0.428719
3327.44, 0.429646
3329.58, 0.430742
3331.72, 0.431669
3333.86, 0.432681
3336.01, 0.433439
3338.16, 0.434282
3340.31, 0.435210
3342.46, 0.436053
3344.61, 0.436558
3346.77, 0.437148
3348.94, 0.437654
3351.1, 0.438329
3353.27, 0.439087
3355.44, 0.439677
3357.61, 0.440099
3359.79, 0.440604
3361.97, 0.440942
3364.15, 0.441363
3366.33, 0.442037
3368.52, 0.442712
3370.71, 0.443133
3372.9, 0.443555
3375.1, 0.444229
3377.3, 0.444903
3379.5, 0.445493
3381.71, 0.446336
3383.91, 0.447095
3386.12, 0.447938
3388.34, 0.448865
3390.55, 0.449793
3392.77, 0.450720
3394.99, 0.451563
3397.22, 0.452237
3399.45, 0.452911
3401.68, 0.453417
3403.91, 0.454176
3406.15, 0.454766
3408.39, 0.455103
3410.63, 0.455609
3412.87, 0.456199
3415.12, 0.456873
3417.37, 0.457632
3419.63, 0.458559
3421.88, 0.459655
3424.14, 0.460751
3426.41, 0.461762
3428.67, 0.462437
3430.94, 0.463364
3433.21, 0.464207
3435.49, 0.464881
3437.77, 0.465218
3440.05, 0.465893
3442.33, 0.466651
3444.62, 0.467494
3446.91, 0.468421
3449.2, 0.469264
3451.5, 0.470192
3453.8, 0.471203
3456.1, 0.472215
3458.41, 0.473395
3460.72, 0.474659
3463.03, 0.475671
3465.34, 0.476514
3467.66, 0.477188
3469.98, 0.477778
3472.31, 0.478368
3474.63, 0.478790
3476.96, 0.479295
3479.3, 0.479885
3481.64, 0.480223
3483.97, 0.480728
3486.32, 0.481234
3488.66, 0.481487
3491.01, 0.481656
3493.36, 0.481824
3495.72, 0.481993
3498.08, 0.482246
3500.44, 0.482499
3502.81, 0.482836
3505.18, 0.483257
3507.55, 0.483932
3509.92, 0.484943
3512.3, 0.485955
3514.68, 0.486882
3517.06, 0.487893
3519.45, 0.489073
3521.84, 0.490254
3524.24, 0.491097
3526.64, 0.491939
3529.04, 0.492951
3531.44, 0.494047
3533.85, 0.494890
3536.26, 0.495733
3538.67, 0.496576
3541.09, 0.497166
3543.51, 0.497756
3545.93, 0.498430
3548.36, 0.499020
3550.79, 0.499610
3553.22, 0.500200
3555.66, 0.500706
3558.1, 0.501127
3560.54, 0.501718
3562.99, 0.502223
3565.44, 0.502560
3567.9, 0.502982
3570.35, 0.503319
3572.81, 0.503741
3575.28, 0.504331
3577.75, 0.504584
3580.22, 0.505005
3582.69, 0.505511
3585.17, 0.506017
3587.65, 0.506354
3590.14, 0.506607
3592.62, 0.507028
3595.11, 0.507281
3597.61, 0.507618
3600.11, 0.508124
3602.61, 0.508714
3605.11, 0.509051
3607.62, 0.509135
3610.14, 0.509473
3612.65, 0.509978
3615.17, 0.510400
3617.69, 0.510737
3620.22, 0.511074
3622.75, 0.511496
3625.28, 0.511917
3627.82, 0.512254
3630.36, 0.512507
3632.9, 0.512844
3635.45, 0.513097
3638.0, 0.513434
3640.56, 0.513687
3643.12, 0.514024
3645.68, 0.514277
3648.24, 0.514446
3650.81, 0.514699
3653.39, 0.514952
3655.96, 0.515120
3658.54, 0.515205
3661.13, 0.515373
3663.71, 0.515626
3666.3, 0.515795
3668.9, 0.515795
3671.5, 0.515963
3674.1, 0.516132
3676.7, 0.515963
3679.31, 0.515963
3681.93, 0.516048
3684.54, 0.515963
3687.17, 0.515963
3689.79, 0.516048
3692.42, 0.516132
3695.05, 0.515963
3697.69, 0.515795
3700.32, 0.515710
3702.97, 0.515710
3705.61, 0.515626
3708.27, 0.515373
3710.92, 0.515289
3713.58, 0.515289
3716.24, 0.515205
3718.91, 0.515120
3721.58, 0.515036
3724.25, 0.514952
3726.93, 0.514867
3729.61, 0.514783
3732.29, 0.514867
3734.98, 0.515205
3737.67, 0.515373
3740.37, 0.515373
3743.07, 0.515458
3745.78, 0.515626
3748.49, 0.515879
3751.2, 0.516216
3753.91, 0.516638
3756.63, 0.517059
3759.36, 0.517312
3762.09, 0.517565
3764.82, 0.517902
3767.55, 0.518239
3770.29, 0.518661
3773.04, 0.519082
3775.78, 0.519335
3778.54, 0.519419
3781.29, 0.519504
3784.05, 0.519925
3786.82, 0.520347
3789.59, 0.520599
3792.36, 0.520599
3795.13, 0.520599
3797.92, 0.520684
3800.7, 0.520937
3803.49, 0.521021
3806.28, 0.520937
3809.08, 0.521021
3811.88, 0.520937
3814.68, 0.520937
3817.49, 0.520768
3820.31, 0.520431
3823.12, 0.520094
3825.94, 0.519925
3828.77, 0.519841
3831.6, 0.519504
3834.43, 0.519082
3837.27, 0.518914
3840.11, 0.518829
3842.96, 0.518745
3845.81, 0.518492
3848.67, 0.518071
3851.53, 0.517818
3854.39, 0.517818
3857.26, 0.517733
3860.13, 0.517733
3863.01, 0.517649
3865.89, 0.517649
3868.77, 0.517565
3871.66, 0.517480
3874.55, 0.517565
3877.45, 0.517565
3880.35, 0.517565
3883.26, 0.517649
3886.17, 0.517902
3889.09, 0.518239
3892.01, 0.518323
3894.93, 0.518408
3897.86, 0.518745
3900.79, 0.518914
3903.73, 0.519082
3906.67, 0.519166
3909.62, 0.519166
3912.57, 0.519082
3915.52, 0.519082
3918.48, 0.518998
3921.45, 0.518829
3924.42, 0.518661
3927.39, 0.518408
3930.37, 0.518071
3933.35, 0.517649
3936.34, 0.517312
3939.33, 0.517143
3942.32, 0.516890
3945.32, 0.516469
3948.33, 0.516048
3951.34, 0.515710
3954.35, 0.515542
3957.37, 0.515205
3960.39, 0.514783
3963.42, 0.514362
3966.45, 0.514024
3969.49, 0.513687
3972.53, 0.513266
3975.58, 0.512844
3978.63, 0.512507
3981.68, 0.512254
3984.75, 0.511917
3987.81, 0.511496
3990.88, 0.511243
3993.95, 0.511074
3997.03, 0.510906
4000.12, 0.510906
4003.21, 0.510821
4006.3, 0.510484
4009.4, 0.510231
4012.5, 0.510147
4015.61, 0.510063
4018.72, 0.510147
4021.84, 0.510063
4024.96, 0.509978
4028.09, 0.509894
4031.22, 0.509894
4034.36, 0.509978
4037.5, 0.509894
4040.65, 0.509810
4043.8, 0.509810
4046.96, 0.509557
4050.12, 0.509304
4053.29, 0.509135
4056.46, 0.509051
4059.64, 0.508967
4062.82, 0.508714
4066.0, 0.508461
4069.19, 0.508124
4072.39, 0.507787
4075.59, 0.507365
4078.8, 0.506775
4082.01, 0.506269
4085.23, 0.505679
4088.45, 0.504921
4091.68, 0.504246
4094.91, 0.503656
4098.15, 0.502898
4101.39, 0.501970
4104.63, 0.501127
4107.89, 0.500453
4111.14, 0.499526
4114.41, 0.498683
4117.67, 0.497840
4120.95, 0.497166
4124.23, 0.496407
4127.51, 0.495733
4130.8, 0.494890
4134.09, 0.493878
4137.39, 0.493120
4140.7, 0.492361
4144.01, 0.491518
4147.32, 0.490844
4150.64, 0.490169
4153.97, 0.489326
4157.3, 0.488483
4160.64, 0.487640
4163.98, 0.486882
4167.33, 0.486039
4170.68, 0.485027
4174.04, 0.483932
4177.4, 0.482920
4180.77, 0.481824
4184.14, 0.480728
4187.52, 0.479464
4190.91, 0.478284
4194.3, 0.477019
4197.69, 0.475839
4201.1, 0.474659
4204.5, 0.473226
4207.92, 0.471456
4211.34, 0.469349
4214.76, 0.466904
4218.19, 0.464207
4221.62, 0.461256
4225.06, 0.458728
4228.51, 0.456536
4231.96, 0.454766
4235.42, 0.453417
4238.88, 0.452996
4242.35, 0.453249
4245.83, 0.454007
4249.31, 0.455019
4252.79, 0.456115
4256.28, 0.455862
4259.78, 0.452996
4263.29, 0.448865
4266.79, 0.445156
4270.31, 0.442206
4273.83, 0.440014
4277.35, 0.438160
4280.89, 0.436390
4284.42, 0.434872
4287.97, 0.433439
4291.52, 0.432006
4295.07, 0.430911
4298.63, 0.429983
4302.2, 0.428972
4305.78, 0.428045
4309.35, 0.427286
4312.94, 0.426274
4316.53, 0.424841
4320.13, 0.423324
4323.73, 0.421554
4327.34, 0.419868
4330.96, 0.418014
4334.58, 0.415738
4338.21, 0.413462
4341.84, 0.411017
4345.48, 0.408236
4349.12, 0.405538
4352.77, 0.402841
4356.43, 0.400059
4360.1, 0.397277
4363.76, 0.394496
4367.44, 0.391377
4371.12, 0.388174
4374.81, 0.385055
4378.51, 0.381936
4382.21, 0.378733
4385.92, 0.375445
4389.63, 0.372073
4393.35, 0.368786
4397.08, 0.365499
4400.81, 0.362464
4404.55, 0.359514
4408.29, 0.356816
4412.04, 0.354287
4415.8, 0.351927
4419.57, 0.349483
4423.34, 0.347291
4427.12, 0.345015
4430.9, 0.342739
4434.69, 0.340716
4438.49, 0.338693
4442.29, 0.336586
4446.1, 0.334226
4449.92, 0.331528
4453.74, 0.328746
4457.57, 0.325965
4461.41, 0.323183
4465.25, 0.320486
4469.1, 0.318125
4472.95, 0.316355
4476.82, 0.314838
4480.69, 0.313321
4484.56, 0.311888
4488.44, 0.310455
4492.33, 0.309106
4496.23, 0.308010
4500.13, 0.307336
4504.04, 0.306999
4507.96, 0.306746
4511.88, 0.306577
4515.81, 0.306408
4519.75, 0.305903
4523.69, 0.305228
4527.65, 0.304301
4531.6, 0.303205
4535.57, 0.301941
4539.54, 0.300676
4543.52, 0.299075
4547.5, 0.297305
4551.5, 0.295366
4555.5, 0.293343
4559.5, 0.291067
4563.52, 0.288707
4567.54, 0.286347
4571.56, 0.283986
4575.6, 0.281710
4579.64, 0.279603
4583.69, 0.277496
4587.75, 0.275473
4591.81, 0.273534
4595.88, 0.271679
4599.96, 0.269656
4604.04, 0.267465
4608.14, 0.265020
4612.24, 0.262491
4616.34, 0.259710
4620.46, 0.256844
4624.58, 0.253978
4628.71, 0.251027
4632.84, 0.248077
4636.99, 0.245043
4641.14, 0.242008
4645.3, 0.239395
4649.47, 0.236950
4653.64, 0.234590
4657.82, 0.232483
4662.01, 0.230628
4666.21, 0.228774
4670.41, 0.227004
4674.62, 0.225318
4678.84, 0.223969
4683.07, 0.223210
4687.3, 0.222873
4691.54, 0.222873
4695.79, 0.223210
4700.05, 0.223548
4704.31, 0.223969
4708.59, 0.224306
4712.87, 0.224390
4717.15, 0.224475
4721.45, 0.224390
4725.76, 0.224222
4730.07, 0.223885
4734.39, 0.223126
4738.72, 0.222030
4743.05, 0.220597
4747.39, 0.218827
4751.75, 0.216973
4756.1, 0.214950
4760.47, 0.212758
4764.85, 0.210819
4769.23, 0.209218
4773.62, 0.207869
4778.02, 0.206942
4782.43, 0.206604
4786.85, 0.206773
4791.27, 0.207279
4795.7, 0.207953
4800.14, 0.208628
4804.59, 0.209470
4809.05, 0.210061
4813.51, 0.210566
4817.99, 0.210819
4822.47, 0.210735
4826.96, 0.210229
4831.46, 0.209386
4835.96, 0.208122
4840.48, 0.206520
4845.0, 0.204581
4849.54, 0.202474
4854.08, 0.200030
4858.63, 0.197332
4863.18, 0.194466
4867.75, 0.191347
4872.33, 0.187891
4876.91, 0.184351
4881.5, 0.180473
4886.1, 0.176174
4890.71, 0.171538
4895.33, 0.166902
4899.96, 0.162519
4904.59, 0.158304
4909.24, 0.154848
4913.89, 0.152235
4918.55, 0.150212
4923.22, 0.148863
4927.9, 0.147936
4932.59, 0.147093
4937.29, 0.146334
4942.0, 0.145744
4946.71, 0.144986
4951.44, 0.143721
4956.17, 0.142120
4960.91, 0.140181
4965.67, 0.137736
4970.43, 0.134870
4975.2, 0.132173
4979.98, 0.129644
4984.76, 0.127537
4989.56, 0.125682
4994.37, 0.124081
4999.18, 0.122901
5004.01, 0.121805
5008.84, 0.120962
5013.69, 0.120119
5018.54, 0.119360
5023.4, 0.118686
5028.28, 0.118096
5033.16, 0.117337
5038.05, 0.116494
5042.95, 0.115736
5047.86, 0.115314
5052.78, 0.114977
5057.71, 0.114808
5062.65, 0.114724
5067.6, 0.114555
5072.56, 0.114134
5077.53, 0.113628
5082.5, 0.113038
5087.49, 0.112364
5092.49, 0.111605
5097.5, 0.110594
5102.51, 0.109414
5107.54, 0.107896
5112.58, 0.106295
5117.62, 0.104777
5122.68, 0.103176
5127.75, 0.101659
5132.82, 0.100057
5137.91, 0.0986240
5143.01, 0.0971070
5148.12, 0.0958420
5153.23, 0.0949150
5158.36, 0.0938190
5163.5, 0.0926390
5168.65, 0.0913750
5173.81, 0.0901100
5178.98, 0.0888460
5184.15, 0.0875810
5189.34, 0.0863170
5194.54, 0.0848840
5199.75, 0.0832820
5204.98, 0.0818490
5210.21, 0.0799950
5215.45, 0.0779720
5220.7, 0.0763700
5225.96, 0.0746000
5231.23, 0.0725770
5236.52, 0.0707230
5241.81, 0.0693740
5247.12, 0.0681100
5252.44, 0.0670140
5257.76, 0.0660860
5263.1, 0.0653280
5268.45, 0.0645690
5273.81, 0.0637260
5279.18, 0.0630520
5284.56, 0.0624620
5289.95, 0.0615350
5295.36, 0.0610290
5300.77, 0.0606920
5306.2, 0.0602700
5311.63, 0.0599330
5317.08, 0.0595960
5322.54, 0.0591740
5328.01, 0.0589210
5333.49, 0.0586690
5338.98, 0.0583310
5344.49, 0.0575730
5350.0, 0.0569830
5355.53, 0.0570670
5361.07, 0.0573200
5366.62, 0.0574040
5372.18, 0.0575730
5377.75, 0.0579940
5383.34, 0.0584160
5388.93, 0.0588370
5394.54, 0.0591740
5400.16, 0.0595120
5405.79, 0.0599330
5411.44, 0.0601860
5417.09, 0.0598490
5422.76, 0.0594270
5428.43, 0.0601020
5434.12, 0.0605230
5439.83, 0.0603540
5445.54, 0.0601020
5451.26, 0.0596800
5457.0, 0.0590900
5462.75, 0.0581630
5468.52, 0.0576570
5474.29, 0.0569830
5480.08, 0.0561400
5485.88, 0.0555500
5491.69, 0.0547070
5497.51, 0.0536110
5503.35, 0.0523470
5509.2, 0.0511660
5515.06, 0.0496490
5520.93, 0.0480480
5526.82, 0.0466150
5532.71, 0.0454340
5538.63, 0.0442540
5544.55, 0.0431590
5550.49, 0.0420630
5556.44, 0.0413880
5562.4, 0.0410510
5568.37, 0.0407140
5574.36, 0.0400400
5580.36, 0.0397870
5586.37, 0.0402080
5592.4, 0.0403770
5598.44, 0.0401240
5604.49, 0.0400400
5610.56, 0.0399550
5616.63, 0.0397020
5622.73, 0.0396180
5628.83, 0.0395340
5634.95, 0.0391120
5641.08, 0.0386910
5647.23, 0.0391970
5653.39, 0.0397870
5659.56, 0.0403770
5665.74, 0.0412200
5671.94, 0.0413040
5678.15, 0.0417260
5684.38, 0.0423160
5690.62, 0.0425680
5696.87, 0.0429900
5703.14, 0.0430740
5709.42, 0.0425680
5715.72, 0.0428210
5722.03, 0.0431590
5728.35, 0.0433270
5734.69, 0.0434110
5741.03, 0.0432430
5747.4, 0.0429060
5753.78, 0.0432430
5760.17, 0.0425680
5766.58, 0.0415570
5773.0, 0.0425680
5779.44, 0.0433270
5785.88, 0.0434960
5792.35, 0.0435800
5798.83, 0.0435800
5805.32, 0.0434960
5811.83, 0.0431590
5818.35, 0.0420630
5824.89, 0.0418940
5831.45, 0.0426530
5838.01, 0.0429900
5844.59, 0.0429900
5851.19, 0.0425680
5857.8, 0.0418940
5864.43, 0.0413040
5871.07, 0.0409670
5877.73, 0.0393650
5884.4, 0.0389440
5891.09, 0.0389440
5897.79, 0.0382690
5904.5, 0.0391120
5911.23, 0.0393650
5917.98, 0.0390280
5924.75, 0.0386910
5931.53, 0.0373420
5938.32, 0.0370050
5945.13, 0.0383540
5951.96, 0.0389440
5958.8, 0.0392810
5965.65, 0.0389440
5972.53, 0.0391970
5979.42, 0.0396180
5986.32, 0.0391970
5993.24, 0.0394500
6000.18, 0.0402080
6007.13, 0.0400400
6014.1, 0.0396180
6021.08, 0.0397020
6028.09, 0.0395340
6035.1, 0.0391120
6042.14, 0.0373420
6049.19, 0.0357410
6056.25, 0.0371740
6063.34, 0.0378480
6070.44, 0.0370050
6077.55, 0.0366680
6084.69, 0.0369210
6091.84, 0.0365840
6099.0, 0.0359090
6106.19, 0.0346450
6113.39, 0.0335490
6120.61, 0.0335490
6127.84, 0.0333800
6135.09, 0.0327060
6142.36, 0.0319470
6149.65, 0.0312730
6156.95, 0.0304300
6164.27, 0.0298400
6171.61, 0.0294190
6178.97, 0.0285760
6186.34, 0.0279010
6193.73, 0.0282380
6201.14, 0.0284070
6208.57, 0.0282380
6216.01, 0.0281540
6223.47, 0.0284070
6230.95, 0.0285760
6238.45, 0.0286600
6245.97, 0.0287440
6253.5, 0.0289130
6261.06, 0.0292500
6268.63, 0.0295870
6276.21, 0.0299240
6283.82, 0.0302620
6291.45, 0.0305140
6299.1, 0.0309360
6306.76, 0.0312730
6314.44, 0.0316100
6322.14, 0.0321160
6329.86, 0.0326220
6337.6, 0.0324530
6345.35, 0.0324530
6353.13, 0.0337180
6360.92, 0.0343920
6368.74, 0.0345610
6376.57, 0.0352350
6384.43, 0.0360780
6392.3, 0.0364150
6400.19, 0.0361620
6408.1, 0.0348130
6416.03, 0.0346450
6423.98, 0.0360780
6431.95, 0.0366680
6439.94, 0.0370050
6447.95, 0.0370050
6455.98, 0.0366680
6464.03, 0.0362460
6472.1, 0.0354030
6480.19, 0.0343920
6488.31, 0.0331280
6496.44, 0.0326220
6504.59, 0.0333800
6512.76, 0.0330430
6520.95, 0.0322000
6529.16, 0.0319470
6537.4, 0.0315260
6545.65, 0.0310200
6553.92, 0.0305140
6562.22, 0.0301770
6570.54, 0.0295030
6578.88, 0.0296710
6587.23, 0.0299240
6595.61, 0.0298400
6604.02, 0.0298400
6612.44, 0.0295870
6620.89, 0.0294190
6629.35, 0.0286600
6637.84, 0.0279860
6646.35, 0.0285760
6654.88, 0.0291660
6663.44, 0.0289970
6672.01, 0.0284070
6680.61, 0.0278170
6689.23, 0.0278170
6697.88, 0.0277330
6706.54, 0.0271430
6715.23, 0.0268900
6723.94, 0.0268050
6732.67, 0.0268050
6741.42, 0.0265530
6750.2, 0.0263000
6759.0, 0.0261310
6767.82, 0.0258780
6776.67, 0.0257100
6785.54, 0.0253720
6794.44, 0.0254570
6803.35, 0.0260470
6812.29, 0.0263000
6821.26, 0.0259630
6830.24, 0.0259630
6839.25, 0.0263000
6848.29, 0.0259630
6857.35, 0.0252040
6866.43, 0.0249510
6875.54, 0.0256250
6884.67, 0.0257100
6893.82, 0.0254570
6903.0, 0.0251200
6912.2, 0.0250350
6921.43, 0.0247820
6930.69, 0.0245300
6939.96, 0.0241920
6949.27, 0.0236020
6958.59, 0.0229280
6967.95, 0.0228440
6977.33, 0.0228440
6986.73, 0.0226750
6996.16, 0.0225060
7005.61, 0.0224220
7015.09, 0.0221690
7024.6, 0.0219160
7034.13, 0.0215790
7043.69, 0.0209890
7053.27, 0.0207360
7062.88, 0.0207360
7072.52, 0.0205680
7082.18, 0.0203150
7091.87, 0.0199780
7101.58, 0.0195560
7111.32, 0.0191350
7121.09, 0.0187130
7130.88, 0.0182920
7140.71, 0.0177860
7150.56, 0.0173650
7160.43, 0.0169430
7170.33, 0.0163530
7180.27, 0.0160160
7190.23, 0.0156790
7200.21, 0.0153410
7210.23, 0.0150040
7220.27, 0.0147510
7230.34, 0.0144140
7240.44, 0.0140770
7250.56, 0.0136560
7260.72, 0.0133180
7270.9, 0.0128130
7281.12, 0.0125600
7291.36, 0.0123070
7301.63, 0.0119700
7311.93, 0.0117170
7322.25, 0.0115480
7332.61, 0.0112950
7343.0, 0.0110430
7353.41, 0.0109580
7363.86, 0.0107050
7374.33, 0.0106210
7384.83, 0.0104520
7395.37, 0.0104520
7405.93, 0.0103680
7416.53, 0.0100310
7427.15, 0.00986200
7437.81, 0.00977800
7448.5, 0.00977800
7459.22, 0.00977800
7469.96, 0.00977800
7480.74, 0.00952500
7491.55, 0.00961000
7502.39, 0.00961000
7513.27, 0.00969400
7524.17, 0.00986200
7535.11, 0.00977800
7546.08, 0.00961000
7557.08, 0.00977800
7568.11, 0.00977800
7579.17, 0.00986200
7590.27, 0.0100310
7601.4, 0.0102000
7612.56, 0.0104520
7623.76, 0.0107050
7634.98, 0.0111270
7646.24, 0.0116330
7657.54, 0.0120540
7668.87, 0.0126440
7680.23, 0.0132340
7691.62, 0.0137400
7703.05, 0.0142460
7714.51, 0.0150890
7726.01, 0.0159320
7737.54, 0.0167740
7749.11, 0.0178700
7760.71, 0.0190500
7772.35, 0.0202310
7784.02, 0.0214110
7795.72, 0.0225910
7807.46, 0.0236870
7819.23, 0.0249510
7831.04, 0.0267210
7842.89, 0.0287440
7854.77, 0.0308520
7866.69, 0.0331280
7878.65, 0.0358250
7890.64, 0.0386910
7902.67, 0.0417260
7914.74, 0.0452660
7926.84, 0.0489750
7938.98, 0.0531050
7951.16, 0.0575730
7963.37, 0.0622090
7975.62, 0.0669290
7987.91, 0.0714810
8000.24, 0.0762860
8012.6, 0.0812590
8025.01, 0.0865700
8037.45, 0.0921330
8049.93, 0.0981180
8062.45, 0.104524
8075.01, 0.111352
8087.61, 0.118433
8100.24, 0.125682
8112.91, 0.133353
8125.63, 0.141108
8138.39, 0.148610
8151.18, 0.156028
8164.02, 0.162856
8176.9, 0.169094
8189.81, 0.174826
8202.77, 0.179715
8215.77, 0.184182
8228.82, 0.188144
8241.9, 0.191853
8255.02, 0.195393
8268.19, 0.198849
8281.39, 0.202305
8294.65, 0.205846
8307.94, 0.209133
8321.28, 0.212421
8334.66, 0.215455
8348.08, 0.218068
8361.54, 0.220429
8375.05, 0.222367
8388.6, 0.223969
8402.2, 0.225233
8415.84, 0.225992
8429.52, 0.226498
8443.25, 0.226835
8457.02, 0.227256
8470.84, 0.227509
8484.7, 0.227509
8498.61, 0.227088
8512.57, 0.226329
8526.57, 0.225571
8540.62, 0.224053
8554.71, 0.221862
8568.85, 0.218574
8583.04, 0.213264
8597.27, 0.205762
8611.55, 0.197838
8625.88, 0.193455
8640.26, 0.195731
8654.68, 0.202221
8669.16, 0.208037
8683.68, 0.211662
8698.25, 0.213432
8712.87, 0.214107
8727.53, 0.213854
8742.25, 0.213179
8757.02, 0.212084
8771.83, 0.210988
8786.7, 0.209892
8801.62, 0.208628
8816.59, 0.207195
8831.61, 0.205677
8846.68, 0.204076
8861.8, 0.202558
8876.97, 0.200704
8892.2, 0.198175
8907.48, 0.195562
8922.81, 0.193033
8938.2, 0.190420
8953.63, 0.187975
8969.13, 0.185868
8984.67, 0.184267
9000.27, 0.183424
9015.92, 0.183424
9031.63, 0.184098
9047.39, 0.185615
9063.21, 0.187638
9079.08, 0.189661
9095.01, 0.192190
9111.0, 0.194972
9127.04, 0.197669
9143.13, 0.200030
9159.28, 0.201884
9175.49, 0.203233
9191.76, 0.204076
9208.09, 0.204160
9224.47, 0.203570
9240.92, 0.202558
9257.42, 0.201210
9273.98, 0.199355
9290.6, 0.197164
9307.28, 0.194803
9324.02, 0.192022
9340.82, 0.188734
9357.68, 0.184941
9374.6, 0.180726
9391.58, 0.176849
9408.62, 0.173983
9425.73, 0.172297
9442.9, 0.171201
9460.13, 0.170021
9477.42, 0.168756
9494.78, 0.168166
9512.2, 0.168925
9529.69, 0.170274
9547.24, 0.171538
9564.86, 0.171875
9582.54, 0.171707
9600.28, 0.171538
9618.1, 0.170864
9635.97, 0.169937
9653.92, 0.169009
9671.93, 0.167745
9690.01, 0.165806
9708.16, 0.163193
9726.37, 0.160496
9744.65, 0.157798
9763.0, 0.155269
9781.43, 0.153668
9799.92, 0.153246
9818.48, 0.154258
9837.1, 0.156450
9855.8, 0.158810
9874.58, 0.160159
9893.42, 0.160411
9912.34, 0.159568
9931.33, 0.157967
9950.39, 0.155944
9969.52, 0.153331
9988.74, 0.150380
10008.0, 0.147430
10027.4, 0.144480
10046.8, 0.141361
10066.3, 0.138158
10085.9, 0.134786
10105.6, 0.131246
10125.3, 0.127705
10145.1, 0.124165
10165.0, 0.120625
10185.0, 0.117421
10205.0, 0.114134
10225.2, 0.110931
10245.4, 0.108065
10265.7, 0.105030
10286.0, 0.101911
10306.5, 0.0992980
10327.0, 0.0970220
10347.6, 0.0949990
10368.3, 0.0932290
10389.1, 0.0912900
10409.9, 0.0896040
10430.9, 0.0880870
10451.9, 0.0867380
10473.0, 0.0855580
10494.2, 0.0843780
10515.5, 0.0831980
10536.9, 0.0821870
10558.4, 0.0815970
10579.9, 0.0808380
10601.5, 0.0800790
10623.3, 0.0794050
10645.1, 0.0787310
10667.0, 0.0778030
10689.0, 0.0771290
10711.1, 0.0762020
10733.2, 0.0753590
10755.5, 0.0745160
10777.9, 0.0735040
10800.3, 0.0728300
10822.9, 0.0720710
10845.5, 0.0713970
10868.2, 0.0710600
10891.1, 0.0703010
10914.0, 0.0695430
10937.0, 0.0688680
10960.2, 0.0682780
10983.4, 0.0678570
11006.7, 0.0671820
11030.1, 0.0665920
11053.6, 0.0660860
11077.3, 0.0656650
11101.0, 0.0649910
11124.8, 0.0644010
11148.7, 0.0638950
11172.7, 0.0633050
11196.9, 0.0627150
11221.1, 0.0620400
11245.4, 0.0612820
11269.9, 0.0606920
11294.4, 0.0603540
11319.1, 0.0595960
11343.9, 0.0588370
11368.8, 0.0584160
11393.7, 0.0578260
11418.8, 0.0571510
11444.0, 0.0565610
11469.4, 0.0561400
11494.8, 0.0554650
11520.3, 0.0547910
11546.0, 0.0545380
11571.8, 0.0542010
11597.7, 0.0535270
11623.7, 0.0531890
11649.8, 0.0527680
11676.0, 0.0525150
11702.4, 0.0520090
11728.9, 0.0512510
11755.5, 0.0505760
11782.2, 0.0501550
11809.0, 0.0496490
11836.0, 0.0489750
11863.0, 0.0483000
11890.3, 0.0473730
11917.6, 0.0462770
11945.0, 0.0454340
11972.6, 0.0446760
12000.4, 0.0434110
12028.2, 0.0421470
12056.2, 0.0411350
12084.3, 0.0401240
12112.5, 0.0388600
12140.9, 0.0373420
12169.4, 0.0358250
12198.0, 0.0343920
12226.8, 0.0328750
12255.7, 0.0315260
12284.7, 0.0305990
12313.9, 0.0310200
12343.2, 0.0332960
12372.7, 0.0378480
12402.3, 0.0436640
12432.0, 0.0482160
12461.9, 0.0509980
12491.9, 0.0516720
12522.1, 0.0508290
12552.4, 0.0491430
12582.9, 0.0476260
12613.5, 0.0472050
12644.3, 0.0485530
12675.2, 0.0511660
12706.3, 0.0545380
12737.5, 0.0576570
12768.9, 0.0596800
12800.4, 0.0607760
12832.1, 0.0611130
12863.9, 0.0607760
12895.9, 0.0595120
12928.1, 0.0583310
12960.4, 0.0574040
12992.9, 0.0576570
13025.5, 0.0585840
13058.3, 0.0584160
13091.3, 0.0572360
13124.4, 0.0555500
13157.8, 0.0534420
13191.2, 0.0507450
13224.9, 0.0484690
13258.7, 0.0466150
13292.7, 0.0455190
13326.9, 0.0450130
13361.2, 0.0451820
13395.7, 0.0457720
13430.4, 0.0464460
13465.3, 0.0466990
13500.4, 0.0466150
13535.7, 0.0460240
13571.1, 0.0453500
13606.7, 0.0451820
13642.5, 0.0455190
13678.5, 0.0456870
13714.7, 0.0460240
13751.1, 0.0468670
13787.6, 0.0480480
13824.4, 0.0486380
13861.4, 0.0486380
13898.5, 0.0479630
13935.9, 0.0467830
13973.5, 0.0456870
14011.2, 0.0445910
14049.2, 0.0433270
14087.4, 0.0423160
14125.8, 0.0413880
14164.3, 0.0403770
14203.2, 0.0389440
14242.2, 0.0375950
14281.4, 0.0364150
14320.9, 0.0362460
14360.5, 0.0373420
14400.4, 0.0387750
14440.5, 0.0391970
14480.9, 0.0387750
14521.4, 0.0379320
14562.2, 0.0370890
14603.3, 0.0367520
14644.5, 0.0364150
14686.0, 0.0361620
14727.7, 0.0354030
14769.7, 0.0350660
14811.9, 0.0350660
14854.3, 0.0346450
14897.0, 0.0346450
14939.9, 0.0352350
14983.1, 0.0360780
15026.5, 0.0383540
15070.2, 0.0418100
15114.2, 0.0459400
15158.3, 0.0499020
15202.8, 0.0531050
15247.5, 0.0553810
15292.5, 0.0563930
15337.7, 0.0558030
15383.2, 0.0531890
15429.0, 0.0494810
15475.1, 0.0457720
15521.4, 0.0429060
15568.0, 0.0402080
15614.9, 0.0377640
15662.1, 0.0361620
15709.6, 0.0348130
15757.3, 0.0342230
15805.4, 0.0350660
15853.7, 0.0369210
15902.3, 0.0397870
15951.2, 0.0432430
16000.5, 0.0473730
16050.0, 0.0520940
16099.8, 0.0563930
16150.0, 0.0595960
16200.5, 0.0622930
16251.3, 0.0643160
16302.4, 0.0661710
16353.8, 0.0703010
16405.5, 0.0755270
16457.6, 0.0817650
16510.0, 0.0875810
16562.8, 0.0914590
16615.9, 0.0939030
16669.3, 0.0946620
16723.1, 0.0939030
16777.2, 0.0922180
16831.7, 0.0901100
16886.5, 0.0884240
16941.7, 0.0863170
16997.2, 0.0836200
17053.1, 0.0805850
17109.4, 0.0778880
17166.1, 0.0750220
17223.1, 0.0718180
17280.5, 0.0689520
17338.3, 0.0660020
17396.5, 0.0639790
17455.1, 0.0616190
17514.0, 0.0586690
17573.4, 0.0557180
17633.2, 0.0531050
17693.4, 0.0515880
17754.0, 0.0510820
17815.0, 0.0504080
17876.4, 0.0511660
17938.3, 0.0529370
18000.5, 0.0558030
18063.3, 0.0605230
18126.4, 0.0661710
18190.0, 0.0711440
18254.1, 0.0757800
18318.6, 0.0804160
18383.5, 0.0864010
18449.0, 0.0928080
18514.9, 0.0982020
18581.2, 0.101490
18648.0, 0.101321
18715.4, 0.0987080
18783.2, 0.0948310
18851.5, 0.0912900
18920.3, 0.0861480
18989.6, 0.0799950
19059.4, 0.0752740
19129.7, 0.0708070
19200.6, 0.0674350
19272.0, 0.0654120
19343.9, 0.0649060
19416.3, 0.0661710
19489.3, 0.0691210
19562.8, 0.0751060
19637.0, 0.0856430
19711.6, 0.0978650
19786.8, 0.108065
19862.6, 0.113965
19939.0, 0.118517
20016.0, 0.121215
20093.6, 0.122648
20171.8, 0.124249
20250.6, 0.126104
20330.0, 0.128043
20410.0, 0.129897
20490.7, 0.132932
20572.0, 0.136640
20654.0, 0.138242
20736.6, 0.137146
20819.9, 0.134449
20903.8, 0.130993
20988.5, 0.127368
21073.8, 0.123491
21159.8, 0.120540
21246.5, 0.119192
21334.0, 0.120793
21422.1, 0.123069
21511.0, 0.124502
21600.7, 0.126357
21691.0, 0.129476
21782.1, 0.131920
21874.0, 0.135039
21966.7, 0.139675
22060.2, 0.142625
22154.5, 0.147599
22249.6, 0.150718
22345.5, 0.148442
22442.2, 0.141867
22539.8, 0.135798
22638.2, 0.132510
22737.5, 0.130318
22837.7, 0.128295
22938.7, 0.128043
23040.7, 0.127790
23143.5, 0.129223
23247.3, 0.132089
23352.1, 0.135545
23457.7, 0.137736
23564.4, 0.139422
23672.0, 0.139675
23780.5, 0.137399
23890.1, 0.132004
24000.7, 0.123539
24112.3, 0.114810
24225.0, 0.103486
24338.7, 0.0953450
24453.5, 0.0911940
24569.4, 0.0877300
24686.4, 0.0847920
24804.5, 0.0848890
24923.8, 0.0915620
25044.2, 0.0974500
25165.8, 0.0981480
25288.6, 0.0971080
25412.5, 0.0942310
25537.7, 0.0914270
25664.1, 0.0920760
25791.8, 0.0959570
25920.8, 0.102005
26051.1, 0.111150
26182.6, 0.121703
26315.5, 0.131362
26449.8, 0.138646
26585.4, 0.141695
26722.5, 0.142013
26860.9, 0.142050
27000.8, 0.140128
27142.1, 0.137300
27285.0, 0.132464
27429.4, 0.125229
27575.3, 0.115349
27722.7, 0.106999
27871.8, 0.101539
28022.4, 0.0971930
28174.7, 0.0910960
28328.7, 0.0860040
28484.4, 0.0830410
28641.7, 0.0795640
28800.9, 0.0768830
28961.8, 0.0739940
29124.5, 0.0723410
29289.0, 0.0735650
29455.4, 0.0764420
29623.8, 0.0815110
29794.0, 0.0883540
29966.3, 0.0958100
30140.5, 0.101588
30316.7, 0.102751
30495.1, 0.101723
30675.5, 0.101307
30858.1, 0.0978670
31042.8, 0.0950020
31229.8, 0.0935200
31419.1, 0.0914150
31610.7, 0.0896270
31804.6, 0.0891130
32000.9, 0.0892970
32199.7, 0.0878640
32400.9, 0.0867380
32604.8, 0.0861630
32811.1, 0.0844370
33020.1, 0.0821590
33231.8, 0.0838730
33446.2, 0.0851830
33663.4, 0.0861500
33883.4, 0.0877910
34106.3, 0.0903010
34332.1, 0.0904230
34561.0, 0.0882560
34792.9, 0.0865910
35028.0, 0.0852570
35266.3, 0.0821470
35507.8, 0.0770050
35752.7, 0.0740670
36001.0, 0.0754020
36252.8, 0.0789030
36508.1, 0.0803230
36767.0, 0.0815720
37029.7, 0.0821960
37296.1, 0.0814620
37566.3, 0.0807150
37840.5, 0.0804090
38118.8, 0.0821720
38401.2, 0.0859180
38687.8, 0.0899460
38978.6, 0.0923330
39273.9, 0.0915000
39573.7, 0.0924310
39878.1, 0.0946470
40187.3, 0.0952220
40501.2, 0.0966790
40820.0, 0.0974750
41144.0, 0.103743
41473.2, 0.107942
41807.6, 0.106608
42147.5, 0.101282
42493.0, 0.0963970
42844.2, 0.0945000
43201.2, 0.0969610
43564.3, 0.0962630
43933.5, 0.0923080
44309.0, 0.0930060
44691.0, 0.0929940
45079.6, 0.0926880
45475.0, 0.0959570
45877.5, 0.100719
46287.1, 0.101625
46704.2, 0.0992620
47128.7, 0.100021
47561.1, 0.0992870
48001.5, 0.100682
48450.1, 0.102360
48907.2, 0.0992990
49373.0, 0.0973650
49847.7, 0.102066
50331.5, 0.101527
50825.0, 0.100388
51328.2, 0.0988830
51841.5, 0.104404
52365.1, 0.107856
52899.4, 0.107844
53444.8, 0.109264
54001.5, 0.113476
54570.1, 0.117038
55150.6, 0.115716
55743.6, 0.112925
56349.5, 0.109558
56968.7, 0.108775
57601.7, 0.107146
58248.9, 0.101956
58910.9, 0.0996780
59588.1, 0.0977930
60281.0, 0.0977200
60990.2, 0.101429
61716.3, 0.101123
62459.8, 0.0981110
63221.6, 0.0939610
64002.1, 0.0952590
64802.1, 0.0926880
65622.1, 0.107342
66463.4, 0.141731
67326.6, 0.122511
68212.4, 0.106510
69121.9, 0.105530
70056.0, 0.100731
71015.7, 0.0974500
72002.0, 0.103192
73016.3, 0.109191
74059.4, 0.110036
75132.7, 0.104771
76237.6, 0.107930
77375.5, 0.111505
78547.9, 0.106118
79756.3, 0.106045
81002.5, 0.107575
82288.5, 0.101956
83615.7, 0.111921
84986.5, 0.129966
86402.9, 0.131864
87867.4, 0.125045
89382.4, 0.121299
90950.5, 0.120846
92574.6, 0.118263
94257.2, 0.121568
96002.7, 0.138095
97814.1, 0.153399
99695.1, 0.162397
101650.0, 0.162078
103683.0, 0.161111
105799.0, 0.163119
108003.0, 0.157536
110301.0, 0.146873
112699.0, 0.143445
115204.0, 0.145527
117822.0, 0.155198
120562.0, 0.158210
123433.0, 0.158908
126443.0, 0.154733
129604.0, 0.166926
132926.0, 0.168347
136424.0, 0.151905
140111.0, 0.153288
144003.0, 0.194570
148118.0, 0.234725
152474.0, 0.185853
157095.0, 0.196162
162004.0, 0.216447
167231.0, 0.232130
172805.0, 0.221810
178764.0, 0.223169
185148.0, 0.225348
192005.0, 0.245927
199390.0, 0.267829
207366.0, 0.268380
216006.0, 0.217672
