Database of Origin, USGS Spectral Database
Sample Description, See USGS database for additional info
Date Added,2016-08-03 20:51:24.804556

Data ID,USGS_alb02          
Sample ID, albite_gds30.359
Mineral Name, albite
Material Class,Tectosilicate

Wavelength
1483.73, 0.823302
1484.16, 0.823125
1484.58, 0.823066
1485.01, 0.823480
1485.43, 0.823361
1485.86, 0.823716
1486.28, 0.823834
1486.71, 0.823716
1487.14, 0.823598
1487.56, 0.823420
1487.99, 0.823302
1488.42, 0.823243
1488.84, 0.823361
1489.27, 0.823716
1489.7, 0.823598
1490.13, 0.823775
1490.56, 0.823834
1490.98, 0.823657
1491.41, 0.823125
1491.84, 0.823125
1492.27, 0.823657
1492.7, 0.823952
1493.13, 0.823598
1493.56, 0.823598
1493.99, 0.823598
1494.42, 0.823480
1494.85, 0.823480
1495.29, 0.823480
1495.72, 0.823775
1496.15, 0.823893
1496.58, 0.823480
1497.01, 0.823480
1497.44, 0.823893
1497.88, 0.824070
1498.31, 0.824070
1498.74, 0.823834
1499.18, 0.824070
1499.61, 0.823893
1500.04, 0.823952
1500.48, 0.824129
1500.91, 0.824188
1501.35, 0.824070
1501.78, 0.824188
1502.22, 0.823775
1502.65, 0.823598
1503.09, 0.823775
1503.53, 0.823716
1503.96, 0.823775
1504.4, 0.823775
1504.83, 0.824011
1505.27, 0.824247
1505.71, 0.824365
1506.15, 0.824188
1506.58, 0.823775
1507.02, 0.823834
1507.46, 0.823834
1507.9, 0.823538
1508.34, 0.823598
1508.78, 0.824011
1509.21, 0.824070
1509.66, 0.823598
1510.09, 0.823657
1510.53, 0.823893
1510.97, 0.824011
1511.42, 0.824070
1511.86, 0.823893
1512.3, 0.824011
1512.74, 0.824247
1513.18, 0.824425
1513.62, 0.824425
1514.06, 0.824011
1514.51, 0.823834
1514.95, 0.823834
1515.39, 0.824011
1515.83, 0.824011
1516.28, 0.823952
1516.72, 0.824306
1517.16, 0.824365
1517.61, 0.823657
1518.05, 0.823538
1518.5, 0.823834
1518.94, 0.824306
1519.39, 0.824306
1519.83, 0.824129
1520.28, 0.824188
1520.73, 0.824661
1521.17, 0.824129
1521.62, 0.823716
1522.07, 0.823775
1522.51, 0.824129
1522.96, 0.824188
1523.41, 0.824070
1523.85, 0.824011
1524.3, 0.824129
1524.75, 0.824070
1525.2, 0.824011
1525.65, 0.824011
1526.1, 0.823834
1526.55, 0.823893
1527.0, 0.824011
1527.45, 0.824011
1527.9, 0.824188
1528.35, 0.824129
1528.8, 0.824011
1529.25, 0.824188
1529.7, 0.824247
1530.15, 0.824070
1530.6, 0.824247
1531.05, 0.824365
1531.51, 0.824365
1531.96, 0.824365
1532.41, 0.824188
1532.87, 0.824188
1533.32, 0.824661
1533.77, 0.824425
1534.23, 0.824484
1534.68, 0.824779
1535.14, 0.824661
1535.59, 0.824897
1536.05, 0.825074
1536.5, 0.825074
1536.96, 0.824661
1537.41, 0.824897
1537.87, 0.825310
1538.32, 0.825192
1538.78, 0.824897
1539.24, 0.824897
1539.7, 0.825192
1540.15, 0.825133
1540.61, 0.825015
1541.07, 0.825015
1541.53, 0.825429
1541.98, 0.825606
1542.44, 0.825488
1542.9, 0.825724
1543.36, 0.826137
1543.82, 0.826019
1544.28, 0.826078
1544.74, 0.825901
1545.2, 0.826137
1545.66, 0.826019
1546.12, 0.825783
1546.59, 0.826019
1547.05, 0.826315
1547.51, 0.826315
1547.97, 0.826078
1548.43, 0.826255
1548.9, 0.826964
1549.36, 0.827260
1549.82, 0.827200
1550.29, 0.827082
1550.75, 0.827200
1551.21, 0.827200
1551.68, 0.827023
1552.14, 0.827437
1552.61, 0.827555
1553.07, 0.827260
1553.54, 0.827378
1554.0, 0.827496
1554.47, 0.827791
1554.93, 0.828086
1555.4, 0.828027
1555.87, 0.828146
1556.34, 0.828323
1556.8, 0.828205
1557.27, 0.828146
1557.74, 0.828205
1558.21, 0.828323
1558.68, 0.828441
1559.14, 0.828677
1559.61, 0.828972
1560.08, 0.829150
1560.55, 0.828736
1561.02, 0.828559
1561.49, 0.828795
1561.96, 0.829209
1562.43, 0.829150
1562.9, 0.829032
1563.38, 0.829209
1563.85, 0.829445
1564.32, 0.829150
1564.79, 0.829268
1565.26, 0.829799
1565.74, 0.830036
1566.21, 0.830036
1566.68, 0.830095
1567.16, 0.829858
1567.63, 0.829681
1568.1, 0.829681
1568.58, 0.829740
1569.05, 0.829622
1569.53, 0.829740
1570.0, 0.829858
1570.48, 0.830036
1570.96, 0.830036
1571.43, 0.830272
1571.91, 0.830272
1572.39, 0.830390
1572.86, 0.830036
1573.34, 0.830095
1573.82, 0.830036
1574.3, 0.830036
1574.77, 0.830095
1575.25, 0.830331
1575.73, 0.830744
1576.21, 0.830685
1576.69, 0.830508
1577.17, 0.830803
1577.65, 0.830922
1578.13, 0.831040
1578.61, 0.830803
1579.09, 0.830685
1579.57, 0.830685
1580.05, 0.830626
1580.54, 0.830744
1581.02, 0.831217
1581.5, 0.831217
1581.98, 0.830981
1582.47, 0.830922
1582.95, 0.830981
1583.43, 0.831099
1583.92, 0.831335
1584.4, 0.831453
1584.88, 0.831217
1585.37, 0.831099
1585.85, 0.831099
1586.34, 0.831335
1586.82, 0.831335
1587.31, 0.831335
1587.8, 0.831394
1588.28, 0.831158
1588.77, 0.831217
1589.26, 0.831453
1589.74, 0.831512
1590.23, 0.831512
1590.72, 0.831807
1591.21, 0.831453
1591.7, 0.831571
1592.19, 0.831630
1592.67, 0.832044
1593.16, 0.832162
1593.65, 0.832103
1594.14, 0.832162
1594.63, 0.831926
1595.12, 0.831985
1595.61, 0.832221
1596.11, 0.832516
1596.6, 0.832398
1597.09, 0.832516
1597.58, 0.832634
1598.08, 0.832516
1598.57, 0.832634
1599.06, 0.832812
1599.55, 0.832812
1600.05, 0.832812
1600.54, 0.833225
1601.04, 0.833402
1601.53, 0.833225
1602.03, 0.833343
1602.52, 0.833461
1603.02, 0.833461
1603.51, 0.833698
1604.01, 0.833816
1604.5, 0.833934
1605.0, 0.834170
1605.5, 0.834347
1606.0, 0.834524
1606.49, 0.834702
1606.99, 0.834524
1607.49, 0.834347
1607.99, 0.834288
1608.49, 0.834643
1608.99, 0.834820
1609.49, 0.834761
1609.99, 0.834820
1610.49, 0.834997
1610.99, 0.835115
1611.49, 0.834938
1611.99, 0.834938
1612.49, 0.835351
1612.99, 0.835529
1613.49, 0.835529
1614.0, 0.835706
1614.5, 0.835942
1615.0, 0.836119
1615.51, 0.835942
1616.01, 0.836060
1616.51, 0.836356
1617.02, 0.836356
1617.52, 0.836415
1618.03, 0.836474
1618.53, 0.836651
1619.04, 0.836769
1619.54, 0.836769
1620.05, 0.836946
1620.55, 0.837182
1621.06, 0.837064
1621.57, 0.836946
1622.08, 0.837241
1622.58, 0.837241
1623.09, 0.837537
1623.6, 0.837596
1624.11, 0.837301
1624.62, 0.837301
1625.13, 0.837655
1625.64, 0.837891
1626.15, 0.837950
1626.66, 0.838187
1627.17, 0.838187
1627.68, 0.838305
1628.19, 0.838364
1628.7, 0.838600
1629.21, 0.838777
1629.72, 0.838954
1630.24, 0.838954
1630.75, 0.838954
1631.26, 0.838659
1631.78, 0.838659
1632.29, 0.838836
1632.8, 0.838777
1633.32, 0.838954
1633.83, 0.839250
1634.35, 0.839368
1634.86, 0.839663
1635.38, 0.839545
1635.9, 0.839191
1636.41, 0.839368
1636.93, 0.839486
1637.45, 0.839604
1637.96, 0.839781
1638.48, 0.839663
1639.0, 0.839840
1639.52, 0.839899
1640.04, 0.839958
1640.56, 0.840077
1641.08, 0.840372
1641.59, 0.840490
1642.11, 0.840431
1642.63, 0.840313
1643.16, 0.840136
1643.68, 0.839958
1644.2, 0.839781
1644.72, 0.839958
1645.24, 0.840195
1645.76, 0.840195
1646.29, 0.840017
1646.81, 0.840195
1647.33, 0.840254
1647.86, 0.840549
1648.38, 0.840608
1648.9, 0.840372
1649.43, 0.840490
1649.95, 0.840608
1650.48, 0.840608
1651.0, 0.840726
1651.53, 0.840963
1652.06, 0.840963
1652.58, 0.840904
1653.11, 0.840904
1653.64, 0.840844
1654.17, 0.840844
1654.69, 0.840963
1655.22, 0.840963
1655.75, 0.840904
1656.28, 0.840726
1656.81, 0.841022
1657.34, 0.841376
1657.87, 0.841376
1658.4, 0.841199
1658.93, 0.841376
1659.46, 0.841671
1659.99, 0.841671
1660.52, 0.841553
1661.05, 0.841671
1661.59, 0.841553
1662.12, 0.841435
1662.65, 0.841789
1663.19, 0.842262
1663.72, 0.841730
1664.26, 0.841671
1664.79, 0.841789
1665.32, 0.841848
1665.86, 0.842085
1666.39, 0.842262
1666.93, 0.842439
1667.47, 0.842498
1668.0, 0.842498
1668.54, 0.842557
1669.08, 0.842321
1669.61, 0.842262
1670.15, 0.842439
1670.69, 0.842498
1671.23, 0.842794
1671.77, 0.842912
1672.31, 0.842971
1672.85, 0.842971
1673.39, 0.842794
1673.93, 0.843089
1674.47, 0.843207
1675.01, 0.843325
1675.55, 0.843680
1676.09, 0.844034
1676.64, 0.843975
1677.18, 0.843621
1677.72, 0.843739
1678.26, 0.843680
1678.81, 0.843621
1679.35, 0.843561
1679.89, 0.843857
1680.44, 0.844211
1680.98, 0.844211
1681.53, 0.843916
1682.07, 0.844329
1682.62, 0.844920
1683.17, 0.844684
1683.71, 0.844743
1684.26, 0.844684
1684.81, 0.844920
1685.36, 0.845156
1685.9, 0.845156
1686.45, 0.845038
1687.0, 0.844979
1687.55, 0.845333
1688.1, 0.845570
1688.65, 0.845451
1689.2, 0.845747
1689.75, 0.845865
1690.3, 0.845865
1690.85, 0.845806
1691.41, 0.845983
1691.96, 0.845806
1692.51, 0.845806
1693.06, 0.845924
1693.61, 0.846160
1694.17, 0.846101
1694.72, 0.846219
1695.28, 0.846633
1695.83, 0.846692
1696.39, 0.846751
1696.94, 0.846692
1697.5, 0.846810
1698.05, 0.846928
1698.61, 0.847105
1699.17, 0.847164
1699.72, 0.847164
1700.28, 0.847342
1700.84, 0.847282
1701.4, 0.847460
1701.95, 0.847637
1702.51, 0.847519
1703.07, 0.847401
1703.63, 0.847401
1704.19, 0.847401
1704.75, 0.847401
1705.31, 0.847578
1705.88, 0.847755
1706.44, 0.847814
1707.0, 0.847637
1707.56, 0.847578
1708.12, 0.847814
1708.69, 0.847932
1709.25, 0.847991
1709.81, 0.847991
1710.38, 0.847991
1710.94, 0.847755
1711.51, 0.847991
1712.07, 0.847873
1712.64, 0.847932
1713.2, 0.847873
1713.77, 0.848050
1714.34, 0.848168
1714.9, 0.848464
1715.47, 0.848464
1716.04, 0.848287
1716.61, 0.848287
1717.18, 0.848228
1717.74, 0.848168
1718.31, 0.847991
1718.88, 0.848050
1719.45, 0.848228
1720.02, 0.848287
1720.59, 0.848405
1721.17, 0.848582
1721.74, 0.848818
1722.31, 0.848641
1722.88, 0.848346
1723.45, 0.848109
1724.03, 0.848168
1724.6, 0.848405
1725.18, 0.848877
1725.75, 0.848877
1726.33, 0.848582
1726.9, 0.848464
1727.48, 0.848700
1728.05, 0.848700
1728.63, 0.848818
1729.2, 0.848818
1729.78, 0.848641
1730.36, 0.848523
1730.94, 0.848700
1731.51, 0.848936
1732.09, 0.849054
1732.67, 0.849113
1733.25, 0.848877
1733.83, 0.848877
1734.41, 0.849113
1734.99, 0.849350
1735.57, 0.849409
1736.15, 0.849173
1736.73, 0.849232
1737.32, 0.849113
1737.9, 0.849232
1738.48, 0.849173
1739.07, 0.849173
1739.65, 0.849409
1740.23, 0.849409
1740.82, 0.849350
1741.4, 0.849527
1741.99, 0.849645
1742.57, 0.849822
1743.16, 0.850058
1743.74, 0.850058
1744.33, 0.850058
1744.92, 0.849999
1745.51, 0.849999
1746.09, 0.850236
1746.68, 0.850295
1747.27, 0.850413
1747.86, 0.850531
1748.45, 0.850708
1749.04, 0.850472
1749.63, 0.850413
1750.22, 0.850531
1750.81, 0.850767
1751.4, 0.850826
1751.99, 0.850885
1752.59, 0.851004
1753.18, 0.851063
1753.77, 0.851122
1754.37, 0.851240
1754.96, 0.851299
1755.56, 0.851299
1756.15, 0.851299
1756.74, 0.851535
1757.34, 0.851476
1757.94, 0.851594
1758.53, 0.851712
1759.13, 0.851830
1759.73, 0.851830
1760.32, 0.851830
1760.92, 0.851830
1761.52, 0.851949
1762.12, 0.851949
1762.72, 0.852185
1763.32, 0.852421
1763.92, 0.852480
1764.52, 0.852539
1765.12, 0.852539
1765.72, 0.852480
1766.32, 0.852657
1766.92, 0.852657
1767.53, 0.852657
1768.13, 0.852835
1768.73, 0.853071
1769.34, 0.853071
1769.94, 0.853248
1770.55, 0.853425
1771.15, 0.853661
1771.76, 0.853720
1772.36, 0.853957
1772.97, 0.854193
1773.57, 0.853957
1774.18, 0.853720
1774.79, 0.853720
1775.4, 0.853898
1776.0, 0.854193
1776.61, 0.853839
1777.22, 0.853839
1777.83, 0.854075
1778.44, 0.854311
1779.05, 0.854075
1779.66, 0.854134
1780.27, 0.854134
1780.88, 0.854193
1781.5, 0.854370
1782.11, 0.854370
1782.72, 0.854252
1783.33, 0.854252
1783.95, 0.854370
1784.56, 0.854429
1785.18, 0.854488
1785.79, 0.854547
1786.41, 0.854547
1787.02, 0.854252
1787.64, 0.854665
1788.26, 0.854843
1788.87, 0.854607
1789.49, 0.854784
1790.11, 0.854784
1790.73, 0.854665
1791.35, 0.854547
1791.96, 0.854607
1792.58, 0.854843
1793.21, 0.854784
1793.83, 0.854784
1794.45, 0.854725
1795.07, 0.854665
1795.69, 0.854725
1796.31, 0.854725
1796.93, 0.854665
1797.56, 0.854488
1798.18, 0.854429
1798.8, 0.854311
1799.43, 0.854488
1800.05, 0.854784
1800.68, 0.854843
1801.3, 0.854843
1801.93, 0.854725
1802.56, 0.854488
1803.18, 0.854784
1803.81, 0.854725
1804.44, 0.854843
1805.07, 0.854725
1805.7, 0.854429
1806.33, 0.854429
1806.95, 0.854547
1807.58, 0.854665
1808.22, 0.854843
1808.85, 0.854665
1809.48, 0.854429
1810.11, 0.854488
1810.74, 0.854784
1811.38, 0.854607
1812.01, 0.854488
1812.64, 0.854665
1813.28, 0.854665
1813.91, 0.854607
1814.55, 0.854607
1815.18, 0.854547
1815.82, 0.854607
1816.45, 0.854665
1817.09, 0.854784
1817.73, 0.854784
1818.36, 0.854843
1819.0, 0.854843
1819.64, 0.855020
1820.28, 0.854725
1820.92, 0.854784
1821.56, 0.854725
1822.2, 0.854961
1822.84, 0.855079
1823.48, 0.855138
1824.12, 0.855079
1824.76, 0.855079
1825.41, 0.854961
1826.05, 0.855138
1826.69, 0.855315
1827.34, 0.855611
1827.98, 0.855670
1828.63, 0.855729
1829.27, 0.855552
1829.92, 0.855611
1830.56, 0.855611
1831.21, 0.855552
1831.86, 0.855552
1832.5, 0.855729
1833.15, 0.855788
1833.8, 0.855729
1834.45, 0.855729
1835.1, 0.855788
1835.75, 0.855788
1836.4, 0.855906
1837.05, 0.856024
1837.7, 0.856024
1838.35, 0.856201
1839.01, 0.856142
1839.66, 0.856142
1840.31, 0.856497
1840.96, 0.856378
1841.62, 0.856319
1842.27, 0.856615
1842.93, 0.856910
1843.58, 0.856733
1844.24, 0.856674
1844.9, 0.856733
1845.55, 0.856851
1846.21, 0.856674
1846.87, 0.856615
1847.53, 0.856910
1848.18, 0.857146
1848.84, 0.857323
1849.5, 0.857205
1850.16, 0.857205
1850.82, 0.857205
1851.48, 0.857442
1852.14, 0.857560
1852.81, 0.857323
1853.47, 0.857323
1854.13, 0.857560
1854.8, 0.857796
1855.46, 0.857796
1856.12, 0.857737
1856.79, 0.857914
1857.45, 0.858091
1858.12, 0.858032
1858.79, 0.857914
1859.45, 0.857914
1860.12, 0.858032
1860.79, 0.858209
1861.46, 0.858269
1862.12, 0.858150
1862.79, 0.858091
1863.46, 0.858209
1864.13, 0.858446
1864.8, 0.858446
1865.48, 0.858209
1866.15, 0.858209
1866.82, 0.858150
1867.49, 0.858150
1868.16, 0.858328
1868.84, 0.858209
1869.51, 0.857914
1870.19, 0.858150
1870.86, 0.858505
1871.54, 0.858564
1872.21, 0.858387
1872.89, 0.858032
1873.56, 0.857973
1874.24, 0.858091
1874.92, 0.858032
1875.6, 0.858032
1876.28, 0.857973
1876.96, 0.857973
1877.64, 0.858150
1878.32, 0.858032
1879.0, 0.857914
1879.68, 0.857737
1880.36, 0.857796
1881.04, 0.857737
1881.73, 0.857619
1882.41, 0.857619
1883.09, 0.857442
1883.78, 0.857264
1884.46, 0.857264
1885.15, 0.857264
1885.83, 0.857323
1886.52, 0.857442
1887.21, 0.857205
1887.89, 0.856910
1888.58, 0.856792
1889.27, 0.856615
1889.96, 0.856438
1890.65, 0.856497
1891.34, 0.856615
1892.03, 0.856378
1892.72, 0.856024
1893.41, 0.855788
1894.1, 0.855611
1894.79, 0.855611
1895.49, 0.855611
1896.18, 0.855315
1896.87, 0.855079
1897.57, 0.854843
1898.26, 0.854902
1898.96, 0.854665
1899.65, 0.854429
1900.35, 0.854134
1901.05, 0.854075
1901.74, 0.853839
1902.44, 0.853484
1903.14, 0.853366
1903.84, 0.853366
1904.54, 0.853307
1905.24, 0.853071
1905.94, 0.852953
1906.64, 0.852835
1907.34, 0.852776
1908.04, 0.852953
1908.75, 0.852716
1909.45, 0.852480
1910.15, 0.852598
1910.86, 0.852598
1911.56, 0.852598
1912.27, 0.852480
1912.97, 0.852244
1913.68, 0.852244
1914.39, 0.852421
1915.09, 0.852421
1915.8, 0.852362
1916.51, 0.852480
1917.22, 0.852539
1917.93, 0.852539
1918.64, 0.852421
1919.35, 0.852421
1920.06, 0.852598
1920.77, 0.852835
1921.48, 0.852835
1922.19, 0.852953
1922.91, 0.853012
1923.62, 0.853307
1924.33, 0.853307
1925.05, 0.853307
1925.76, 0.853307
1926.48, 0.853307
1927.19, 0.853366
1927.91, 0.853248
1928.63, 0.853425
1929.35, 0.853957
1930.07, 0.853957
1930.78, 0.854016
1931.5, 0.854075
1932.22, 0.854252
1932.94, 0.854429
1933.66, 0.854370
1934.39, 0.854429
1935.11, 0.854547
1935.83, 0.854547
1936.55, 0.854607
1937.28, 0.854843
1938.0, 0.855079
1938.73, 0.855079
1939.45, 0.855374
1940.18, 0.855552
1940.9, 0.855433
1941.63, 0.855611
1942.36, 0.855788
1943.09, 0.855552
1943.81, 0.855670
1944.54, 0.855847
1945.27, 0.855965
1946.0, 0.856024
1946.73, 0.856024
1947.47, 0.856142
1948.2, 0.856319
1948.93, 0.856260
1949.66, 0.856556
1950.4, 0.856733
1951.13, 0.856674
1951.86, 0.856556
1952.6, 0.856792
1953.34, 0.856969
1954.07, 0.856851
1954.81, 0.856792
1955.55, 0.856792
1956.29, 0.856851
1957.02, 0.857028
1957.76, 0.857028
1958.5, 0.857146
1959.24, 0.857323
1959.98, 0.857264
1960.72, 0.857028
1961.47, 0.856910
1962.21, 0.857205
1962.95, 0.857323
1963.7, 0.857382
1964.44, 0.857382
1965.18, 0.857323
1965.93, 0.857205
1966.67, 0.857264
1967.42, 0.857323
1968.17, 0.857205
1968.92, 0.857087
1969.66, 0.857264
1970.41, 0.857205
1971.16, 0.857205
1971.91, 0.857382
1972.66, 0.857442
1973.41, 0.857382
1974.16, 0.857264
1974.92, 0.857442
1975.67, 0.857501
1976.42, 0.857442
1977.18, 0.857382
1977.93, 0.857501
1978.69, 0.857501
1979.44, 0.857560
1980.2, 0.857382
1980.95, 0.857442
1981.71, 0.857501
1982.47, 0.857501
1983.23, 0.857382
1983.99, 0.857323
1984.74, 0.857087
1985.51, 0.857028
1986.27, 0.857146
1987.03, 0.857323
1987.79, 0.857323
1988.55, 0.857619
1989.32, 0.857619
1990.08, 0.857560
1990.84, 0.857442
1991.61, 0.857442
1992.37, 0.857264
1993.14, 0.857442
1993.9, 0.857442
1994.67, 0.857442
1995.44, 0.857264
1996.21, 0.857323
1996.98, 0.857264
1997.75, 0.857323
1998.52, 0.857382
1999.29, 0.857382
2000.06, 0.857323
2000.83, 0.857382
2001.6, 0.857323
2002.38, 0.857264
2003.15, 0.857382
2003.93, 0.857323
2004.7, 0.857382
2005.48, 0.857323
2006.25, 0.857382
2007.03, 0.857323
2007.81, 0.857323
2008.58, 0.857501
2009.36, 0.857619
2010.14, 0.857560
2010.92, 0.857501
2011.7, 0.857442
2012.48, 0.857501
2013.26, 0.857737
2014.05, 0.857796
2014.83, 0.857619
2015.61, 0.857560
2016.4, 0.857678
2017.18, 0.857678
2017.97, 0.857796
2018.75, 0.857796
2019.54, 0.857914
2020.32, 0.857855
2021.11, 0.857855
2021.9, 0.857973
2022.69, 0.858150
2023.48, 0.858150
2024.27, 0.857914
2025.06, 0.857914
2025.85, 0.858032
2026.64, 0.858032
2027.44, 0.857914
2028.23, 0.858150
2029.02, 0.858387
2029.82, 0.858387
2030.61, 0.858505
2031.41, 0.858682
2032.2, 0.858800
2033.0, 0.858682
2033.8, 0.858564
2034.6, 0.858682
2035.4, 0.858859
2036.2, 0.858859
2037.0, 0.858918
2037.8, 0.858918
2038.6, 0.858918
2039.4, 0.859095
2040.2, 0.859214
2041.01, 0.859214
2041.81, 0.859095
2042.61, 0.858859
2043.42, 0.859036
2044.22, 0.859154
2045.03, 0.859036
2045.84, 0.859154
2046.65, 0.859214
2047.46, 0.859332
2048.26, 0.859450
2049.07, 0.859391
2049.88, 0.859332
2050.69, 0.859332
2051.51, 0.859391
2052.32, 0.859450
2053.13, 0.859509
2053.94, 0.859509
2054.76, 0.859450
2055.57, 0.859391
2056.39, 0.859509
2057.2, 0.859568
2058.02, 0.859509
2058.84, 0.859391
2059.66, 0.859568
2060.48, 0.859568
2061.29, 0.859568
2062.11, 0.859686
2062.94, 0.859627
2063.76, 0.859568
2064.58, 0.859745
2065.4, 0.859568
2066.22, 0.859509
2067.05, 0.859627
2067.87, 0.859509
2068.7, 0.859214
2069.52, 0.859391
2070.35, 0.859509
2071.18, 0.859332
2072.0, 0.859214
2072.83, 0.859273
2073.66, 0.859273
2074.49, 0.859154
2075.32, 0.859154
2076.15, 0.859391
2076.98, 0.859332
2077.82, 0.859214
2078.65, 0.859154
2079.48, 0.859273
2080.32, 0.859154
2081.15, 0.858977
2081.99, 0.858977
2082.83, 0.858977
2083.66, 0.858918
2084.5, 0.858918
2085.34, 0.858918
2086.18, 0.858800
2087.02, 0.858741
2087.86, 0.858977
2088.7, 0.858859
2089.54, 0.858800
2090.39, 0.858623
2091.23, 0.858564
2092.07, 0.858564
2092.92, 0.858564
2093.76, 0.858564
2094.61, 0.858446
2095.45, 0.858328
2096.3, 0.858387
2097.15, 0.858446
2098.0, 0.858269
2098.85, 0.858209
2099.7, 0.858209
2100.55, 0.858150
2101.4, 0.858032
2102.25, 0.858032
2103.1, 0.858150
2103.96, 0.858091
2104.81, 0.857796
2105.67, 0.858091
2106.52, 0.858328
2107.38, 0.858091
2108.24, 0.858032
2109.09, 0.857855
2109.95, 0.857796
2110.81, 0.857914
2111.67, 0.857855
2112.53, 0.857914
2113.39, 0.857973
2114.25, 0.858424
2115.12, 0.857715
2115.98, 0.857458
2116.84, 0.857651
2117.71, 0.857844
2118.58, 0.857909
2119.44, 0.857587
2120.31, 0.857715
2121.18, 0.856877
2122.04, 0.856555
2122.91, 0.856491
2123.78, 0.856877
2124.65, 0.856749
2125.52, 0.856749
2126.4, 0.856620
2127.27, 0.857264
2128.14, 0.857780
2129.02, 0.857329
2129.89, 0.856813
2130.77, 0.857522
2131.64, 0.857200
2132.52, 0.857006
2133.4, 0.856749
2134.27, 0.856555
2135.15, 0.856233
2136.03, 0.856362
2136.91, 0.856297
2137.79, 0.856168
2138.68, 0.855911
2139.56, 0.856039
2140.44, 0.856039
2141.33, 0.856039
2142.21, 0.856233
2143.1, 0.855911
2143.99, 0.855782
2144.87, 0.855717
2145.76, 0.855975
2146.65, 0.855975
2147.54, 0.855395
2148.43, 0.855911
2149.32, 0.856104
2150.21, 0.856039
2151.1, 0.856104
2151.99, 0.856297
2152.89, 0.855975
2153.78, 0.855653
2154.68, 0.855653
2155.57, 0.855717
2156.47, 0.856168
2157.37, 0.856233
2158.27, 0.855395
2159.16, 0.855459
2160.06, 0.856039
2160.96, 0.856168
2161.86, 0.855911
2162.77, 0.856168
2163.67, 0.856233
2164.57, 0.855588
2165.48, 0.855459
2166.38, 0.855911
2167.29, 0.856297
2168.2, 0.856297
2169.1, 0.855975
2170.01, 0.856362
2170.92, 0.856039
2171.83, 0.855588
2172.74, 0.855330
2173.65, 0.855653
2174.56, 0.855395
2175.47, 0.855266
2176.39, 0.855201
2177.3, 0.855395
2178.22, 0.855073
2179.13, 0.855846
2180.05, 0.855524
2180.96, 0.855459
2181.88, 0.855459
2182.8, 0.855395
2183.72, 0.855717
2184.64, 0.855975
2185.56, 0.855975
2186.48, 0.855653
2187.41, 0.855911
2188.33, 0.856297
2189.25, 0.855975
2190.18, 0.855588
2191.1, 0.855653
2192.03, 0.855524
2192.96, 0.855459
2193.89, 0.855717
2194.82, 0.855717
2195.74, 0.855846
2196.68, 0.855588
2197.61, 0.855717
2198.54, 0.855782
2199.47, 0.855975
2200.4, 0.855395
2201.34, 0.855330
2202.28, 0.855524
2203.21, 0.855717
2204.15, 0.855459
2205.08, 0.855330
2206.02, 0.855653
2206.96, 0.855524
2207.9, 0.855395
2208.84, 0.855073
2209.78, 0.854750
2210.73, 0.855008
2211.67, 0.855137
2212.61, 0.855266
2213.56, 0.854879
2214.5, 0.854492
2215.45, 0.854815
2216.4, 0.855717
2217.35, 0.855330
2218.3, 0.855008
2219.24, 0.855008
2220.2, 0.854879
2221.15, 0.855266
2222.1, 0.855201
2223.05, 0.854944
2224.0, 0.854750
2224.96, 0.854879
2225.91, 0.854879
2226.87, 0.854492
2227.83, 0.855008
2228.79, 0.855008
2229.74, 0.854815
2230.7, 0.854750
2231.66, 0.854557
2232.63, 0.854364
2233.59, 0.854041
2234.55, 0.854234
2235.51, 0.853977
2236.48, 0.853977
2237.44, 0.854106
2238.41, 0.853912
2239.38, 0.853848
2240.34, 0.853461
2241.31, 0.853332
2242.28, 0.853203
2243.25, 0.853203
2244.22, 0.853397
2245.19, 0.852816
2246.17, 0.852687
2247.14, 0.852816
2248.12, 0.852881
2249.09, 0.853203
2250.07, 0.853397
2251.04, 0.853525
2252.02, 0.852945
2253.0, 0.852945
2253.98, 0.853074
2254.96, 0.853074
2255.94, 0.852752
2256.92, 0.852687
2257.91, 0.852365
2258.89, 0.852430
2259.88, 0.852494
2260.86, 0.852494
2261.85, 0.852687
2262.83, 0.852945
2263.82, 0.852816
2264.81, 0.852816
2265.8, 0.852494
2266.79, 0.852494
2267.78, 0.852365
2268.78, 0.852365
2269.77, 0.852043
2270.76, 0.852236
2271.76, 0.852881
2272.75, 0.853203
2273.75, 0.852881
2274.75, 0.852687
2275.75, 0.853074
2276.75, 0.853203
2277.75, 0.852881
2278.75, 0.852752
2279.75, 0.852623
2280.75, 0.852816
2281.76, 0.852623
2282.76, 0.853139
2283.77, 0.853203
2284.77, 0.853397
2285.78, 0.853525
2286.79, 0.853203
2287.8, 0.853074
2288.81, 0.853203
2289.82, 0.853139
2290.83, 0.853139
2291.84, 0.852816
2292.86, 0.852945
2293.87, 0.852687
2294.89, 0.852816
2295.91, 0.852687
2296.92, 0.852752
2297.94, 0.853332
2298.96, 0.853397
2299.98, 0.853010
2301.0, 0.852559
2302.02, 0.853139
2303.04, 0.853525
2304.07, 0.853590
2305.09, 0.853719
2306.12, 0.853332
2307.15, 0.853590
2308.17, 0.853783
2309.2, 0.854557
2310.23, 0.854686
2311.26, 0.854492
2312.29, 0.854041
2313.32, 0.854364
2314.35, 0.854686
2315.39, 0.854364
2316.42, 0.854428
2317.46, 0.854879
2318.5, 0.855653
2319.53, 0.855911
2320.57, 0.855717
2321.61, 0.855459
2322.65, 0.855073
2323.69, 0.855524
2324.73, 0.855911
2325.78, 0.856426
2326.82, 0.856684
2327.86, 0.856297
2328.91, 0.856168
2329.96, 0.856233
2331.01, 0.855975
2332.05, 0.856362
2333.1, 0.856813
2334.15, 0.857006
2335.21, 0.856813
2336.26, 0.856620
2337.31, 0.856684
2338.36, 0.856620
2339.42, 0.856684
2340.48, 0.856749
2341.53, 0.856555
2342.59, 0.856684
2343.65, 0.856813
2344.71, 0.856942
2345.77, 0.857071
2346.83, 0.857135
2347.9, 0.857006
2348.96, 0.857006
2350.02, 0.856877
2351.09, 0.857006
2352.16, 0.857135
2353.23, 0.857264
2354.29, 0.857200
2355.36, 0.857135
2356.43, 0.857006
2357.51, 0.857135
2358.58, 0.856942
2359.65, 0.856877
2360.73, 0.856877
2361.8, 0.857393
2362.88, 0.856942
2363.96, 0.856555
2365.03, 0.856684
2366.11, 0.856813
2367.19, 0.856749
2368.27, 0.856555
2369.36, 0.856491
2370.44, 0.856426
2371.53, 0.856168
2372.61, 0.856039
2373.7, 0.856362
2374.78, 0.856362
2375.87, 0.855975
2376.96, 0.855653
2378.05, 0.855266
2379.14, 0.855588
2380.24, 0.855717
2381.33, 0.855911
2382.42, 0.855782
2383.52, 0.855717
2384.61, 0.855395
2385.71, 0.855008
2386.81, 0.855137
2387.91, 0.855201
2389.01, 0.855008
2390.11, 0.855266
2391.22, 0.855137
2392.32, 0.855137
2393.42, 0.855201
2394.53, 0.854944
2395.64, 0.854686
2396.74, 0.854428
2397.85, 0.854364
2398.96, 0.854750
2400.07, 0.854428
2401.18, 0.854299
2402.3, 0.853912
2403.41, 0.853848
2404.52, 0.853783
2405.64, 0.853912
2406.76, 0.853525
2407.88, 0.853332
2408.99, 0.853203
2410.11, 0.853332
2411.23, 0.853203
2412.36, 0.853139
2413.48, 0.853139
2414.6, 0.853010
2415.73, 0.853074
2416.85, 0.853139
2417.98, 0.852881
2419.11, 0.852945
2420.24, 0.853203
2421.37, 0.853074
2422.5, 0.852816
2423.64, 0.852430
2424.77, 0.852301
2425.9, 0.852236
2427.04, 0.852236
2428.18, 0.852107
2429.31, 0.851914
2430.45, 0.852043
2431.59, 0.851592
2432.73, 0.851785
2433.88, 0.851849
2435.02, 0.851978
2436.16, 0.852043
2437.31, 0.851721
2438.45, 0.851527
2439.6, 0.851914
2440.75, 0.851914
2441.9, 0.851656
2443.05, 0.851463
2444.2, 0.851527
2445.35, 0.851205
2446.51, 0.850947
2447.67, 0.851076
2448.82, 0.851012
2449.98, 0.850947
2451.14, 0.850947
2452.3, 0.850947
2453.46, 0.851398
2454.62, 0.851463
2455.78, 0.851398
2456.94, 0.851205
2458.11, 0.851721
2459.28, 0.851721
2460.44, 0.851398
2461.61, 0.851140
2462.78, 0.851140
2463.95, 0.851140
2465.12, 0.851140
2466.3, 0.851140
2467.47, 0.851140
2468.65, 0.851334
2469.82, 0.851398
2471.0, 0.851140
2472.18, 0.851334
2473.36, 0.851592
2474.54, 0.851849
2475.72, 0.851463
2476.9, 0.851656
2478.08, 0.851721
2479.27, 0.851592
2480.46, 0.851656
2481.64, 0.851785
2482.83, 0.852172
2484.02, 0.852172
2485.21, 0.852107
2486.4, 0.851849
2487.6, 0.851721
2488.79, 0.851721
2489.99, 0.851849
2491.18, 0.852043
2492.38, 0.852172
2493.58, 0.852043
2494.78, 0.851785
2495.98, 0.852043
2497.18, 0.852107
2498.39, 0.852107
2499.59, 0.852172
2500.8, 0.852365
2502.01, 0.852043
2503.21, 0.851849
2504.42, 0.851914
2505.63, 0.851849
2506.84, 0.851463
2508.06, 0.851463
2509.27, 0.851334
2510.49, 0.851334
2511.7, 0.851527
2512.92, 0.851398
2514.14, 0.850947
2515.36, 0.851012
2516.58, 0.851012
2517.8, 0.850883
2519.03, 0.850883
2520.25, 0.851012
2521.48, 0.851205
2522.7, 0.850625
2523.93, 0.850302
2525.16, 0.850496
2526.39, 0.850625
2527.62, 0.850560
2528.86, 0.850431
2530.09, 0.850174
2531.33, 0.849336
2532.56, 0.848949
2533.8, 0.849593
2535.04, 0.849013
2536.28, 0.848498
2537.52, 0.849787
2538.76, 0.850431
2540.01, 0.850174
2541.25, 0.849142
2542.5, 0.847466
2543.75, 0.847982
2544.99, 0.849207
2546.24, 0.848884
2547.49, 0.847724
2548.75, 0.848175
2550.0, 0.847789
2551.26, 0.846564
2552.51, 0.846048
2553.77, 0.848175
2555.03, 0.850174
2556.29, 0.850496
2557.55, 0.850174
2558.81, 0.848369
2560.08, 0.843147
2561.34, 0.839215
2562.61, 0.839666
2563.88, 0.840956
2565.14, 0.845274
2566.41, 0.849013
2567.68, 0.847531
2568.96, 0.842567
2570.23, 0.843470
2571.51, 0.845726
2572.78, 0.840246
2574.06, 0.842116
2575.34, 0.844372
2576.62, 0.842696
2577.9, 0.846048
2579.18, 0.847531
2580.47, 0.843921
2581.75, 0.843018
2583.04, 0.837088
2584.32, 0.837668
2585.61, 0.842632
2586.9, 0.840118
2588.2, 0.841794
2589.49, 0.844372
2590.78, 0.846693
2592.08, 0.843663
2593.37, 0.827870
2594.67, 0.816009
2595.97, 0.829611
2597.27, 0.843534
2598.57, 0.847982
2599.88, 0.846564
2601.18, 0.843663
2602.49, 0.841536
2603.79, 0.836895
2605.1, 0.831222
2606.41, 0.835799
2607.72, 0.840891
2609.03, 0.842051
2610.35, 0.844114
2611.66, 0.845919
2612.98, 0.845017
2614.3, 0.845081
2615.62, 0.837604
2616.94, 0.834187
2618.26, 0.839666
2619.58, 0.834832
2620.91, 0.837088
2622.23, 0.846628
2623.56, 0.848304
2624.89, 0.844308
2626.22, 0.837023
2627.55, 0.841084
2628.88, 0.839022
2630.21, 0.831996
2631.55, 0.839409
2632.89, 0.843276
2634.22, 0.843856
2635.56, 0.847659
2636.9, 0.848498
2638.25, 0.848691
2639.59, 0.847982
2640.93, 0.847273
2642.28, 0.846628
2643.63, 0.846821
2644.98, 0.843921
2646.33, 0.844565
2647.68, 0.847144
2649.03, 0.847917
2650.39, 0.845661
2651.74, 0.841342
2653.1, 0.841213
2654.46, 0.842503
2655.82, 0.842438
2657.18, 0.844694
2658.54, 0.841407
2659.9, 0.840053
2661.27, 0.840569
2662.64, 0.839860
2664.01, 0.829546
2665.38, 0.820908
2666.74, 0.821875
2668.12, 0.828579
2669.49, 0.818265
2670.87, 0.817814
2672.24, 0.832189
2673.62, 0.833543
2675.0, 0.826710
2676.38, 0.820070
2677.76, 0.820393
2679.15, 0.821231
2680.54, 0.827097
2681.92, 0.827677
2683.31, 0.824969
2684.7, 0.824454
2686.09, 0.823551
2687.48, 0.823874
2688.88, 0.824454
2690.27, 0.824389
2691.67, 0.820393
2693.07, 0.811110
2694.47, 0.809047
2695.87, 0.812722
2697.27, 0.815880
2698.67, 0.814913
2700.08, 0.810079
2701.49, 0.806791
2702.9, 0.807694
2704.31, 0.806340
2705.72, 0.804406
2707.13, 0.800603
2708.54, 0.793319
2709.96, 0.785133
2711.38, 0.785326
2712.8, 0.792739
2714.22, 0.792803
2715.64, 0.789516
2717.06, 0.783843
2718.49, 0.774948
2719.91, 0.760637
2721.34, 0.761089
2722.77, 0.761475
2724.2, 0.754191
2725.63, 0.757285
2727.07, 0.760766
2728.5, 0.758961
2729.94, 0.755287
2731.38, 0.751484
2732.82, 0.745683
2734.26, 0.737238
2735.7, 0.735175
2737.15, 0.731759
2738.59, 0.719705
2740.04, 0.712227
2741.49, 0.713710
2742.94, 0.717449
2744.39, 0.717062
2745.84, 0.714032
2747.3, 0.710874
2748.76, 0.707199
2750.21, 0.703009
2751.67, 0.698433
2753.14, 0.692245
2754.6, 0.680319
2756.06, 0.678837
2757.53, 0.684058
2759.0, 0.683671
2760.46, 0.679223
2761.94, 0.672197
2763.41, 0.670006
2764.88, 0.670521
2766.36, 0.667943
2767.83, 0.664655
2769.31, 0.661690
2770.79, 0.658467
2772.27, 0.659112
2773.76, 0.659176
2775.24, 0.656984
2776.73, 0.654342
2778.22, 0.652601
2779.71, 0.650409
2781.2, 0.648669
2782.69, 0.648282
2784.18, 0.647896
2785.68, 0.644157
2787.18, 0.642094
2788.68, 0.644157
2790.18, 0.645510
2791.68, 0.645382
2793.19, 0.644866
2794.69, 0.644350
2796.2, 0.643641
2797.71, 0.642996
2799.22, 0.642352
2800.73, 0.640031
2802.24, 0.636357
2803.76, 0.636099
2805.28, 0.638162
2806.8, 0.639000
2808.32, 0.639129
2809.84, 0.639064
2811.36, 0.639064
2812.89, 0.638549
2814.42, 0.637646
2815.94, 0.637840
2817.48, 0.637131
2819.01, 0.635777
2820.54, 0.635712
2822.08, 0.636357
2823.61, 0.636486
2825.15, 0.636099
2826.69, 0.635455
2828.23, 0.634874
2829.78, 0.634488
2831.32, 0.633263
2832.87, 0.631909
2834.42, 0.630813
2835.97, 0.629847
2837.52, 0.628235
2839.08, 0.627397
2840.63, 0.626301
2842.19, 0.624238
2843.75, 0.621596
2845.31, 0.617148
2846.87, 0.610315
2848.44, 0.601742
2850.0, 0.597423
2851.57, 0.601032
2853.14, 0.607221
2854.71, 0.612184
2856.28, 0.615472
2857.86, 0.617083
2859.43, 0.617792
2861.01, 0.618244
2862.59, 0.618372
2864.17, 0.617986
2865.76, 0.617534
2867.34, 0.617148
2868.93, 0.616954
2870.52, 0.616439
2872.11, 0.616116
2873.7, 0.616374
2875.29, 0.616696
2876.89, 0.616761
2878.49, 0.617083
2880.08, 0.617083
2881.69, 0.617019
2883.29, 0.616954
2884.89, 0.617212
2886.5, 0.617406
2888.11, 0.617470
2889.72, 0.617277
2891.33, 0.617341
2892.94, 0.617341
2894.56, 0.617341
2896.17, 0.617406
2897.79, 0.617534
2899.42, 0.617277
2901.04, 0.617212
2902.66, 0.617470
2904.29, 0.617470
2905.92, 0.617728
2907.55, 0.617986
2909.18, 0.618050
2910.81, 0.618050
2912.45, 0.617986
2914.08, 0.617857
2915.72, 0.618115
2917.36, 0.618308
2919.01, 0.618308
2920.65, 0.618308
2922.3, 0.617792
2923.94, 0.617792
2925.59, 0.617986
2927.25, 0.617986
2928.9, 0.617857
2930.56, 0.617921
2932.21, 0.618115
2933.87, 0.617921
2935.53, 0.617792
2937.2, 0.617986
2938.86, 0.618050
2940.53, 0.618179
2942.2, 0.618179
2943.87, 0.618308
2945.54, 0.618179
2947.22, 0.617857
2948.89, 0.617986
2950.57, 0.618115
2952.25, 0.618179
2953.93, 0.618308
2955.62, 0.618566
2957.3, 0.618501
2958.99, 0.618501
2960.68, 0.618630
2962.37, 0.618824
2964.07, 0.618953
2965.76, 0.619017
2967.46, 0.619081
2969.16, 0.619081
2970.86, 0.619146
2972.56, 0.619275
2974.27, 0.619533
2975.98, 0.619791
2977.69, 0.620048
2979.4, 0.620242
2981.11, 0.620564
2982.83, 0.621144
2984.54, 0.621467
2986.26, 0.621724
2987.98, 0.622111
2989.71, 0.622562
2991.43, 0.623014
2993.16, 0.623271
2994.89, 0.623723
2996.62, 0.624174
2998.35, 0.624690
3000.09, 0.625334
3001.83, 0.625785
3003.57, 0.626172
3005.31, 0.626559
3007.05, 0.626881
3008.79, 0.627397
3010.54, 0.628042
3012.29, 0.628493
3014.04, 0.629009
3015.8, 0.629331
3017.55, 0.629524
3019.31, 0.629975
3021.07, 0.630427
3022.83, 0.630878
3024.59, 0.631265
3026.36, 0.631522
3028.13, 0.631909
3029.9, 0.632425
3031.67, 0.632747
3033.44, 0.633392
3035.22, 0.633456
3037.0, 0.633585
3038.78, 0.634165
3040.56, 0.634617
3042.34, 0.634939
3044.13, 0.635390
3045.92, 0.635712
3047.71, 0.635970
3049.5, 0.636293
3051.3, 0.636550
3053.09, 0.636808
3054.89, 0.637324
3056.69, 0.637646
3058.5, 0.638033
3060.3, 0.638484
3062.11, 0.638871
3063.92, 0.639193
3065.73, 0.639451
3067.55, 0.639838
3069.36, 0.640354
3071.18, 0.640547
3073.0, 0.640998
3074.82, 0.641578
3076.65, 0.642159
3078.48, 0.642481
3080.31, 0.642545
3082.14, 0.642739
3083.97, 0.643319
3085.8, 0.643834
3087.64, 0.644479
3089.48, 0.644866
3091.33, 0.645317
3093.17, 0.645639
3095.02, 0.646220
3096.87, 0.646671
3098.72, 0.647058
3100.57, 0.647509
3102.43, 0.647896
3104.28, 0.648347
3106.14, 0.648991
3108.01, 0.649571
3109.87, 0.649894
3111.74, 0.650474
3113.61, 0.650990
3115.48, 0.651505
3117.35, 0.652085
3119.23, 0.652859
3121.1, 0.653439
3122.98, 0.653890
3124.87, 0.654535
3126.75, 0.654986
3128.64, 0.655631
3130.53, 0.656146
3132.42, 0.656598
3134.31, 0.657178
3136.21, 0.657822
3138.11, 0.658274
3140.01, 0.658725
3141.91, 0.659434
3143.82, 0.660079
3145.73, 0.660594
3147.64, 0.661303
3149.55, 0.661883
3151.46, 0.662399
3153.38, 0.662979
3155.3, 0.663559
3157.22, 0.664075
3159.14, 0.664591
3161.07, 0.665171
3163.0, 0.665687
3164.93, 0.666396
3166.86, 0.667040
3168.8, 0.667492
3170.74, 0.668136
3172.68, 0.668716
3174.62, 0.669297
3176.56, 0.669941
3178.51, 0.670392
3180.46, 0.670972
3182.42, 0.671488
3184.37, 0.672004
3186.33, 0.672455
3188.29, 0.672906
3190.25, 0.673293
3192.21, 0.673809
3194.18, 0.674389
3196.15, 0.675034
3198.12, 0.675485
3200.09, 0.675871
3202.07, 0.676516
3204.05, 0.677032
3206.03, 0.677483
3208.02, 0.677870
3210.0, 0.678450
3211.99, 0.679159
3213.98, 0.679675
3215.98, 0.680061
3217.97, 0.680577
3219.97, 0.681093
3221.97, 0.681544
3223.98, 0.682124
3225.98, 0.682769
3227.99, 0.683285
3230.0, 0.683736
3232.02, 0.684251
3234.03, 0.684832
3236.05, 0.685347
3238.07, 0.685863
3240.1, 0.686185
3242.12, 0.686508
3244.15, 0.686894
3246.18, 0.687281
3248.22, 0.687732
3250.25, 0.688377
3252.29, 0.689022
3254.33, 0.689537
3256.38, 0.689924
3258.43, 0.690375
3260.47, 0.690826
3262.53, 0.691600
3264.58, 0.692245
3266.64, 0.693018
3268.7, 0.693598
3270.76, 0.694049
3272.82, 0.694501
3274.89, 0.695274
3276.96, 0.695854
3279.04, 0.696370
3281.11, 0.696950
3283.19, 0.697530
3285.27, 0.698175
3287.35, 0.698755
3289.44, 0.699464
3291.53, 0.700109
3293.62, 0.700689
3295.71, 0.701462
3297.81, 0.702043
3299.91, 0.702623
3302.01, 0.703267
3304.11, 0.704041
3306.22, 0.704621
3308.33, 0.705137
3310.44, 0.705588
3312.56, 0.706361
3314.68, 0.706877
3316.8, 0.707457
3318.92, 0.707909
3321.05, 0.708295
3323.18, 0.708875
3325.31, 0.709456
3327.44, 0.709842
3329.58, 0.710358
3331.72, 0.710874
3333.86, 0.711196
3336.01, 0.711389
3338.16, 0.711454
3340.31, 0.711454
3342.46, 0.711712
3344.61, 0.711647
3346.77, 0.711776
3348.94, 0.711776
3351.1, 0.712034
3353.27, 0.712227
3355.44, 0.712292
3357.61, 0.712292
3359.79, 0.712163
3361.97, 0.711970
3364.15, 0.711647
3366.33, 0.711132
3368.52, 0.710616
3370.71, 0.710294
3372.9, 0.710358
3375.1, 0.710551
3377.3, 0.710938
3379.5, 0.711712
3381.71, 0.712743
3383.91, 0.713646
3386.12, 0.714226
3388.34, 0.714548
3390.55, 0.714484
3392.77, 0.714032
3394.99, 0.713323
3397.22, 0.712485
3399.45, 0.711583
3401.68, 0.710551
3403.91, 0.709262
3406.15, 0.708231
3408.39, 0.707264
3410.63, 0.706619
3412.87, 0.706233
3415.12, 0.706361
3417.37, 0.707393
3419.63, 0.709133
3421.88, 0.711389
3424.14, 0.713839
3426.41, 0.716417
3428.67, 0.718673
3430.94, 0.720736
3433.21, 0.722734
3435.49, 0.724475
3437.77, 0.725958
3440.05, 0.727569
3442.33, 0.728923
3444.62, 0.730083
3446.91, 0.731372
3449.2, 0.732597
3451.5, 0.733693
3453.8, 0.734789
3456.1, 0.735691
3458.41, 0.736529
3460.72, 0.737109
3463.03, 0.737560
3465.34, 0.737883
3467.66, 0.738076
3469.98, 0.738205
3472.31, 0.738592
3474.63, 0.738914
3476.96, 0.739365
3479.3, 0.739946
3481.64, 0.740268
3483.97, 0.740203
3486.32, 0.740074
3488.66, 0.739752
3491.01, 0.739043
3493.36, 0.738398
3495.72, 0.737560
3498.08, 0.737109
3500.44, 0.737625
3502.81, 0.738914
3505.18, 0.740784
3507.55, 0.743040
3509.92, 0.745618
3512.3, 0.748003
3514.68, 0.750130
3517.06, 0.752000
3519.45, 0.753482
3521.84, 0.754578
3524.24, 0.755545
3526.64, 0.756383
3529.04, 0.757350
3531.44, 0.758317
3533.85, 0.758897
3536.26, 0.759477
3538.67, 0.759993
3541.09, 0.760573
3543.51, 0.761089
3545.93, 0.761604
3548.36, 0.762185
3550.79, 0.762571
3553.22, 0.763022
3555.66, 0.763603
3558.1, 0.764376
3560.54, 0.764892
3562.99, 0.765408
3565.44, 0.765859
3567.9, 0.766246
3570.35, 0.766761
3572.81, 0.767084
3575.28, 0.767535
3577.75, 0.767986
3580.22, 0.768373
3582.69, 0.769017
3585.17, 0.769469
3587.65, 0.769984
3590.14, 0.770371
3592.62, 0.770758
3595.11, 0.771016
3597.61, 0.771338
3600.11, 0.771789
3602.61, 0.772047
3605.11, 0.772176
3607.62, 0.772434
3610.14, 0.772756
3612.65, 0.772949
3615.17, 0.773207
3617.69, 0.773530
3620.22, 0.773852
3622.75, 0.773916
3625.28, 0.774045
3627.82, 0.774239
3630.36, 0.774432
3632.9, 0.774561
3635.45, 0.774690
3638.0, 0.774819
3640.56, 0.774883
3643.12, 0.775077
3645.68, 0.775206
3648.24, 0.775206
3650.81, 0.775270
3653.39, 0.775528
3655.96, 0.775463
3658.54, 0.775528
3661.13, 0.775721
3663.71, 0.775915
3666.3, 0.775979
3668.9, 0.776172
3671.5, 0.776237
3674.1, 0.776172
3676.7, 0.776366
3679.31, 0.776624
3681.93, 0.776753
3684.54, 0.776882
3687.17, 0.777075
3689.79, 0.777268
3692.42, 0.777462
3695.05, 0.777655
3697.69, 0.777913
3700.32, 0.778042
3702.97, 0.778106
3705.61, 0.778171
3708.27, 0.778364
3710.92, 0.778622
3713.58, 0.778751
3716.24, 0.779009
3718.91, 0.779138
3721.58, 0.779202
3724.25, 0.779267
3726.93, 0.779396
3729.61, 0.779589
3732.29, 0.779653
3734.98, 0.779653
3737.67, 0.779718
3740.37, 0.779782
3743.07, 0.779847
3745.78, 0.779911
3748.49, 0.780040
3751.2, 0.780040
3753.91, 0.780040
3756.63, 0.780040
3759.36, 0.780040
3762.09, 0.780169
3764.82, 0.780169
3767.55, 0.780105
3770.29, 0.780169
3773.04, 0.780169
3775.78, 0.779976
3778.54, 0.779782
3781.29, 0.779653
3784.05, 0.779653
3786.82, 0.779589
3789.59, 0.779331
3792.36, 0.779202
3795.13, 0.779202
3797.92, 0.779202
3800.7, 0.778944
3803.49, 0.778751
3806.28, 0.778558
3809.08, 0.778364
3811.88, 0.778300
3814.68, 0.778235
3817.49, 0.778171
3820.31, 0.778106
3823.12, 0.777848
3825.94, 0.777655
3828.77, 0.777655
3831.6, 0.777655
3834.43, 0.777591
3837.27, 0.777526
3840.11, 0.777591
3842.96, 0.777591
3845.81, 0.777526
3848.67, 0.777526
3851.53, 0.777526
3854.39, 0.777462
3857.26, 0.777526
3860.13, 0.777526
3863.01, 0.777462
3865.89, 0.777397
3868.77, 0.777462
3871.66, 0.777655
3874.55, 0.777526
3877.45, 0.777397
3880.35, 0.777526
3883.26, 0.777526
3886.17, 0.777526
3889.09, 0.777397
3892.01, 0.777397
3894.93, 0.777526
3897.86, 0.777526
3900.79, 0.777462
3903.73, 0.777333
3906.67, 0.777268
3909.62, 0.777139
3912.57, 0.777011
3915.52, 0.776753
3918.48, 0.776559
3921.45, 0.776430
3924.42, 0.776366
3927.39, 0.776044
3930.37, 0.775721
3933.35, 0.775463
3936.34, 0.775270
3939.33, 0.775077
3942.32, 0.774819
3945.32, 0.774561
3948.33, 0.774368
3951.34, 0.774110
3954.35, 0.773852
3957.37, 0.773659
3960.39, 0.773465
3963.42, 0.773272
3966.45, 0.773143
3969.49, 0.773078
3972.53, 0.773014
3975.58, 0.772756
3978.63, 0.772563
3981.68, 0.772498
3984.75, 0.772563
3987.81, 0.772369
3990.88, 0.772240
3993.95, 0.772111
3997.03, 0.772240
4000.12, 0.772369
4003.21, 0.772305
4006.3, 0.772240
4009.4, 0.772240
4012.5, 0.772176
4015.61, 0.772047
4018.72, 0.772111
4021.84, 0.771983
4024.96, 0.771918
4028.09, 0.771854
4031.22, 0.771725
4034.36, 0.771596
4037.5, 0.771402
4040.65, 0.771209
4043.8, 0.771145
4046.96, 0.771080
4050.12, 0.770951
4053.29, 0.770822
4056.46, 0.770564
4059.64, 0.770371
4062.82, 0.770307
4066.0, 0.770242
4069.19, 0.770113
4072.39, 0.769791
4075.59, 0.769597
4078.8, 0.769533
4082.01, 0.769275
4085.23, 0.768953
4088.45, 0.768759
4091.68, 0.768566
4094.91, 0.768308
4098.15, 0.768115
4101.39, 0.767728
4104.63, 0.767470
4107.89, 0.767277
4111.14, 0.767019
4114.41, 0.766761
4117.67, 0.766439
4120.95, 0.766181
4124.23, 0.765794
4127.51, 0.765472
4130.8, 0.765150
4134.09, 0.764892
4137.39, 0.764441
4140.7, 0.764118
4144.01, 0.763732
4147.32, 0.763345
4150.64, 0.763022
4153.97, 0.762636
4157.3, 0.762120
4160.64, 0.761540
4163.98, 0.761153
4167.33, 0.760573
4170.68, 0.759928
4174.04, 0.759219
4177.4, 0.758704
4180.77, 0.758124
4184.14, 0.757479
4187.52, 0.756576
4190.91, 0.755610
4194.3, 0.754127
4197.69, 0.752064
4201.1, 0.749099
4204.5, 0.745167
4207.92, 0.740332
4211.34, 0.734595
4214.76, 0.728407
4218.19, 0.722541
4221.62, 0.716933
4225.06, 0.712034
4228.51, 0.708231
4231.96, 0.705523
4235.42, 0.703976
4238.88, 0.703912
4242.35, 0.705459
4245.83, 0.708489
4249.31, 0.713517
4252.79, 0.719963
4256.28, 0.723444
4259.78, 0.719060
4263.29, 0.711518
4266.79, 0.706104
4270.31, 0.702623
4273.83, 0.700302
4277.35, 0.698755
4280.89, 0.697788
4284.42, 0.696950
4287.97, 0.696241
4291.52, 0.696048
4295.07, 0.696112
4298.63, 0.696370
4302.2, 0.696306
4305.78, 0.696499
4309.35, 0.696757
4312.94, 0.696950
4316.53, 0.696950
4320.13, 0.696628
4323.73, 0.696306
4327.34, 0.695790
4330.96, 0.695016
4334.58, 0.693985
4338.21, 0.692825
4341.84, 0.691664
4345.48, 0.690504
4349.12, 0.689150
4352.77, 0.687861
4356.43, 0.686701
4360.1, 0.685734
4363.76, 0.684703
4367.44, 0.683800
4371.12, 0.682640
4374.81, 0.681286
4378.51, 0.679868
4382.21, 0.678514
4385.92, 0.676967
4389.63, 0.675356
4393.35, 0.673680
4397.08, 0.672068
4400.81, 0.670650
4404.55, 0.669361
4408.29, 0.668007
4412.04, 0.666976
4415.8, 0.665945
4419.57, 0.664849
4423.34, 0.663817
4427.12, 0.662979
4430.9, 0.662335
4434.69, 0.661626
4438.49, 0.660788
4442.29, 0.660079
4446.1, 0.659241
4449.92, 0.658209
4453.74, 0.656984
4457.57, 0.655502
4461.41, 0.653761
4465.25, 0.651892
4469.1, 0.649894
4472.95, 0.647638
4476.82, 0.645253
4480.69, 0.642674
4484.56, 0.639967
4488.44, 0.637131
4492.33, 0.634165
4496.23, 0.631200
4500.13, 0.628042
4504.04, 0.625076
4507.96, 0.621982
4511.88, 0.618824
4515.81, 0.615730
4519.75, 0.612829
4523.69, 0.609993
4527.65, 0.607350
4531.6, 0.604771
4535.57, 0.602386
4539.54, 0.600259
4543.52, 0.598067
4547.5, 0.596069
4551.5, 0.594135
4555.5, 0.592008
4559.5, 0.589881
4563.52, 0.587754
4567.54, 0.585497
4571.56, 0.583306
4575.6, 0.581307
4579.64, 0.579116
4583.69, 0.577053
4587.75, 0.574990
4591.81, 0.572928
4595.88, 0.570800
4599.96, 0.568609
4604.04, 0.565966
4608.14, 0.563130
4612.24, 0.560035
4616.34, 0.556555
4620.46, 0.552816
4624.58, 0.548819
4628.71, 0.544758
4632.84, 0.540568
4636.99, 0.536443
4641.14, 0.532769
4645.3, 0.529739
4649.47, 0.527483
4653.64, 0.526000
4657.82, 0.524904
4662.01, 0.524002
4666.21, 0.523228
4670.41, 0.522326
4674.62, 0.521101
4678.84, 0.519683
4683.07, 0.518136
4687.3, 0.516460
4691.54, 0.514719
4695.79, 0.512721
4700.05, 0.510658
4704.31, 0.508531
4708.59, 0.506275
4712.87, 0.503568
4717.15, 0.500538
4721.45, 0.497573
4725.76, 0.494866
4730.07, 0.492029
4734.39, 0.488935
4738.72, 0.486099
4743.05, 0.483456
4747.39, 0.480491
4751.75, 0.477203
4756.1, 0.473658
4760.47, 0.469984
4764.85, 0.466181
4769.23, 0.462957
4773.62, 0.460701
4778.02, 0.459670
4782.43, 0.460121
4786.85, 0.462184
4791.27, 0.465729
4795.7, 0.469984
4800.14, 0.474560
4804.59, 0.478944
4809.05, 0.482747
4813.51, 0.486034
4817.99, 0.488419
4822.47, 0.489967
4826.96, 0.490611
4831.46, 0.490353
4835.96, 0.489000
4840.48, 0.486486
4845.0, 0.483005
4849.54, 0.479008
4854.08, 0.474883
4858.63, 0.470693
4863.18, 0.466954
4867.75, 0.463795
4872.33, 0.460895
4876.91, 0.458187
4881.5, 0.455545
4886.1, 0.452708
4890.71, 0.449807
4895.33, 0.447358
4899.96, 0.445940
4904.59, 0.446069
4909.24, 0.447938
4913.89, 0.451355
4918.55, 0.455931
4923.22, 0.461024
4927.9, 0.465536
4932.59, 0.468823
4937.29, 0.470306
4942.0, 0.469984
4946.71, 0.467856
4951.44, 0.464182
4956.17, 0.459025
4960.91, 0.452902
4965.67, 0.446133
4970.43, 0.439043
4975.2, 0.432016
4979.98, 0.425377
4984.76, 0.419511
4989.56, 0.414934
4994.37, 0.411711
4999.18, 0.409777
5004.01, 0.408746
5008.84, 0.408488
5013.69, 0.408037
5018.54, 0.407263
5023.4, 0.406877
5028.28, 0.406039
5033.16, 0.404814
5038.05, 0.403460
5042.95, 0.402171
5047.86, 0.401140
5052.78, 0.400302
5057.71, 0.399270
5062.65, 0.397917
5067.6, 0.396112
5072.56, 0.393533
5077.53, 0.390117
5082.5, 0.386120
5087.49, 0.382253
5092.49, 0.378063
5097.5, 0.373486
5102.51, 0.368974
5107.54, 0.364977
5112.58, 0.361303
5117.62, 0.358080
5122.68, 0.355437
5127.75, 0.353181
5132.82, 0.350925
5137.91, 0.348668
5143.01, 0.346155
5148.12, 0.343963
5153.23, 0.342480
5158.36, 0.340675
5163.5, 0.338419
5168.65, 0.335905
5173.81, 0.333327
5178.98, 0.330748
5184.15, 0.328492
5189.34, 0.326494
5194.54, 0.324560
5199.75, 0.322562
5204.98, 0.321144
5210.21, 0.318759
5215.45, 0.316760
5220.7, 0.315858
5225.96, 0.314633
5231.23, 0.313731
5236.52, 0.313602
5241.81, 0.314504
5247.12, 0.315858
5252.44, 0.317534
5257.76, 0.319145
5263.1, 0.320564
5268.45, 0.321659
5273.81, 0.322304
5279.18, 0.322884
5284.56, 0.323271
5289.95, 0.323013
5295.36, 0.324044
5300.77, 0.325527
5306.2, 0.326687
5311.63, 0.327977
5317.08, 0.329201
5322.54, 0.330168
5328.01, 0.331006
5333.49, 0.331651
5338.98, 0.331780
5344.49, 0.330426
5350.0, 0.328815
5355.53, 0.328557
5361.07, 0.327783
5366.62, 0.325720
5372.18, 0.322626
5377.75, 0.319210
5383.34, 0.315342
5388.93, 0.311023
5394.54, 0.306318
5400.16, 0.301354
5405.79, 0.296004
5411.44, 0.290718
5417.09, 0.284465
5422.76, 0.279309
5428.43, 0.277826
5434.12, 0.275505
5439.83, 0.272218
5445.54, 0.268995
5451.26, 0.265901
5457.0, 0.262420
5462.75, 0.258681
5468.52, 0.256812
5474.29, 0.254814
5480.08, 0.252235
5485.88, 0.250495
5491.69, 0.247852
5497.51, 0.244629
5503.35, 0.240954
5509.2, 0.237280
5515.06, 0.232768
5520.93, 0.228191
5526.82, 0.223743
5532.71, 0.219425
5538.63, 0.214719
5544.55, 0.209884
5550.49, 0.205243
5556.44, 0.202020
5562.4, 0.199893
5568.37, 0.198217
5574.36, 0.196025
5580.36, 0.195832
5586.37, 0.198217
5592.4, 0.200602
5598.44, 0.202085
5604.49, 0.203890
5610.56, 0.205050
5616.63, 0.205437
5622.73, 0.205437
5628.83, 0.204341
5634.95, 0.201247
5641.08, 0.197637
5647.23, 0.196863
5653.39, 0.196090
5659.56, 0.195058
5665.74, 0.194285
5671.94, 0.192158
5678.15, 0.191126
5684.38, 0.190804
5690.62, 0.189450
5696.87, 0.189128
5703.14, 0.188226
5709.42, 0.186356
5715.72, 0.186485
5722.03, 0.187259
5728.35, 0.188290
5734.69, 0.188935
5741.03, 0.189386
5747.4, 0.189708
5753.78, 0.191771
5760.17, 0.190675
5766.58, 0.189579
5773.0, 0.193318
5779.44, 0.196025
5785.88, 0.197572
5792.35, 0.199248
5798.83, 0.200538
5805.32, 0.202085
5811.83, 0.202342
5818.35, 0.200538
5824.89, 0.201182
5831.45, 0.204018
5838.01, 0.205565
5844.59, 0.206017
5851.19, 0.205114
5857.8, 0.203374
5864.43, 0.202085
5871.07, 0.201118
5877.73, 0.196090
5884.4, 0.195639
5891.09, 0.196219
5897.79, 0.195445
5904.5, 0.198604
5911.23, 0.199571
5917.98, 0.199635
5924.75, 0.199377
5931.53, 0.196348
5938.32, 0.195896
5945.13, 0.200409
5951.96, 0.202407
5958.8, 0.202665
5965.65, 0.200666
5972.53, 0.200666
5979.42, 0.200924
5986.32, 0.198797
5993.24, 0.198410
6000.18, 0.199313
6007.13, 0.197895
6014.1, 0.196090
6021.08, 0.196283
6028.09, 0.196154
6035.1, 0.194801
6042.14, 0.189450
6049.19, 0.185583
6056.25, 0.190611
6063.34, 0.192351
6070.44, 0.190095
6077.55, 0.190675
6084.69, 0.192415
6091.84, 0.191900
6099.0, 0.190417
6106.19, 0.186872
6113.39, 0.183133
6120.61, 0.183455
6127.84, 0.183133
6135.09, 0.180297
6142.36, 0.177074
6149.65, 0.174495
6156.95, 0.171530
6164.27, 0.169983
6171.61, 0.169145
6178.97, 0.165858
6186.34, 0.163730
6193.73, 0.165277
6201.14, 0.165729
6208.57, 0.165535
6216.01, 0.165729
6223.47, 0.166244
6230.95, 0.166696
6238.45, 0.167276
6245.97, 0.167985
6253.5, 0.168952
6261.06, 0.169661
6268.63, 0.170370
6276.21, 0.171143
6283.82, 0.171852
6291.45, 0.172304
6299.1, 0.173013
6306.76, 0.173593
6314.44, 0.174366
6322.14, 0.175269
6329.86, 0.176236
6337.6, 0.175076
6345.35, 0.175076
6353.13, 0.178814
6360.92, 0.180039
6368.74, 0.179459
6376.57, 0.181328
6384.43, 0.183198
6392.3, 0.183907
6400.19, 0.183262
6408.1, 0.178492
6416.03, 0.177009
6423.98, 0.180555
6431.95, 0.181328
6439.94, 0.181264
6447.95, 0.180168
6455.98, 0.178492
6464.03, 0.176236
6472.1, 0.172755
6480.19, 0.169210
6488.31, 0.164955
6496.44, 0.163473
6504.59, 0.165600
6512.76, 0.165020
6520.95, 0.162764
6529.16, 0.162764
6537.4, 0.161990
6545.65, 0.160121
6553.92, 0.158187
6562.22, 0.156446
6570.54, 0.153417
6578.88, 0.152901
6587.23, 0.152256
6595.61, 0.150838
6604.02, 0.149871
6612.44, 0.148324
6620.89, 0.146713
6629.35, 0.143425
6637.84, 0.141427
6646.35, 0.143941
6654.88, 0.145552
6663.44, 0.144779
6672.01, 0.143167
6680.61, 0.141878
6689.23, 0.142072
6697.88, 0.141556
6706.54, 0.139171
6715.23, 0.137430
6723.94, 0.136399
6732.67, 0.135626
6741.42, 0.134465
6750.2, 0.133369
6759.0, 0.132596
6767.82, 0.131242
6776.67, 0.130017
6785.54, 0.128793
6794.44, 0.129051
6803.35, 0.130533
6812.29, 0.130533
6821.26, 0.129051
6830.24, 0.128277
6839.25, 0.128148
6848.29, 0.126150
6857.35, 0.122669
6866.43, 0.121251
6875.54, 0.122282
6884.67, 0.121509
6893.82, 0.119962
6903.0, 0.117963
6912.2, 0.116352
6921.43, 0.114869
6930.69, 0.113000
6939.96, 0.110937
6949.27, 0.108616
6958.59, 0.106102
6967.95, 0.105458
6977.33, 0.104942
6986.73, 0.103846
6996.16, 0.103008
7005.61, 0.102428
7015.09, 0.101461
7024.6, 0.100559
7034.13, 0.0990120
7043.69, 0.0966910
7053.27, 0.0957240
7062.88, 0.0948220
7072.52, 0.0929520
7082.18, 0.0910830
7091.87, 0.0891490
7101.58, 0.0871510
7111.32, 0.0848300
7121.09, 0.0823810
7130.88, 0.0800600
7140.71, 0.0772240
7150.56, 0.0743880
7160.43, 0.0717450
7170.33, 0.0690380
7180.27, 0.0667810
7190.23, 0.0643320
7200.21, 0.0616250
7210.23, 0.0595620
7220.27, 0.0582080
7230.34, 0.0567260
7240.44, 0.0552430
7250.56, 0.0537600
7260.72, 0.0522130
7270.9, 0.0504730
7281.12, 0.0488610
7291.36, 0.0473140
7301.63, 0.0456380
7311.93, 0.0438980
7322.25, 0.0421570
7332.61, 0.0403520
7343.0, 0.0386760
7353.41, 0.0371940
7363.86, 0.0358400
7374.33, 0.0344870
7384.83, 0.0331970
7395.37, 0.0318440
7405.93, 0.0306190
7416.53, 0.0294590
7427.15, 0.0284920
7437.81, 0.0273960
7448.5, 0.0262360
7459.22, 0.0249460
7469.96, 0.0238500
7480.74, 0.0226900
7491.55, 0.0215300
7502.39, 0.0203700
7513.27, 0.0190800
7524.17, 0.0177910
7535.11, 0.0165660
7546.08, 0.0153420
7557.08, 0.0143100
7568.11, 0.0132790
7579.17, 0.0123760
7590.27, 0.0115380
7601.4, 0.0106360
7612.56, 0.00973400
7623.76, 0.00908900
7634.98, 0.00844400
7646.24, 0.00792900
7657.54, 0.00741300
7668.87, 0.00709100
7680.23, 0.00670400
7691.62, 0.00638200
7703.05, 0.00618800
7714.51, 0.00618800
7726.01, 0.00599500
7737.54, 0.00586600
7749.11, 0.00599500
7760.71, 0.00625300
7772.35, 0.00651100
7784.02, 0.00689700
7795.72, 0.00741300
7807.46, 0.00805800
7819.23, 0.00870200
7831.04, 0.00960500
7842.89, 0.0106360
7854.77, 0.0119900
7866.69, 0.0134080
7878.65, 0.0150190
7890.64, 0.0167600
7902.67, 0.0188230
7914.74, 0.0210790
7926.84, 0.0237860
7938.98, 0.0266870
7951.16, 0.0299100
7963.37, 0.0333260
7975.62, 0.0370000
7987.91, 0.0408040
8000.24, 0.0449290
8012.6, 0.0491840
8025.01, 0.0536310
8037.45, 0.0582730
8049.93, 0.0633010
8062.45, 0.0687150
8075.01, 0.0743880
8087.61, 0.0801890
8100.24, 0.0861840
8112.91, 0.0923080
8125.63, 0.0984320
8138.39, 0.104620
8151.18, 0.110808
8164.02, 0.116739
8176.9, 0.122153
8189.81, 0.126794
8202.77, 0.130791
8215.77, 0.134207
8228.82, 0.136786
8241.9, 0.138526
8255.02, 0.139815
8268.19, 0.141298
8281.39, 0.142974
8294.65, 0.144586
8307.94, 0.146133
8321.28, 0.147486
8334.66, 0.148518
8348.08, 0.149291
8361.54, 0.149549
8375.05, 0.149549
8388.6, 0.149033
8402.2, 0.148002
8415.84, 0.146971
8429.52, 0.145939
8443.25, 0.145037
8457.02, 0.143941
8470.84, 0.143103
8484.7, 0.142652
8498.61, 0.142458
8512.57, 0.142265
8526.57, 0.142329
8540.62, 0.142652
8554.71, 0.143039
8568.85, 0.143619
8583.04, 0.144070
8597.27, 0.144586
8611.55, 0.145230
8625.88, 0.145875
8640.26, 0.146390
8654.68, 0.146519
8669.16, 0.145939
8683.68, 0.144715
8698.25, 0.143103
8712.87, 0.140782
8727.53, 0.137753
8742.25, 0.134401
8757.02, 0.131113
8771.83, 0.127890
8786.7, 0.125054
8801.62, 0.122540
8816.59, 0.120413
8831.61, 0.118414
8846.68, 0.116545
8861.8, 0.114869
8876.97, 0.113193
8892.2, 0.111324
8907.48, 0.109132
8922.81, 0.107005
8938.2, 0.105071
8953.63, 0.103137
8969.13, 0.101332
8984.67, 0.0996560
9000.27, 0.0982380
9015.92, 0.0970140
9031.63, 0.0960470
9047.39, 0.0950800
9063.21, 0.0948860
9079.08, 0.0956600
9095.01, 0.0975940
9111.0, 0.100365
9127.04, 0.103202
9143.13, 0.105136
9159.28, 0.105845
9175.49, 0.105007
9191.76, 0.103395
9208.09, 0.101203
9224.47, 0.0983030
9240.92, 0.0950150
9257.42, 0.0917920
9273.98, 0.0890850
9290.6, 0.0878600
9307.28, 0.0879890
9324.02, 0.0897940
9340.82, 0.0935970
9357.68, 0.0983030
9374.6, 0.102686
9391.58, 0.106167
9408.62, 0.108488
9425.73, 0.110164
9442.9, 0.111130
9460.13, 0.112677
9477.42, 0.116158
9494.78, 0.122927
9512.2, 0.132789
9529.69, 0.143812
9547.24, 0.153223
9564.86, 0.160314
9582.54, 0.165535
9600.28, 0.168758
9618.1, 0.170821
9635.97, 0.171917
9653.92, 0.171595
9671.93, 0.169339
9690.01, 0.164633
9708.16, 0.157929
9726.37, 0.149936
9744.65, 0.141749
9763.0, 0.134207
9781.43, 0.128406
9799.92, 0.125956
9818.48, 0.128857
9837.1, 0.136012
9855.8, 0.144328
9874.58, 0.150903
9893.42, 0.154899
9912.34, 0.156962
9931.33, 0.157542
9950.39, 0.156962
9969.52, 0.156060
9988.74, 0.154835
10008.0, 0.153288
10027.4, 0.151612
10046.8, 0.149936
10066.3, 0.147680
10085.9, 0.145295
10105.6, 0.143103
10125.3, 0.140976
10145.1, 0.138591
10165.0, 0.136012
10185.0, 0.132854
10205.0, 0.129051
10225.2, 0.125183
10245.4, 0.121702
10265.7, 0.118672
10286.0, 0.115901
10306.5, 0.113515
10327.0, 0.111711
10347.6, 0.110808
10368.3, 0.110550
10389.1, 0.110357
10409.9, 0.110550
10430.9, 0.111259
10451.9, 0.112162
10473.0, 0.113644
10494.2, 0.115320
10515.5, 0.117061
10536.9, 0.119059
10558.4, 0.121122
10579.9, 0.122862
10601.5, 0.124861
10623.3, 0.127246
10645.1, 0.129502
10667.0, 0.131564
10689.0, 0.133434
10711.1, 0.135239
10733.2, 0.137044
10755.5, 0.138977
10777.9, 0.140976
10800.3, 0.143490
10822.9, 0.146133
10845.5, 0.148260
10868.2, 0.150000
10891.1, 0.151741
10914.0, 0.153739
10937.0, 0.155802
10960.2, 0.157607
10983.4, 0.159476
11006.7, 0.161152
11030.1, 0.162506
11053.6, 0.163795
11077.3, 0.165277
11101.0, 0.166889
11124.8, 0.168436
11148.7, 0.170241
11172.7, 0.171917
11196.9, 0.173271
11221.1, 0.174818
11245.4, 0.176107
11269.9, 0.177267
11294.4, 0.178105
11319.1, 0.178621
11343.9, 0.179008
11368.8, 0.179330
11393.7, 0.179523
11418.8, 0.179394
11444.0, 0.179330
11469.4, 0.179523
11494.8, 0.179975
11520.3, 0.180684
11546.0, 0.181715
11571.8, 0.182489
11597.7, 0.182811
11623.7, 0.183133
11649.8, 0.183455
11676.0, 0.183391
11702.4, 0.182746
11728.9, 0.182231
11755.5, 0.181328
11782.2, 0.180232
11809.0, 0.179137
11836.0, 0.178170
11863.0, 0.177461
11890.3, 0.176623
11917.6, 0.175398
11945.0, 0.173657
11972.6, 0.171595
12000.4, 0.169532
12028.2, 0.167276
12056.2, 0.164697
12084.3, 0.161410
12112.5, 0.157800
12140.9, 0.153675
12169.4, 0.148904
12198.0, 0.143683
12226.8, 0.138139
12255.7, 0.132145
12284.7, 0.125827
12313.9, 0.119381
12343.2, 0.112226
12372.7, 0.104684
12402.3, 0.0966910
12432.0, 0.0882470
12461.9, 0.0796740
12491.9, 0.0711000
12522.1, 0.0637520
12552.4, 0.0585950
12582.9, 0.0567260
12613.5, 0.0573060
12644.3, 0.0585950
12675.2, 0.0583370
12706.3, 0.0571770
12737.5, 0.0555650
12768.9, 0.0552430
12800.4, 0.0554360
12832.1, 0.0563390
12863.9, 0.0575630
12895.9, 0.0593680
12928.1, 0.0625910
12960.4, 0.0674260
12992.9, 0.0724540
13025.5, 0.0761930
13058.3, 0.0770310
13091.3, 0.0749030
13124.4, 0.0712290
13157.8, 0.0676190
13191.2, 0.0642030
13224.9, 0.0611730
13258.7, 0.0587880
13292.7, 0.0579500
13326.9, 0.0587880
13361.2, 0.0616250
13395.7, 0.0638810
13430.4, 0.0651700
13465.3, 0.0661370
13500.4, 0.0664590
13535.7, 0.0662010
13571.1, 0.0654280
13606.7, 0.0634290
13642.5, 0.0607870
13678.5, 0.0584010
13714.7, 0.0575630
13751.1, 0.0583370
13787.6, 0.0609800
13824.4, 0.0638810
13861.4, 0.0668460
13898.5, 0.0698760
13935.9, 0.0732920
13973.5, 0.0771600
14011.2, 0.0814780
14049.2, 0.0851530
14087.4, 0.0886340
14125.8, 0.0917280
14164.3, 0.0945000
14203.2, 0.0966270
14242.2, 0.0983030
14281.4, 0.0996560
14320.9, 0.100430
14360.5, 0.100237
14400.4, 0.0995270
14440.5, 0.0983670
14480.9, 0.0973360
14521.4, 0.0957890
14562.2, 0.0943060
14603.3, 0.0925660
14644.5, 0.0907610
14686.0, 0.0886980
14727.7, 0.0865060
14769.7, 0.0842500
14811.9, 0.0823810
14854.3, 0.0810270
14897.0, 0.0806400
14939.9, 0.0799310
14983.1, 0.0818010
15026.5, 0.0872800
15070.2, 0.0925660
15114.2, 0.0964980
15158.3, 0.0983670
15202.8, 0.0977230
15247.5, 0.0942420
15292.5, 0.0886340
15337.7, 0.0823160
15383.2, 0.0745810
15429.0, 0.0669100
15475.1, 0.0609150
15521.4, 0.0571120
15568.0, 0.0546630
15614.9, 0.0540180
15662.1, 0.0543400
15709.6, 0.0553720
15757.3, 0.0573700
15805.4, 0.0612380
15853.7, 0.0660720
15902.3, 0.0716800
15951.2, 0.0774170
16000.5, 0.0819300
16050.0, 0.0843150
16099.8, 0.0851530
16150.0, 0.0845080
16200.5, 0.0829610
16251.3, 0.0812850
16302.4, 0.0810920
16353.8, 0.0834120
16405.5, 0.0888910
16457.6, 0.0954660
16510.0, 0.101203
16562.8, 0.104813
16615.9, 0.106747
16669.3, 0.106554
16723.1, 0.105136
16777.2, 0.102235
16831.7, 0.0991410
16886.5, 0.0966270
16941.7, 0.0947570
16997.2, 0.0923080
17053.1, 0.0903740
17109.4, 0.0888270
17166.1, 0.0875380
17223.1, 0.0862490
17280.5, 0.0855390
17338.3, 0.0837350
17396.5, 0.0827680
17455.1, 0.0824450
17514.0, 0.0823160
17573.4, 0.0813500
17633.2, 0.0808980
17693.4, 0.0805120
17754.0, 0.0799960
17815.0, 0.0790290
17876.4, 0.0788360
17938.3, 0.0780620
18000.5, 0.0764510
18063.3, 0.0748390
18126.4, 0.0736790
18190.0, 0.0721960
18254.1, 0.0729700
18318.6, 0.0754840
18383.5, 0.0803830
18449.0, 0.0847660
18514.9, 0.0879250
18581.2, 0.0900520
18648.0, 0.0911480
18715.4, 0.0903100
18783.2, 0.0894070
18851.5, 0.0874090
18920.3, 0.0845080
18989.6, 0.0810920
19059.4, 0.0798670
19129.7, 0.0808980
19200.6, 0.0824450
19272.0, 0.0823810
19343.9, 0.0838640
19416.3, 0.0856680
19489.3, 0.0882470
19562.8, 0.0887630
19637.0, 0.0894070
19711.6, 0.0900520
19786.8, 0.0916630
19862.6, 0.0910830
19939.0, 0.0903100
20016.0, 0.0892140
20093.6, 0.0906320
20171.8, 0.0912760
20250.6, 0.0925010
20330.0, 0.0961760
20410.0, 0.0999140
20490.7, 0.101784
20572.0, 0.102686
20654.0, 0.0999140
20736.6, 0.0945640
20819.9, 0.0847660
20903.8, 0.0745810
20988.5, 0.0647830
21073.8, 0.0579500
21159.8, 0.0538250
21246.5, 0.0551140
21334.0, 0.0618820
21422.1, 0.0707130
21511.0, 0.0740010
21600.7, 0.0754190
21691.0, 0.0743230
21782.1, 0.0742590
21874.0, 0.0762570
21966.7, 0.0836700
22060.2, 0.0950800
22154.5, 0.109454
22249.6, 0.123056
22345.5, 0.133240
22442.2, 0.140138
22539.8, 0.141105
22638.2, 0.136786
22737.5, 0.137946
22837.7, 0.138011
22938.7, 0.134530
23040.7, 0.130275
23143.5, 0.129373
23247.3, 0.130598
23352.1, 0.133176
23457.7, 0.139171
23564.4, 0.141620
23672.0, 0.139300
23780.5, 0.138462
23890.1, 0.133756
24000.7, 0.131822
24112.3, 0.127181
24225.0, 0.120864
24338.7, 0.112484
24453.5, 0.114611
24569.4, 0.116610
24686.4, 0.118350
24804.5, 0.114547
24923.8, 0.000000
