Database of Origin,USGS Spectral Database
Sample Description,See USGS database for additional info
Date Added,2017-02-22 02:49:16.552737

Data ID,USGS_the01          
Sample ID,thenardite_gds146.21682
Mineral Name,thenardite

Wavelength
213.1, 0.103392
221.1, 0.113765
229.1, 0.120187
236.1, 0.123441
242.1, 0.125137
248.1, 0.127211
253.6, 0.129717
258.6, 0.131027
263.6, 0.133549
268.6, 0.136761
273.1, 0.140754
277.1, 0.144391
281.1, 0.147886
285.1, 0.152490
289.1, 0.156994
293.1, 0.161860
297.1, 0.168532
301.1, 0.181026
305.1, 0.187225
309.1, 0.192307
313.1, 0.198695
317.1, 0.203257
321.1, 0.208775
325.1, 0.213675
329.1, 0.218335
333.1, 0.222658
337.1, 0.227290
341.1, 0.230806
345.1, 0.234761
349.1, 0.237179
353.1, 0.242937
357.1, 0.249361
360.6, 0.253842
363.6, 0.257458
366.6, 0.260427
369.6, 0.264108
372.6, 0.269009
375.6, 0.273026
378.6, 0.279320
381.1, 0.286887
383.1, 0.288839
385.1, 0.293018
387.1, 0.296945
389.1, 0.299829
391.1, 0.303071
393.1, 0.306616
395.1, 0.309094
397.1, 0.311884
399.1, 0.315136
401.1, 0.316282
403.1, 0.318910
405.1, 0.321896
407.1, 0.323366
409.1, 0.326054
411.1, 0.333277
412.8, 0.331899
415.8, 0.335510
418.8, 0.339202
421.8, 0.342105
424.8, 0.347988
427.8, 0.352167
430.8, 0.356979
433.8, 0.361464
436.8, 0.367381
439.8, 0.371516
442.8, 0.376082
445.8, 0.381205
448.8, 0.386835
451.3, 0.391537
453.3, 0.393317
455.3, 0.395996
457.3, 0.398124
459.3, 0.400130
461.3, 0.402259
463.3, 0.404667
465.3, 0.405948
467.3, 0.408135
469.3, 0.409788
471.3, 0.411439
473.3, 0.413237
475.3, 0.414476
477.3, 0.416330
479.3, 0.418016
481.3, 0.420126
483.3, 0.421730
485.3, 0.423527
487.3, 0.425942
489.3, 0.428163
491.3, 0.430314
493.3, 0.433399
495.3, 0.435063
497.3, 0.436506
499.3, 0.440070
501.3, 0.443213
503.3, 0.445595
505.3, 0.448231
507.3, 0.451005
509.3, 0.452904
511.3, 0.456448
513.3, 0.458603
515.3, 0.461831
517.3, 0.464737
519.3, 0.467239
521.3, 0.469767
523.3, 0.473236
525.3, 0.475565
527.3, 0.478433
529.3, 0.481056
531.3, 0.483728
533.3, 0.486411
535.3, 0.489005
537.3, 0.491048
539.3, 0.493200
541.3, 0.495252
543.3, 0.497635
545.3, 0.499724
547.3, 0.502175
549.3, 0.502929
551.3, 0.505786
553.3, 0.508230
555.3, 0.509784
557.3, 0.511788
559.3, 0.514170
561.3, 0.510934
563.3, 0.513193
565.3, 0.514708
567.3, 0.517298
569.3, 0.519074
571.3, 0.520745
573.3, 0.522402
575.3, 0.524678
577.3, 0.527096
579.3, 0.529063
581.3, 0.529104
583.3, 0.530942
585.3, 0.531489
587.3, 0.534199
589.3, 0.534799
591.3, 0.535924
593.3, 0.535896
595.3, 0.536940
597.3, 0.537121
599.3, 0.537690
601.1, 0.539180
602.7, 0.539929
604.3, 0.539154
605.9, 0.540764
607.5, 0.541280
609.1, 0.542111
610.7, 0.542489
612.3, 0.542939
613.9, 0.542239
615.5, 0.543403
617.1, 0.544013
618.7, 0.544748
620.3, 0.544398
621.9, 0.545902
623.5, 0.547335
625.1, 0.547995
626.7, 0.548612
628.3, 0.548136
629.9, 0.549165
631.7, 0.549753
633.7, 0.550254
635.7, 0.551241
637.7, 0.551468
639.7, 0.552193
641.7, 0.553024
643.7, 0.552859
645.7, 0.553588
647.7, 0.554404
649.7, 0.556190
651.7, 0.556002
653.7, 0.557031
655.7, 0.557730
657.7, 0.557260
659.7, 0.558051
661.7, 0.558377
663.7, 0.559982
665.7, 0.560725
667.7, 0.558511
670.2, 0.559048
673.2, 0.559866
676.2, 0.560687
679.2, 0.562070
682.2, 0.562775
685.2, 0.563029
688.2, 0.563896
691.2, 0.565101
694.2, 0.565077
697.2, 0.565966
700.2, 0.571185
702.0, 0.571000
704.0, 0.572081
706.0, 0.572606
708.0, 0.571932
710.0, 0.572475
712.0, 0.574249
714.0, 0.574685
716.0, 0.575251
718.0, 0.575390
720.0, 0.575672
722.0, 0.577438
724.0, 0.577740
726.0, 0.577737
728.0, 0.578127
730.0, 0.578864
732.0, 0.578813
734.0, 0.581260
736.0, 0.581068
738.0, 0.580558
740.0, 0.581462
742.0, 0.583023
744.0, 0.584588
746.0, 0.583813
748.0, 0.583413
750.5, 0.582713
753.5, 0.583676
756.5, 0.583488
759.5, 0.586283
762.5, 0.587733
765.5, 0.587261
768.5, 0.587949
771.5, 0.589294
774.5, 0.590816
777.5, 0.589371
781.0, 0.590536
785.0, 0.591772
789.0, 0.593773
793.0, 0.595227
797.0, 0.594683
801.5, 0.594887
806.5, 0.596072
811.5, 0.596362
816.5, 0.596217
822.0, 0.595526
828.0, 0.595135
835.0, 0.592544
843.0, 0.592740
851.0, 0.593003
859.0, 0.590702
871.0, 0.588678
883.0, 0.592067
894.0, 0.589659
904.0, 0.592967
914.0, 0.590833
924.0, 0.592879
933.0, 0.594981
941.0, 0.595191
949.0, 0.595213
957.0, 0.598513
964.0, 0.601289
970.0, 0.601148
976.0, 0.600509
982.0, 0.602358
988.0, 0.603986
994.0, 0.605078
1000.0, 0.607485
1006.0, 0.605130
1012.0, 0.606127
1018.0, 0.610377
1023.5, 0.612477
1028.5, 0.610186
1033.5, 0.612917
1038.5, 0.609787
1043.5, 0.611738
1048.5, 0.610875
1053.5, 0.611029
1058.5, 0.611770
1063.5, 0.612461
1068.5, 0.615099
1073.5, 0.612646
1078.5, 0.614068
1083.5, 0.615722
1088.5, 0.616891
1093.5, 0.615300
1098.5, 0.618009
1103.5, 0.616779
1108.5, 0.615817
1113.5, 0.619332
1118.5, 0.618268
1123.5, 0.619188
1128.5, 0.619903
1133.5, 0.620542
1138.5, 0.621855
1143.5, 0.622263
1148.5, 0.623363
1153.5, 0.623799
1158.5, 0.621623
1163.5, 0.621805
1168.5, 0.624973
1173.5, 0.624979
1178.5, 0.626111
1183.5, 0.627251
1188.5, 0.624394
1193.5, 0.628989
1198.5, 0.627596
1203.5, 0.627167
1208.5, 0.630876
1213.5, 0.631465
1218.5, 0.632030
1223.5, 0.633377
1228.5, 0.633516
1233.5, 0.636064
1238.5, 0.636206
1243.5, 0.636662
1248.5, 0.638790
1253.5, 0.639344
1258.5, 0.640668
1263.5, 0.641846
1268.5, 0.641676
1273.5, 0.643145
1278.5, 0.643273
1283.5, 0.643129
1288.5, 0.646210
1293.5, 0.646333
1298.5, 0.648601
1303.5, 0.647970
1308.5, 0.646438
1313.5, 0.649585
1318.5, 0.651192
1323.5, 0.649503
1328.5, 0.651387
1333.5, 0.651605
1338.5, 0.650944
1343.5, 0.650508
1348.5, 0.652628
1353.5, 0.652775
1358.5, 0.651898
1363.5, 0.654957
1368.5, 0.653561
1373.5, 0.655254
1378.5, 0.652488
1383.5, 0.651429
1388.5, 0.647733
1393.5, 0.646530
1398.5, 0.641236
1403.5, 0.636873
1408.5, 0.626038
1413.5, 0.621468
1418.5, 0.615336
1423.5, 0.613763
1428.5, 0.617478
1433.5, 0.622008
1438.5, 0.624447
1443.5, 0.625511
1448.5, 0.622048
1453.5, 0.624503
1458.5, 0.628670
1463.5, 0.630485
1468.5, 0.631487
1473.5, 0.633035
1478.5, 0.636241
1483.5, 0.638720
1488.5, 0.641275
1493.5, 0.643775
1498.5, 0.645099
1503.5, 0.646562
1508.5, 0.646688
1513.5, 0.647986
1518.5, 0.649478
1523.5, 0.651520
1528.5, 0.652822
1534.0, 0.652373
1540.0, 0.651910
1546.0, 0.651943
1552.0, 0.653598
1558.0, 0.655312
1564.0, 0.656482
1570.5, 0.655568
1577.5, 0.655806
1584.5, 0.655972
1591.5, 0.659500
1598.5, 0.659297
1605.5, 0.657929
1612.5, 0.658297
1619.5, 0.660818
1626.5, 0.656774
1633.5, 0.655777
1640.5, 0.655651
1647.5, 0.657700
1654.5, 0.657743
1661.5, 0.657288
1668.5, 0.656397
1676.0, 0.657553
1684.0, 0.653112
1692.0, 0.655523
1700.0, 0.657469
1708.0, 0.661320
1716.0, 0.659285
1724.0, 0.658263
1732.0, 0.657406
1740.0, 0.658821
1748.0, 0.657617
1756.0, 0.658844
1764.0, 0.656715
1772.0, 0.657293
1780.0, 0.656966
1788.0, 0.656005
1796.0, 0.656334
1805.0, 0.655354
1815.0, 0.654412
1825.0, 0.652745
1835.0, 0.654723
1845.0, 0.653907
1855.0, 0.654142
1865.0, 0.652079
1875.0, 0.643178
1885.0, 0.629857
1895.0, 0.601536
1905.0, 0.569577
1915.0, 0.545905
1925.0, 0.536444
1935.0, 0.532367
1945.0, 0.534132
1955.0, 0.534473
1965.0, 0.542834
1975.0, 0.550156
1985.0, 0.559795
1995.0, 0.569492
2005.0, 0.576974
2015.0, 0.585269
2025.0, 0.592465
2035.0, 0.596990
2045.0, 0.599217
2055.0, 0.602636
2065.0, 0.604212
2075.0, 0.603859
2085.0, 0.602177
2095.0, 0.589371
2105.0, 0.580848
2115.0, 0.582581
2125.0, 0.590537
2135.0, 0.592745
2145.0, 0.592801
2155.0, 0.595110
2165.0, 0.593498
2175.0, 0.591555
2185.0, 0.596243
2195.0, 0.600590
2205.0, 0.599582
2215.0, 0.600788
2225.0, 0.604885
2235.0, 0.602665
2245.0, 0.606256
2255.0, 0.606204
2265.0, 0.608769
2275.0, 0.610973
2285.0, 0.614260
2295.0, 0.616350
2305.0, 0.611650
2315.0, 0.604821
2325.0, 0.596397
2335.0, 0.592424
2345.0, 0.582965
2355.0, 0.574228
2365.0, 0.562926
2375.0, 0.561575
2386.0, 0.557805
2400.0, 0.554589
2418.0, 0.547454
2440.0, 0.532629
2466.0, 0.523390
2496.0, 0.512262
2528.0, 0.502111
2560.0, 0.498788
2592.0, 0.499981
2624.0, 0.494095
2656.0, 0.464630
2688.0, 0.391870
2720.0, 0.277771
2752.0, 0.150091
2784.0, 0.103042
2816.0, 0.0651560
2848.0, 0.0377350
2880.0, 0.0416630
2912.0, 0.0604570
2944.0, 0.0530410
2976.0, 0.0701460
