Database of Origin, USGS Spectral Database
Sample Description, See USGS database for additional info
Date Added,2016-08-03 20:51:51.012918

Data ID,USGS_alb08          
Sample ID, albite_hs66.3b.469
Mineral Name, albite
Material Class,Tectosilicate

Wavelength
1562.9, 0.828295
1563.38, 0.829094
1563.85, 0.829550
1564.32, 0.828980
1564.79, 0.828409
1565.26, 0.828752
1565.74, 0.829094
1566.21, 0.828980
1566.68, 0.829778
1567.16, 0.830120
1567.63, 0.830120
1568.1, 0.830462
1568.58, 0.830804
1569.05, 0.830462
1569.53, 0.830462
1570.0, 0.830348
1570.48, 0.829664
1570.96, 0.829778
1571.43, 0.830120
1571.91, 0.830348
1572.39, 0.831374
1572.86, 0.831260
1573.34, 0.830120
1573.82, 0.829892
1574.3, 0.829892
1574.77, 0.829664
1575.25, 0.829322
1575.73, 0.829664
1576.21, 0.829550
1576.69, 0.829436
1577.17, 0.829778
1577.65, 0.829892
1578.13, 0.830120
1578.61, 0.829550
1579.09, 0.830006
1579.57, 0.830918
1580.05, 0.830462
1580.54, 0.830006
1581.02, 0.829436
1581.5, 0.829664
1581.98, 0.830120
1582.47, 0.830120
1582.95, 0.830918
1583.43, 0.832058
1583.92, 0.832058
1584.4, 0.831716
1584.88, 0.831830
1585.37, 0.832058
1585.85, 0.831374
1586.34, 0.830690
1586.82, 0.830348
1587.31, 0.830120
1587.8, 0.830462
1588.28, 0.830804
1588.77, 0.830462
1589.26, 0.830576
1589.74, 0.831716
1590.23, 0.832400
1590.72, 0.831830
1591.21, 0.831602
1591.7, 0.831602
1592.19, 0.831602
1592.67, 0.831944
1593.16, 0.832628
1593.65, 0.831944
1594.14, 0.831260
1594.63, 0.831488
1595.12, 0.832286
1595.61, 0.832058
1596.11, 0.831830
1596.6, 0.831602
1597.09, 0.831716
1597.58, 0.832172
1598.08, 0.832172
1598.57, 0.832514
1599.06, 0.833084
1599.55, 0.833426
1600.05, 0.833198
1600.54, 0.833198
1601.04, 0.832400
1601.53, 0.832058
1602.03, 0.832742
1602.52, 0.832856
1603.02, 0.833198
1603.51, 0.833882
1604.01, 0.833540
1604.5, 0.832286
1605.0, 0.832286
1605.5, 0.833084
1606.0, 0.833312
1606.49, 0.832856
1606.99, 0.832856
1607.49, 0.833882
1607.99, 0.834338
1608.49, 0.833768
1608.99, 0.832970
1609.49, 0.833312
1609.99, 0.834224
1610.49, 0.834338
1610.99, 0.834224
1611.49, 0.834680
1611.99, 0.834794
1612.49, 0.834680
1612.99, 0.834224
1613.49, 0.833882
1614.0, 0.834110
1614.5, 0.834908
1615.0, 0.835250
1615.51, 0.834566
1616.01, 0.834224
1616.51, 0.833996
1617.02, 0.833996
1617.52, 0.834908
1618.03, 0.835364
1618.53, 0.834224
1619.04, 0.834224
1619.54, 0.835250
1620.05, 0.835592
1620.55, 0.835934
1621.06, 0.836048
1621.57, 0.835478
1622.08, 0.834908
1622.58, 0.835250
1623.09, 0.835706
1623.6, 0.835592
1624.11, 0.836048
1624.62, 0.835820
1625.13, 0.835478
1625.64, 0.834908
1626.15, 0.834452
1626.66, 0.834452
1627.17, 0.834908
1627.68, 0.835136
1628.19, 0.834794
1628.7, 0.834452
1629.21, 0.834680
1629.72, 0.835250
1630.24, 0.834794
1630.75, 0.834680
1631.26, 0.835136
1631.78, 0.835934
1632.29, 0.835706
1632.8, 0.835022
1633.32, 0.834680
1633.83, 0.835022
1634.35, 0.835136
1634.86, 0.835364
1635.38, 0.834794
1635.9, 0.834566
1636.41, 0.834566
1636.93, 0.834338
1637.45, 0.835136
1637.96, 0.835706
1638.48, 0.835478
1639.0, 0.835364
1639.52, 0.835136
1640.04, 0.834680
1640.56, 0.835022
1641.08, 0.835592
1641.59, 0.835934
1642.11, 0.835250
1642.63, 0.834566
1643.16, 0.835136
1643.68, 0.835022
1644.2, 0.835250
1644.72, 0.835364
1645.24, 0.834680
1645.76, 0.834908
1646.29, 0.835478
1646.81, 0.835364
1647.33, 0.835022
1647.86, 0.835136
1648.38, 0.835478
1648.9, 0.835250
1649.43, 0.835136
1649.95, 0.835364
1650.48, 0.835022
1651.0, 0.835364
1651.53, 0.836504
1652.06, 0.836618
1652.58, 0.835934
1653.11, 0.835706
1653.64, 0.836048
1654.17, 0.835934
1654.69, 0.836048
1655.22, 0.835706
1655.75, 0.835478
1656.28, 0.835706
1656.81, 0.836048
1657.34, 0.835706
1657.87, 0.835820
1658.4, 0.835706
1658.93, 0.835364
1659.46, 0.835364
1659.99, 0.835820
1660.52, 0.835934
1661.05, 0.835934
1661.59, 0.836048
1662.12, 0.836276
1662.65, 0.836162
1663.19, 0.835934
1663.72, 0.835820
1664.26, 0.835934
1664.79, 0.836504
1665.32, 0.836732
1665.86, 0.837188
1666.39, 0.837530
1666.93, 0.836960
1667.47, 0.836960
1668.0, 0.837416
1668.54, 0.837188
1669.08, 0.838214
1669.61, 0.838785
1670.15, 0.838557
1670.69, 0.837872
1671.23, 0.837872
1671.77, 0.837872
1672.31, 0.837986
1672.85, 0.837872
1673.39, 0.837986
1673.93, 0.838100
1674.47, 0.838214
1675.01, 0.838328
1675.55, 0.838328
1676.09, 0.838214
1676.64, 0.837758
1677.18, 0.837758
1677.72, 0.838442
1678.26, 0.838671
1678.81, 0.838898
1679.35, 0.839241
1679.89, 0.838785
1680.44, 0.838785
1680.98, 0.839013
1681.53, 0.839355
1682.07, 0.839925
1682.62, 0.839697
1683.17, 0.838898
1683.71, 0.838442
1684.26, 0.838328
1684.81, 0.839013
1685.36, 0.839013
1685.9, 0.839355
1686.45, 0.839925
1687.0, 0.839697
1687.55, 0.839697
1688.1, 0.839811
1688.65, 0.839811
1689.2, 0.839697
1689.75, 0.839583
1690.3, 0.839811
1690.85, 0.840039
1691.41, 0.839355
1691.96, 0.839355
1692.51, 0.839811
1693.06, 0.840153
1693.61, 0.840153
1694.17, 0.840039
1694.72, 0.839925
1695.28, 0.839469
1695.83, 0.840039
1696.39, 0.840609
1696.94, 0.840381
1697.5, 0.840153
1698.05, 0.839697
1698.61, 0.839583
1699.17, 0.839469
1699.72, 0.839583
1700.28, 0.840039
1700.84, 0.840609
1701.4, 0.839811
1701.95, 0.839355
1702.51, 0.839697
1703.07, 0.839811
1703.63, 0.839925
1704.19, 0.840381
1704.75, 0.839811
1705.31, 0.839583
1705.88, 0.840267
1706.44, 0.840039
1707.0, 0.839697
1707.56, 0.839697
1708.12, 0.839469
1708.69, 0.839469
1709.25, 0.839811
1709.81, 0.840039
1710.38, 0.839811
1710.94, 0.840267
1711.51, 0.840495
1712.07, 0.840381
1712.64, 0.840267
1713.2, 0.840267
1713.77, 0.840153
1714.34, 0.840267
1714.9, 0.840609
1715.47, 0.840495
1716.04, 0.840267
1716.61, 0.840153
1717.18, 0.840495
1717.74, 0.840495
1718.31, 0.840381
1718.88, 0.840609
1719.45, 0.840723
1720.02, 0.840495
1720.59, 0.840267
1721.17, 0.840153
1721.74, 0.840153
1722.31, 0.839583
1722.88, 0.839583
1723.45, 0.840267
1724.03, 0.840609
1724.6, 0.840723
1725.18, 0.840381
1725.75, 0.840609
1726.33, 0.841065
1726.9, 0.841065
1727.48, 0.841521
1728.05, 0.841065
1728.63, 0.840723
1729.2, 0.840495
1729.78, 0.840609
1730.36, 0.840837
1730.94, 0.840951
1731.51, 0.840837
1732.09, 0.840951
1732.67, 0.840837
1733.25, 0.840837
1733.83, 0.840609
1734.41, 0.841065
1734.99, 0.841635
1735.57, 0.841863
1736.15, 0.841635
1736.73, 0.841407
1737.32, 0.841635
1737.9, 0.841749
1738.48, 0.841521
1739.07, 0.841635
1739.65, 0.842205
1740.23, 0.841749
1740.82, 0.841635
1741.4, 0.842091
1741.99, 0.842547
1742.57, 0.842433
1743.16, 0.842091
1743.74, 0.842433
1744.33, 0.842889
1744.92, 0.843345
1745.51, 0.843003
1746.09, 0.843117
1746.68, 0.843231
1747.27, 0.843003
1747.86, 0.843459
1748.45, 0.843801
1749.04, 0.843573
1749.63, 0.843231
1750.22, 0.843573
1750.81, 0.843573
1751.4, 0.843231
1751.99, 0.843459
1752.59, 0.843801
1753.18, 0.844029
1753.77, 0.843801
1754.37, 0.843801
1754.96, 0.844029
1755.56, 0.844257
1756.15, 0.844143
1756.74, 0.844143
1757.34, 0.844257
1757.94, 0.844485
1758.53, 0.844713
1759.13, 0.844941
1759.73, 0.845169
1760.32, 0.844941
1760.92, 0.844713
1761.52, 0.845169
1762.12, 0.845055
1762.72, 0.845055
1763.32, 0.845055
1763.92, 0.845283
1764.52, 0.845397
1765.12, 0.845283
1765.72, 0.845625
1766.32, 0.845283
1766.92, 0.844941
1767.53, 0.845169
1768.13, 0.845511
1768.73, 0.845625
1769.34, 0.845625
1769.94, 0.845739
1770.55, 0.845511
1771.15, 0.845625
1771.76, 0.845625
1772.36, 0.845283
1772.97, 0.844941
1773.57, 0.845397
1774.18, 0.845739
1774.79, 0.845853
1775.4, 0.845853
1776.0, 0.845853
1776.61, 0.845853
1777.22, 0.845739
1777.83, 0.845169
1778.44, 0.845055
1779.05, 0.845283
1779.66, 0.845169
1780.27, 0.845397
1780.88, 0.845625
1781.5, 0.845853
1782.11, 0.846081
1782.72, 0.845625
1783.33, 0.845739
1783.95, 0.846081
1784.56, 0.845853
1785.18, 0.845625
1785.79, 0.846423
1786.41, 0.846879
1787.02, 0.846651
1787.64, 0.845853
1788.26, 0.845169
1788.87, 0.845169
1789.49, 0.845853
1790.11, 0.845853
1790.73, 0.845511
1791.35, 0.845625
1791.96, 0.845739
1792.58, 0.845739
1793.21, 0.845739
1793.83, 0.845853
1794.45, 0.845967
1795.07, 0.845625
1795.69, 0.845967
1796.31, 0.846309
1796.93, 0.845853
1797.56, 0.845511
1798.18, 0.845625
1798.8, 0.845625
1799.43, 0.845739
1800.05, 0.846081
1800.68, 0.845853
1801.3, 0.845739
1801.93, 0.845853
1802.56, 0.846195
1803.18, 0.846081
1803.81, 0.846423
1804.44, 0.846423
1805.07, 0.845967
1805.7, 0.845739
1806.33, 0.846081
1806.95, 0.846309
1807.58, 0.846081
1808.22, 0.845739
1808.85, 0.846195
1809.48, 0.846309
1810.11, 0.846537
1810.74, 0.846423
1811.38, 0.846537
1812.01, 0.846879
1812.64, 0.846765
1813.28, 0.846651
1813.91, 0.846765
1814.55, 0.846993
1815.18, 0.846879
1815.82, 0.846765
1816.45, 0.847335
1817.09, 0.847107
1817.73, 0.846993
1818.36, 0.847449
1819.0, 0.847791
1819.64, 0.847905
1820.28, 0.847791
1820.92, 0.847677
1821.56, 0.847563
1822.2, 0.847449
1822.84, 0.847677
1823.48, 0.847677
1824.12, 0.847791
1824.76, 0.847677
1825.41, 0.848476
1826.05, 0.849502
1826.69, 0.848590
1827.34, 0.848134
1827.98, 0.848704
1828.63, 0.849046
1829.27, 0.848932
1829.92, 0.848818
1830.56, 0.849616
1831.21, 0.849388
1831.86, 0.849388
1832.5, 0.849844
1833.15, 0.849730
1833.8, 0.849730
1834.45, 0.850414
1835.1, 0.850300
1835.75, 0.850414
1836.4, 0.850186
1837.05, 0.850300
1837.7, 0.850300
1838.35, 0.849958
1839.01, 0.850756
1839.66, 0.850984
1840.31, 0.850642
1840.96, 0.850756
1841.62, 0.850984
1842.27, 0.850756
1842.93, 0.850870
1843.58, 0.850984
1844.24, 0.850300
1844.9, 0.850414
1845.55, 0.851212
1846.21, 0.851896
1846.87, 0.852352
1847.53, 0.852352
1848.18, 0.852238
1848.84, 0.851782
1849.5, 0.851326
1850.16, 0.851212
1850.82, 0.851668
1851.48, 0.851554
1852.14, 0.851440
1852.81, 0.852124
1853.47, 0.852238
1854.13, 0.852238
1854.8, 0.852010
1855.46, 0.852010
1856.12, 0.851896
1856.79, 0.851554
1857.45, 0.851554
1858.12, 0.851896
1858.79, 0.852352
1859.45, 0.852580
1860.12, 0.852352
1860.79, 0.852352
1861.46, 0.851782
1862.12, 0.851668
1862.79, 0.851554
1863.46, 0.851668
1864.13, 0.851668
1864.8, 0.851440
1865.48, 0.851668
1866.15, 0.851782
1866.82, 0.851896
1867.49, 0.852352
1868.16, 0.851896
1868.84, 0.851782
1869.51, 0.851440
1870.19, 0.851896
1870.86, 0.852352
1871.54, 0.851326
1872.21, 0.851554
1872.89, 0.852010
1873.56, 0.851782
1874.24, 0.851554
1874.92, 0.851440
1875.6, 0.851212
1876.28, 0.851668
1876.96, 0.851782
1877.64, 0.851098
1878.32, 0.851098
1879.0, 0.850984
1879.68, 0.851098
1880.36, 0.851326
1881.04, 0.850642
1881.73, 0.850186
1882.41, 0.850300
1883.09, 0.850642
1883.78, 0.850642
1884.46, 0.849958
1885.15, 0.849388
1885.83, 0.849502
1886.52, 0.849616
1887.21, 0.849388
1887.89, 0.849274
1888.58, 0.849274
1889.27, 0.849502
1889.96, 0.849730
1890.65, 0.848932
1891.34, 0.849160
1892.03, 0.849274
1892.72, 0.849046
1893.41, 0.849160
1894.1, 0.848932
1894.79, 0.848361
1895.49, 0.848134
1896.18, 0.847563
1896.87, 0.847449
1897.57, 0.847905
1898.26, 0.848019
1898.96, 0.848248
1899.65, 0.848248
1900.35, 0.848019
1901.05, 0.848134
1901.74, 0.848134
1902.44, 0.848019
1903.14, 0.847563
1903.84, 0.847449
1904.54, 0.847791
1905.24, 0.847905
1905.94, 0.847791
1906.64, 0.847563
1907.34, 0.846651
1908.04, 0.846537
1908.75, 0.846993
1909.45, 0.846765
1910.15, 0.846309
1910.86, 0.846423
1911.56, 0.846651
1912.27, 0.846651
1912.97, 0.847107
1913.68, 0.847221
1914.39, 0.847107
1915.09, 0.847107
1915.8, 0.847335
1916.51, 0.847335
1917.22, 0.847335
1917.93, 0.847335
1918.64, 0.847449
1919.35, 0.847905
1920.06, 0.848476
1920.77, 0.848590
1921.48, 0.848019
1922.19, 0.848019
1922.91, 0.848361
1923.62, 0.848361
1924.33, 0.848019
1925.05, 0.848019
1925.76, 0.848590
1926.48, 0.848932
1927.19, 0.848476
1927.91, 0.848590
1928.63, 0.848704
1929.35, 0.848932
1930.07, 0.849046
1930.78, 0.849274
1931.5, 0.849388
1932.22, 0.849616
1932.94, 0.849844
1933.66, 0.850072
1934.39, 0.849958
1935.11, 0.849844
1935.83, 0.850186
1936.55, 0.850300
1937.28, 0.850186
1938.0, 0.850414
1938.73, 0.850870
1939.45, 0.850984
1940.18, 0.850870
1940.9, 0.850756
1941.63, 0.850756
1942.36, 0.850870
1943.09, 0.850870
1943.81, 0.851326
1944.54, 0.851668
1945.27, 0.851440
1946.0, 0.851554
1946.73, 0.852010
1947.47, 0.852010
1948.2, 0.851554
1948.93, 0.851440
1949.66, 0.851554
1950.4, 0.851554
1951.13, 0.851668
1951.86, 0.851896
1952.6, 0.852238
1953.34, 0.852238
1954.07, 0.852238
1954.81, 0.852352
1955.55, 0.852694
1956.29, 0.852580
1957.02, 0.852922
1957.76, 0.852922
1958.5, 0.852352
1959.24, 0.852124
1959.98, 0.852352
1960.72, 0.852694
1961.47, 0.852808
1962.21, 0.852694
1962.95, 0.852808
1963.7, 0.853036
1964.44, 0.852922
1965.18, 0.852352
1965.93, 0.852352
1966.67, 0.852922
1967.42, 0.853264
1968.17, 0.853606
1968.92, 0.853606
1969.66, 0.853264
1970.41, 0.853036
1971.16, 0.853036
1971.91, 0.853150
1972.66, 0.853264
1973.41, 0.853378
1974.16, 0.853378
1974.92, 0.853492
1975.67, 0.853264
1976.42, 0.853264
1977.18, 0.853492
1977.93, 0.853492
1978.69, 0.853606
1979.44, 0.853834
1980.2, 0.853720
1980.95, 0.853834
1981.71, 0.853606
1982.47, 0.853606
1983.23, 0.853948
1983.99, 0.853606
1984.74, 0.853606
1985.51, 0.854062
1986.27, 0.854290
1987.03, 0.854404
1987.79, 0.854518
1988.55, 0.854518
1989.32, 0.854290
1990.08, 0.854176
1990.84, 0.854290
1991.61, 0.854746
1992.37, 0.854746
1993.14, 0.854746
1993.9, 0.854632
1994.67, 0.854518
1995.44, 0.854632
1996.21, 0.854632
1996.98, 0.854860
1997.75, 0.855430
1998.52, 0.855316
1999.29, 0.855316
2000.06, 0.855430
2000.83, 0.855658
2001.6, 0.856000
2002.38, 0.856114
2003.15, 0.856228
2003.93, 0.856342
2004.7, 0.856342
2005.48, 0.856000
2006.25, 0.856228
2007.03, 0.856684
2007.81, 0.856912
2008.58, 0.857368
2009.36, 0.857368
2010.14, 0.857140
2010.92, 0.857255
2011.7, 0.857368
2012.48, 0.857939
2013.26, 0.857939
2014.05, 0.857596
2014.83, 0.857596
2015.61, 0.857939
2016.4, 0.858167
2017.18, 0.858280
2017.97, 0.858509
2018.75, 0.858623
2019.54, 0.858851
2020.32, 0.859193
2021.11, 0.858965
2021.9, 0.859079
2022.69, 0.859193
2023.48, 0.859535
2024.27, 0.860105
2025.06, 0.859991
2025.85, 0.860105
2026.64, 0.860105
2027.44, 0.859877
2028.23, 0.860219
2029.02, 0.860447
2029.82, 0.860675
2030.61, 0.860789
2031.41, 0.860447
2032.2, 0.860675
2033.0, 0.861245
2033.8, 0.861131
2034.6, 0.861017
2035.4, 0.861245
2036.2, 0.861701
2037.0, 0.861701
2037.8, 0.861473
2038.6, 0.861701
2039.4, 0.862157
2040.2, 0.862157
2041.01, 0.862385
2041.81, 0.862271
2042.61, 0.861815
2043.42, 0.861929
2044.22, 0.862157
2045.03, 0.862157
2045.84, 0.862385
2046.65, 0.862385
2047.46, 0.862271
2048.26, 0.862385
2049.07, 0.862841
2049.88, 0.862727
2050.69, 0.862727
2051.51, 0.862727
2052.32, 0.862727
2053.13, 0.863069
2053.94, 0.863297
2054.76, 0.863411
2055.57, 0.863525
2056.39, 0.863297
2057.2, 0.863069
2058.02, 0.862841
2058.84, 0.863069
2059.66, 0.863183
2060.48, 0.863297
2061.29, 0.863069
2062.11, 0.862841
2062.94, 0.863297
2063.76, 0.863411
2064.58, 0.863297
2065.4, 0.862955
2066.22, 0.862955
2067.05, 0.863069
2067.87, 0.863411
2068.7, 0.863753
2069.52, 0.863639
2070.35, 0.862841
2071.18, 0.862955
2072.0, 0.863069
2072.83, 0.862841
2073.66, 0.862841
2074.49, 0.863297
2075.32, 0.863297
2076.15, 0.862955
2076.98, 0.862727
2077.82, 0.863069
2078.65, 0.862955
2079.48, 0.862613
2080.32, 0.862499
2081.15, 0.862955
2081.99, 0.862841
2082.83, 0.862499
2083.66, 0.862727
2084.5, 0.862955
2085.34, 0.862727
2086.18, 0.863297
2087.02, 0.863297
2087.86, 0.863183
2088.7, 0.863069
2089.54, 0.862955
2090.39, 0.862841
2091.23, 0.862955
2092.07, 0.862955
2092.92, 0.862955
2093.76, 0.863297
2094.61, 0.863411
2095.45, 0.863411
2096.3, 0.863411
2097.15, 0.863867
2098.0, 0.863981
2098.85, 0.863525
2099.7, 0.863525
2100.55, 0.863639
2101.4, 0.863525
2102.25, 0.863639
2103.1, 0.863981
2103.96, 0.863981
2104.81, 0.864095
2105.67, 0.864323
2106.52, 0.864323
2107.38, 0.864323
2108.24, 0.864437
2109.09, 0.864437
2109.95, 0.864437
2110.81, 0.864437
2111.67, 0.864437
2112.53, 0.864095
2113.39, 0.864209
2114.25, 0.864779
2115.12, 0.865007
2115.98, 0.865007
2116.84, 0.865349
2117.71, 0.865577
2118.58, 0.865463
2119.44, 0.865691
2120.31, 0.865805
2121.18, 0.865691
2122.04, 0.865691
2122.91, 0.865805
2123.78, 0.865805
2124.65, 0.865919
2125.52, 0.866147
2126.4, 0.866033
2127.27, 0.866033
2128.14, 0.866147
2129.02, 0.866489
2129.89, 0.866717
2130.77, 0.866489
2131.64, 0.866489
2132.52, 0.866717
2133.4, 0.866717
2134.27, 0.866831
2135.15, 0.867287
2136.03, 0.867401
2136.91, 0.867401
2137.79, 0.867629
2138.68, 0.867744
2139.56, 0.867629
2140.44, 0.867629
2141.33, 0.867629
2142.21, 0.867744
2143.1, 0.867857
2143.99, 0.868086
2144.87, 0.868200
2145.76, 0.868200
2146.65, 0.868086
2147.54, 0.868086
2148.43, 0.868428
2149.32, 0.868542
2150.21, 0.868884
2151.1, 0.869226
2151.99, 0.868770
2152.89, 0.868542
2153.78, 0.868884
2154.68, 0.868770
2155.57, 0.868884
2156.47, 0.868998
2157.37, 0.868884
2158.27, 0.869112
2159.16, 0.869226
2160.06, 0.868998
2160.96, 0.868884
2161.86, 0.869112
2162.77, 0.869454
2163.67, 0.869454
2164.57, 0.869568
2165.48, 0.869568
2166.38, 0.869226
2167.29, 0.869226
2168.2, 0.869112
2169.1, 0.868884
2170.01, 0.868884
2170.92, 0.869226
2171.83, 0.869226
2172.74, 0.868998
2173.65, 0.868770
2174.56, 0.868770
2175.47, 0.868656
2176.39, 0.868770
2177.3, 0.868998
2178.22, 0.868656
2179.13, 0.868314
2180.05, 0.868200
2180.96, 0.867972
2181.88, 0.867744
2182.8, 0.867744
2183.72, 0.867744
2184.64, 0.867516
2185.56, 0.867287
2186.48, 0.867173
2187.41, 0.866831
2188.33, 0.866831
2189.25, 0.866603
2190.18, 0.866147
2191.1, 0.866261
2192.03, 0.866261
2192.96, 0.866033
2193.89, 0.866033
2194.82, 0.865691
2195.74, 0.865691
2196.68, 0.865691
2197.61, 0.866033
2198.54, 0.866033
2199.47, 0.865919
2200.4, 0.866033
2201.34, 0.865919
2202.28, 0.865691
2203.21, 0.865919
2204.15, 0.866033
2205.08, 0.866147
2206.02, 0.866489
2206.96, 0.866489
2207.9, 0.866489
2208.84, 0.866717
2209.78, 0.867173
2210.73, 0.867173
2211.67, 0.867287
2212.61, 0.867401
2213.56, 0.867401
2214.5, 0.867287
2215.45, 0.867744
2216.4, 0.867857
2217.35, 0.867857
2218.3, 0.868200
2219.24, 0.868200
2220.2, 0.868200
2221.15, 0.868200
2222.1, 0.868428
2223.05, 0.868542
2224.0, 0.868770
2224.96, 0.868998
2225.91, 0.868884
2226.87, 0.868656
2227.83, 0.868542
2228.79, 0.868656
2229.74, 0.868998
2230.7, 0.869454
2231.66, 0.869568
2232.63, 0.869682
2233.59, 0.869682
2234.55, 0.869796
2235.51, 0.869796
2236.48, 0.869910
2237.44, 0.870138
2238.41, 0.870138
2239.38, 0.869910
2240.34, 0.870252
2241.31, 0.870594
2242.28, 0.870708
2243.25, 0.870708
2244.22, 0.870708
2245.19, 0.870822
2246.17, 0.870936
2247.14, 0.871050
2248.12, 0.871050
2249.09, 0.871278
2250.07, 0.871278
2251.04, 0.871506
2252.02, 0.871506
2253.0, 0.871506
2253.98, 0.871506
2254.96, 0.871734
2255.94, 0.871848
2256.92, 0.871962
2257.91, 0.872304
2258.89, 0.872418
2259.88, 0.872646
2260.86, 0.872760
2261.85, 0.872760
2262.83, 0.872532
2263.82, 0.872646
2264.81, 0.872252
2265.8, 0.871858
2266.79, 0.871563
2267.78, 0.870972
2268.78, 0.870775
2269.77, 0.871070
2270.76, 0.871366
2271.76, 0.871957
2272.75, 0.872154
2273.75, 0.871957
2274.75, 0.871760
2275.75, 0.871267
2276.75, 0.870873
2277.75, 0.871464
2278.75, 0.871563
2279.75, 0.871957
2280.75, 0.871957
2281.76, 0.871070
2282.76, 0.871267
2283.77, 0.871858
2284.77, 0.872548
2285.78, 0.872055
2286.79, 0.871464
2287.8, 0.871661
2288.81, 0.871661
2289.82, 0.871366
2290.83, 0.871169
2291.84, 0.871267
2292.86, 0.871464
2293.87, 0.871366
2294.89, 0.871169
2295.91, 0.871366
2296.92, 0.871563
2297.94, 0.871267
2298.96, 0.871169
2299.98, 0.871464
2301.0, 0.871169
2302.02, 0.870873
2303.04, 0.871070
2304.07, 0.870873
2305.09, 0.870676
2306.12, 0.870479
2307.15, 0.870184
2308.17, 0.869987
2309.2, 0.869790
2310.23, 0.869790
2311.26, 0.869494
2312.29, 0.869987
2313.32, 0.870282
2314.35, 0.870184
2315.39, 0.870184
2316.42, 0.870085
2317.46, 0.869691
2318.5, 0.869396
2319.53, 0.869593
2320.57, 0.869790
2321.61, 0.869593
2322.65, 0.869396
2323.69, 0.869691
2324.73, 0.869888
2325.78, 0.869199
2326.82, 0.868805
2327.86, 0.868805
2328.91, 0.868509
2329.96, 0.868411
2331.01, 0.868509
2332.05, 0.868411
2333.1, 0.868017
2334.15, 0.868115
2335.21, 0.868411
2336.26, 0.868115
2337.31, 0.867918
2338.36, 0.867820
2339.42, 0.867524
2340.48, 0.867820
2341.53, 0.868017
2342.59, 0.867721
2343.65, 0.867524
2344.71, 0.867524
2345.77, 0.867327
2346.83, 0.867623
2347.9, 0.867229
2348.96, 0.867130
2350.02, 0.867032
2351.09, 0.866835
2352.16, 0.867524
2353.23, 0.868017
2354.29, 0.867721
2355.36, 0.867130
2356.43, 0.866933
2357.51, 0.866835
2358.58, 0.866737
2359.65, 0.866835
2360.73, 0.867130
2361.8, 0.866737
2362.88, 0.866441
2363.96, 0.866047
2365.03, 0.866244
2366.11, 0.866146
2367.19, 0.866146
2368.27, 0.865948
2369.36, 0.866244
2370.44, 0.866539
2371.53, 0.865948
2372.61, 0.866441
2373.7, 0.866539
2374.78, 0.866441
2375.87, 0.866441
2376.96, 0.866638
2378.05, 0.866146
2379.14, 0.866146
2380.24, 0.866342
2381.33, 0.866539
2382.42, 0.866638
2383.52, 0.866441
2384.61, 0.865948
2385.71, 0.865948
2386.81, 0.866047
2387.91, 0.866244
2389.01, 0.866441
2390.11, 0.866441
2391.22, 0.866539
2392.32, 0.866835
2393.42, 0.867032
2394.53, 0.866638
2395.64, 0.866244
2396.74, 0.865850
2397.85, 0.866146
2398.96, 0.866244
2400.07, 0.866441
2401.18, 0.866539
2402.3, 0.866441
2403.41, 0.866441
2404.52, 0.865752
2405.64, 0.865752
2406.76, 0.866244
2407.88, 0.866047
2408.99, 0.865752
2410.11, 0.865653
2411.23, 0.865456
2412.36, 0.865850
2413.48, 0.865555
2414.6, 0.865358
2415.73, 0.865456
2416.85, 0.865358
2417.98, 0.865259
2419.11, 0.865259
2420.24, 0.864767
2421.37, 0.864668
2422.5, 0.864471
2423.64, 0.864373
2424.77, 0.864767
2425.9, 0.864865
2427.04, 0.864471
2428.18, 0.864176
2429.31, 0.863782
2430.45, 0.863486
2431.59, 0.863092
2432.73, 0.863289
2433.88, 0.863782
2435.02, 0.863289
2436.16, 0.862797
2437.31, 0.862600
2438.45, 0.862403
2439.6, 0.862600
2440.75, 0.862600
2441.9, 0.862501
2443.05, 0.862501
2444.2, 0.862403
2445.35, 0.862403
2446.51, 0.862206
2447.67, 0.861910
2448.82, 0.861812
2449.98, 0.861910
2451.14, 0.861615
2452.3, 0.861812
2453.46, 0.861910
2454.62, 0.861319
2455.78, 0.860630
2456.94, 0.860827
2458.11, 0.861516
2459.28, 0.861418
2460.44, 0.861024
2461.61, 0.861024
2462.78, 0.860925
2463.95, 0.861122
2465.12, 0.861221
2466.3, 0.861024
2467.47, 0.860827
2468.65, 0.860334
2469.82, 0.860334
2471.0, 0.860728
2472.18, 0.860334
2473.36, 0.860137
2474.54, 0.860433
2475.72, 0.860433
2476.9, 0.860137
2478.08, 0.860236
2479.27, 0.860039
2480.46, 0.859448
2481.64, 0.859054
2482.83, 0.859152
2484.02, 0.859349
2485.21, 0.859448
2486.4, 0.859645
2487.6, 0.859349
2488.79, 0.859349
2489.99, 0.859349
2491.18, 0.859251
2492.38, 0.858956
2493.58, 0.858857
2494.78, 0.858660
2495.98, 0.859054
2497.18, 0.858759
2498.39, 0.858660
2499.59, 0.859054
2500.8, 0.859054
2502.01, 0.858857
2503.21, 0.858660
2504.42, 0.858660
2505.63, 0.858365
2506.84, 0.858463
2508.06, 0.858660
2509.27, 0.858857
2510.49, 0.858660
2511.7, 0.858562
2512.92, 0.858365
2514.14, 0.857872
2515.36, 0.857380
2516.58, 0.857577
2517.8, 0.857774
2519.03, 0.857675
2520.25, 0.858069
2521.48, 0.858168
2522.7, 0.857380
2523.93, 0.857183
2525.16, 0.857478
2526.39, 0.857774
2527.62, 0.857872
2528.86, 0.857675
2530.09, 0.856592
2531.33, 0.855508
2532.56, 0.854819
2533.8, 0.855607
2535.04, 0.855016
2536.28, 0.854228
2537.52, 0.856789
2538.76, 0.858168
2540.01, 0.858069
2541.25, 0.856395
2542.5, 0.852947
2543.75, 0.853538
2544.99, 0.856001
2546.24, 0.856001
2547.49, 0.853735
2548.75, 0.854425
2550.0, 0.854129
2551.26, 0.851864
2552.51, 0.850091
2553.77, 0.853538
2555.03, 0.857183
2556.29, 0.858069
2557.55, 0.858365
2558.81, 0.855705
2560.08, 0.846939
2561.34, 0.838272
2562.61, 0.837681
2563.88, 0.839946
2565.14, 0.847432
2566.41, 0.855508
2567.68, 0.854523
2568.96, 0.846053
2570.23, 0.846447
2571.51, 0.851766
2572.78, 0.841227
2574.06, 0.841719
2575.34, 0.848023
2576.62, 0.845167
2577.9, 0.849599
2579.18, 0.854031
2580.47, 0.848515
2581.75, 0.845954
2583.04, 0.835219
2584.32, 0.833249
2585.61, 0.843886
2586.9, 0.840439
2588.2, 0.842113
2589.49, 0.847727
2590.78, 0.852849
2592.08, 0.848712
2593.37, 0.818672
2594.67, 0.789321
2595.97, 0.810694
2597.27, 0.841719
2598.57, 0.854129
2599.88, 0.852652
2601.18, 0.846841
2602.49, 0.842803
2603.79, 0.834431
2605.1, 0.820543
2606.41, 0.826453
2607.72, 0.838863
2609.03, 0.842212
2610.35, 0.845856
2611.66, 0.849402
2612.98, 0.847629
2614.3, 0.847727
2615.62, 0.835219
2616.94, 0.825369
2618.26, 0.835022
2619.58, 0.827044
2620.91, 0.827438
2622.23, 0.846939
2623.56, 0.852849
2624.89, 0.846545
2626.22, 0.831476
2627.55, 0.836893
2628.88, 0.835219
2630.21, 0.819558
2631.55, 0.831082
2632.89, 0.842113
2634.22, 0.843295
2635.56, 0.849894
2636.9, 0.851667
2638.25, 0.851864
2639.59, 0.850879
2640.93, 0.849008
2642.28, 0.847629
2643.63, 0.848220
2644.98, 0.843098
2646.33, 0.843295
2647.68, 0.847727
2649.03, 0.849500
2650.39, 0.846545
2651.74, 0.838567
2653.1, 0.837583
2654.46, 0.840636
2655.82, 0.839946
2657.18, 0.844182
2658.54, 0.838764
2659.9, 0.834726
2661.27, 0.835810
2662.64, 0.836007
2664.01, 0.816702
2665.38, 0.798678
2666.74, 0.799466
2668.12, 0.813747
2669.49, 0.797890
2670.87, 0.792177
2672.24, 0.822218
2673.62, 0.830885
2675.0, 0.820445
2676.38, 0.807641
2677.76, 0.809217
2679.15, 0.812270
2680.54, 0.824385
2681.92, 0.828324
2683.31, 0.823991
2684.7, 0.823695
2686.09, 0.823203
2687.48, 0.824286
2688.88, 0.826354
2690.27, 0.827142
2691.67, 0.821430
2693.07, 0.804588
2694.47, 0.799761
2695.87, 0.808232
2697.27, 0.816111
2698.67, 0.817293
2700.08, 0.810694
2701.49, 0.804883
2702.9, 0.807050
2704.31, 0.806951
2705.72, 0.805080
2707.13, 0.799663
2708.54, 0.787154
2709.96, 0.770410
2711.38, 0.767259
2712.8, 0.783116
2714.22, 0.787056
2715.64, 0.782919
2717.06, 0.775138
2718.49, 0.762137
2719.91, 0.737711
2721.34, 0.737711
2722.77, 0.741848
2724.2, 0.728945
2725.63, 0.734362
2727.07, 0.744408
2728.5, 0.744901
2729.94, 0.740961
2731.38, 0.736825
2732.82, 0.729536
2734.26, 0.716240
2735.7, 0.713777
2737.15, 0.712989
2738.59, 0.694670
2740.04, 0.681570
2741.49, 0.687381
2742.94, 0.698905
2744.39, 0.702352
2745.84, 0.700284
2747.3, 0.697821
2748.76, 0.694965
2750.21, 0.690927
2751.67, 0.685904
2753.14, 0.678517
2754.6, 0.659705
2756.06, 0.656848
2757.53, 0.671622
2759.0, 0.676547
2760.46, 0.672607
2761.94, 0.662758
2763.41, 0.660690
2764.88, 0.665417
2766.36, 0.664925
2767.83, 0.661970
2769.31, 0.659902
2770.79, 0.657144
2772.27, 0.661970
2773.76, 0.666796
2775.24, 0.667190
2776.73, 0.665417
2778.22, 0.665516
2779.71, 0.664531
2781.2, 0.662659
2782.69, 0.663250
2784.18, 0.664137
2785.68, 0.658129
2787.18, 0.653303
2788.68, 0.657045
2790.18, 0.661379
2791.68, 0.661675
2793.19, 0.660394
2794.69, 0.659212
2796.2, 0.658030
2797.71, 0.656947
2799.22, 0.655666
2800.73, 0.651234
2802.24, 0.643650
2803.76, 0.642074
2805.28, 0.646211
2806.8, 0.647886
2808.32, 0.647295
2809.84, 0.646999
2811.36, 0.646605
2812.89, 0.644832
2814.42, 0.642665
2815.94, 0.641877
2817.48, 0.640794
2819.01, 0.637642
2820.54, 0.636362
2822.08, 0.637150
2823.61, 0.637445
2825.15, 0.636756
2826.69, 0.635081
2828.23, 0.633604
2829.78, 0.632915
2831.32, 0.630945
2832.87, 0.628384
2834.42, 0.626217
2835.97, 0.624641
2837.52, 0.622671
2839.08, 0.621292
2840.63, 0.619717
2842.19, 0.617057
2843.75, 0.612527
2845.31, 0.605731
2846.87, 0.595487
2848.44, 0.581994
2850.0, 0.572735
2851.57, 0.574508
2853.14, 0.582683
2854.71, 0.591055
2856.28, 0.597162
2857.86, 0.601003
2859.43, 0.602283
2861.01, 0.602973
2862.59, 0.602874
2864.17, 0.601988
2865.76, 0.600215
2867.34, 0.598442
2868.93, 0.597162
2870.52, 0.595487
2872.11, 0.594207
2873.7, 0.594010
2875.29, 0.593714
2876.89, 0.593025
2878.49, 0.592434
2880.08, 0.592336
2881.69, 0.592631
2883.29, 0.593320
2884.89, 0.593912
2886.5, 0.594404
2888.11, 0.594502
2889.72, 0.594305
2891.33, 0.593912
2892.94, 0.594010
2894.56, 0.593813
2896.17, 0.593123
2897.79, 0.592631
2899.42, 0.591942
2901.04, 0.591351
2902.66, 0.592139
2904.29, 0.592237
2905.92, 0.592237
2907.55, 0.592336
2909.18, 0.592434
2910.81, 0.592237
2912.45, 0.592040
2914.08, 0.591942
2915.72, 0.591843
2917.36, 0.591548
2919.01, 0.591154
2920.65, 0.590858
2922.3, 0.590267
2923.94, 0.589775
2925.59, 0.589972
2927.25, 0.589972
2928.9, 0.589676
2930.56, 0.589676
2932.21, 0.590169
2933.87, 0.590267
2935.53, 0.590563
2937.2, 0.590858
2938.86, 0.591351
2940.53, 0.591745
2942.2, 0.591646
2943.87, 0.591449
2945.54, 0.591449
2947.22, 0.591548
2948.89, 0.592040
2950.57, 0.592139
2952.25, 0.591843
2953.93, 0.591449
2955.62, 0.591548
2957.3, 0.591745
2958.99, 0.591449
2960.68, 0.591055
2962.37, 0.591055
2964.07, 0.590760
2965.76, 0.590464
2967.46, 0.590070
2969.16, 0.589775
2970.86, 0.589184
2972.56, 0.588987
2974.27, 0.588494
2975.98, 0.588199
2977.69, 0.587706
2979.4, 0.587411
2981.11, 0.587312
2982.83, 0.587214
2984.54, 0.586918
2986.26, 0.586918
2987.98, 0.586918
2989.71, 0.587017
2991.43, 0.586918
2993.16, 0.587017
2994.89, 0.587115
2996.62, 0.587411
2998.35, 0.587411
3000.09, 0.587706
3001.83, 0.588002
3003.57, 0.587805
3005.31, 0.587903
3007.05, 0.587903
3008.79, 0.587706
3010.54, 0.587706
3012.29, 0.587903
3014.04, 0.587805
3015.8, 0.587509
3017.55, 0.587411
3019.31, 0.587509
3021.07, 0.587312
3022.83, 0.587017
3024.59, 0.587115
3026.36, 0.587115
3028.13, 0.587017
3029.9, 0.586721
3031.67, 0.586327
3033.44, 0.586131
3035.22, 0.585737
3037.0, 0.585441
3038.78, 0.585540
3040.56, 0.585343
3042.34, 0.585047
3044.13, 0.584949
3045.92, 0.584850
3047.71, 0.584456
3049.5, 0.584161
3051.3, 0.584161
3053.09, 0.583964
3054.89, 0.583767
3056.69, 0.583865
3058.5, 0.583865
3060.3, 0.583865
3062.11, 0.583767
3063.92, 0.583471
3065.73, 0.583471
3067.55, 0.583373
3069.36, 0.583274
3071.18, 0.583274
3073.0, 0.583274
3074.82, 0.583471
3076.65, 0.583570
3078.48, 0.583668
3080.31, 0.583668
3082.14, 0.583471
3083.97, 0.583471
3085.8, 0.583570
3087.64, 0.583767
3089.48, 0.583865
3091.33, 0.584062
3093.17, 0.583964
3095.02, 0.583767
3096.87, 0.583668
3098.72, 0.583767
3100.57, 0.584062
3102.43, 0.584062
3104.28, 0.583668
3106.14, 0.583668
3108.01, 0.583865
3109.87, 0.583767
3111.74, 0.583471
3113.61, 0.583668
3115.48, 0.583865
3117.35, 0.583865
3119.23, 0.583767
3121.1, 0.583668
3122.98, 0.583668
3124.87, 0.583570
3126.75, 0.583471
3128.64, 0.583570
3130.53, 0.583570
3132.42, 0.583570
3134.31, 0.583570
3136.21, 0.583570
3138.11, 0.583570
3140.01, 0.583865
3141.91, 0.584062
3143.82, 0.583964
3145.73, 0.583570
3147.64, 0.583865
3149.55, 0.584062
3151.46, 0.584161
3153.38, 0.584259
3155.3, 0.584062
3157.22, 0.584062
3159.14, 0.583865
3161.07, 0.583865
3163.0, 0.584062
3164.93, 0.584161
3166.86, 0.584358
3168.8, 0.584555
3170.74, 0.584456
3172.68, 0.584456
3174.62, 0.584653
3176.56, 0.584752
3178.51, 0.584752
3180.46, 0.584752
3182.42, 0.584752
3184.37, 0.584653
3186.33, 0.584850
3188.29, 0.584949
3190.25, 0.584850
3192.21, 0.584850
3194.18, 0.585047
3196.15, 0.585047
3198.12, 0.585146
3200.09, 0.585343
3202.07, 0.585146
3204.05, 0.585146
3206.03, 0.585146
3208.02, 0.585047
3210.0, 0.585244
3211.99, 0.585441
3213.98, 0.585343
3215.98, 0.585343
3217.97, 0.585343
3219.97, 0.585441
3221.97, 0.585540
3223.98, 0.585441
3225.98, 0.585638
3227.99, 0.585835
3230.0, 0.585737
3232.02, 0.585835
3234.03, 0.586131
3236.05, 0.586327
3238.07, 0.586426
3240.1, 0.586426
3242.12, 0.586524
3244.15, 0.586623
3246.18, 0.586721
3248.22, 0.586820
3250.25, 0.587115
3252.29, 0.587115
3254.33, 0.587411
3256.38, 0.587706
3258.43, 0.587805
3260.47, 0.587706
3262.53, 0.587903
3264.58, 0.588396
3266.64, 0.588888
3268.7, 0.588987
3270.76, 0.589282
3272.82, 0.589972
3274.89, 0.590661
3276.96, 0.591154
3279.04, 0.591351
3281.11, 0.591843
3283.19, 0.592434
3285.27, 0.593123
3287.35, 0.593714
3289.44, 0.594404
3291.53, 0.595487
3293.62, 0.596472
3295.71, 0.597359
3297.81, 0.598344
3299.91, 0.599526
3302.01, 0.600707
3304.11, 0.601889
3306.22, 0.603268
3308.33, 0.604647
3310.44, 0.606026
3312.56, 0.607306
3314.68, 0.608685
3316.8, 0.610163
3318.92, 0.611542
3321.05, 0.613216
3323.18, 0.614792
3325.31, 0.616565
3327.44, 0.618338
3329.58, 0.620012
3331.72, 0.621686
3333.86, 0.623065
3336.01, 0.624641
3338.16, 0.626414
3340.31, 0.627990
3342.46, 0.629369
3344.61, 0.630649
3346.77, 0.631634
3348.94, 0.633112
3351.1, 0.634687
3353.27, 0.636066
3355.44, 0.637248
3357.61, 0.638627
3359.79, 0.639711
3361.97, 0.640499
3364.15, 0.641779
3366.33, 0.642961
3368.52, 0.644044
3370.71, 0.645325
3372.9, 0.646605
3375.1, 0.647984
3377.3, 0.649264
3379.5, 0.650840
3381.71, 0.652416
3383.91, 0.653894
3386.12, 0.655469
3388.34, 0.657045
3390.55, 0.658523
3392.77, 0.659803
3394.99, 0.660985
3397.22, 0.662167
3399.45, 0.663349
3401.68, 0.664629
3403.91, 0.665811
3406.15, 0.666993
3408.39, 0.668175
3410.63, 0.669455
3412.87, 0.670834
3415.12, 0.672312
3417.37, 0.673691
3419.63, 0.675070
3421.88, 0.676547
3424.14, 0.678024
3426.41, 0.679699
3428.67, 0.681570
3430.94, 0.683146
3433.21, 0.684623
3435.49, 0.686101
3437.77, 0.687578
3440.05, 0.689056
3442.33, 0.690434
3444.62, 0.691715
3446.91, 0.693192
3449.2, 0.694473
3451.5, 0.695655
3453.8, 0.696836
3456.1, 0.697920
3458.41, 0.699003
3460.72, 0.700185
3463.03, 0.700973
3465.34, 0.701663
3467.66, 0.702647
3469.98, 0.703731
3472.31, 0.704716
3474.63, 0.705602
3476.96, 0.706587
3479.3, 0.707671
3481.64, 0.708853
3483.97, 0.709739
3486.32, 0.710527
3488.66, 0.711610
3491.01, 0.712595
3493.36, 0.713383
3495.72, 0.713876
3498.08, 0.714664
3500.44, 0.715550
3502.81, 0.716338
3505.18, 0.717421
3507.55, 0.718603
3509.92, 0.719588
3512.3, 0.720475
3514.68, 0.721460
3517.06, 0.722543
3519.45, 0.723626
3521.84, 0.724316
3524.24, 0.725104
3526.64, 0.726089
3529.04, 0.726975
3531.44, 0.727763
3533.85, 0.728453
3536.26, 0.729241
3538.67, 0.729930
3541.09, 0.730521
3543.51, 0.730915
3545.93, 0.731604
3548.36, 0.732294
3550.79, 0.733082
3553.22, 0.733870
3555.66, 0.734264
3558.1, 0.734658
3560.54, 0.735249
3562.99, 0.735741
3565.44, 0.736431
3567.9, 0.737218
3570.35, 0.737612
3572.81, 0.738105
3575.28, 0.738696
3577.75, 0.739188
3580.22, 0.739582
3582.69, 0.739976
3585.17, 0.740469
3587.65, 0.740961
3590.14, 0.741257
3592.62, 0.741552
3595.11, 0.741946
3597.61, 0.742143
3600.11, 0.742636
3602.61, 0.742931
3605.11, 0.743128
3607.62, 0.743325
3610.14, 0.743424
3612.65, 0.743719
3615.17, 0.744015
3617.69, 0.744211
3620.22, 0.744408
3622.75, 0.744507
3625.28, 0.744507
3627.82, 0.744704
3630.36, 0.744802
3632.9, 0.744704
3635.45, 0.744802
3638.0, 0.745098
3640.56, 0.745098
3643.12, 0.744704
3645.68, 0.744802
3648.24, 0.744999
3650.81, 0.744901
3653.39, 0.744704
3655.96, 0.744605
3658.54, 0.744507
3661.13, 0.744507
3663.71, 0.744507
3666.3, 0.744408
3668.9, 0.744211
3671.5, 0.744211
3674.1, 0.744408
3676.7, 0.744310
3679.31, 0.744015
3681.93, 0.744113
3684.54, 0.744211
3687.17, 0.744408
3689.79, 0.744605
3692.42, 0.744605
3695.05, 0.744605
3697.69, 0.744704
3700.32, 0.744802
3702.97, 0.744802
3705.61, 0.744704
3708.27, 0.744901
3710.92, 0.745098
3713.58, 0.745098
3716.24, 0.745196
3718.91, 0.745393
3721.58, 0.745295
3724.25, 0.745393
3726.93, 0.745295
3729.61, 0.745098
3732.29, 0.744901
3734.98, 0.744901
3737.67, 0.744901
3740.37, 0.744704
3743.07, 0.744507
3745.78, 0.744310
3748.49, 0.744113
3751.2, 0.743818
3753.91, 0.743522
3756.63, 0.743325
3759.36, 0.743227
3762.09, 0.743030
3764.82, 0.742734
3767.55, 0.742537
3770.29, 0.742045
3773.04, 0.741552
3775.78, 0.741060
3778.54, 0.740666
3781.29, 0.740272
3784.05, 0.739878
3786.82, 0.739385
3789.59, 0.739090
3792.36, 0.738597
3795.13, 0.738006
3797.92, 0.737612
3800.7, 0.737317
3803.49, 0.736923
3806.28, 0.736332
3809.08, 0.735643
3811.88, 0.735150
3814.68, 0.734756
3817.49, 0.734264
3820.31, 0.733574
3823.12, 0.733180
3825.94, 0.732786
3828.77, 0.732491
3831.6, 0.732097
3834.43, 0.731703
3837.27, 0.731604
3840.11, 0.731506
3842.96, 0.731112
3845.81, 0.730718
3848.67, 0.730324
3851.53, 0.730127
3854.39, 0.729930
3857.26, 0.729635
3860.13, 0.729339
3863.01, 0.728945
3865.89, 0.728748
3868.77, 0.728354
3871.66, 0.727862
3874.55, 0.727468
3877.45, 0.727074
3880.35, 0.726778
3883.26, 0.726483
3886.17, 0.726187
3889.09, 0.725990
3892.01, 0.725695
3894.93, 0.725399
3897.86, 0.725104
3900.79, 0.724414
3903.73, 0.723922
3906.67, 0.723626
3909.62, 0.723331
3912.57, 0.722937
3915.52, 0.722346
3918.48, 0.721755
3921.45, 0.721164
3924.42, 0.720672
3927.39, 0.720081
3930.37, 0.719588
3933.35, 0.718899
3936.34, 0.718209
3939.33, 0.717815
3942.32, 0.717421
3945.32, 0.716830
3948.33, 0.716240
3951.34, 0.715846
3954.35, 0.715255
3957.37, 0.714664
3960.39, 0.714171
3963.42, 0.713679
3966.45, 0.713285
3969.49, 0.712891
3972.53, 0.712595
3975.58, 0.712300
3978.63, 0.712004
3981.68, 0.711807
3984.75, 0.711610
3987.81, 0.711610
3990.88, 0.711512
3993.95, 0.711413
3997.03, 0.711216
4000.12, 0.711118
4003.21, 0.711118
4006.3, 0.711118
4009.4, 0.711118
4012.5, 0.710921
4015.61, 0.710822
4018.72, 0.710724
4021.84, 0.710625
4024.96, 0.710625
4028.09, 0.710428
4031.22, 0.710330
4034.36, 0.710133
4037.5, 0.709837
4040.65, 0.709542
4043.8, 0.709246
4046.96, 0.709050
4050.12, 0.709050
4053.29, 0.708656
4056.46, 0.708262
4059.64, 0.708065
4062.82, 0.707966
4066.0, 0.707671
4069.19, 0.707375
4072.39, 0.706883
4075.59, 0.706489
4078.8, 0.706095
4082.01, 0.705799
4085.23, 0.705405
4088.45, 0.704814
4091.68, 0.704322
4094.91, 0.703731
4098.15, 0.703140
4101.39, 0.702746
4104.63, 0.702352
4107.89, 0.701761
4111.14, 0.701269
4114.41, 0.700481
4117.67, 0.699693
4120.95, 0.699200
4124.23, 0.698708
4127.51, 0.698117
4130.8, 0.697427
4134.09, 0.696442
4137.39, 0.695753
4140.7, 0.695261
4144.01, 0.694276
4147.32, 0.693389
4150.64, 0.692503
4153.97, 0.691616
4157.3, 0.690631
4160.64, 0.689646
4163.98, 0.688563
4167.33, 0.687578
4170.68, 0.686396
4174.04, 0.685116
4177.4, 0.683835
4180.77, 0.682456
4184.14, 0.681176
4187.52, 0.679699
4190.91, 0.678123
4194.3, 0.676251
4197.69, 0.674085
4201.1, 0.671228
4204.5, 0.667781
4207.92, 0.663940
4211.34, 0.659311
4214.76, 0.654189
4218.19, 0.648870
4221.62, 0.643355
4225.06, 0.638430
4228.51, 0.633998
4231.96, 0.630255
4235.42, 0.627497
4238.88, 0.626020
4242.35, 0.625725
4245.83, 0.626119
4249.31, 0.627399
4252.79, 0.629566
4256.28, 0.629763
4259.78, 0.625823
4263.29, 0.619618
4266.79, 0.614201
4270.31, 0.610360
4273.83, 0.607602
4277.35, 0.604943
4280.89, 0.602480
4284.42, 0.600215
4287.97, 0.598048
4291.52, 0.596177
4295.07, 0.594207
4298.63, 0.592336
4302.2, 0.590366
4305.78, 0.588396
4309.35, 0.586426
4312.94, 0.584062
4316.53, 0.581797
4320.13, 0.579236
4323.73, 0.576478
4327.34, 0.573917
4330.96, 0.571258
4334.58, 0.568402
4338.21, 0.565644
4341.84, 0.563083
4345.48, 0.560818
4349.12, 0.558553
4352.77, 0.556583
4356.43, 0.554416
4360.1, 0.552348
4363.76, 0.550772
4367.44, 0.549097
4371.12, 0.547226
4374.81, 0.545158
4378.51, 0.543089
4382.21, 0.540922
4385.92, 0.538756
4389.63, 0.536490
4393.35, 0.534323
4397.08, 0.532156
4400.81, 0.530187
4404.55, 0.528217
4408.29, 0.526247
4412.04, 0.524474
4415.8, 0.522898
4419.57, 0.521322
4423.34, 0.519943
4427.12, 0.518565
4430.9, 0.517186
4434.69, 0.516004
4438.49, 0.514723
4442.29, 0.513443
4446.1, 0.512162
4449.92, 0.510685
4453.74, 0.508715
4457.57, 0.506351
4461.41, 0.503791
4465.25, 0.500836
4469.1, 0.497389
4472.95, 0.493843
4476.82, 0.490297
4480.69, 0.486456
4484.56, 0.482418
4488.44, 0.478182
4492.33, 0.473750
4496.23, 0.469220
4500.13, 0.464590
4504.04, 0.460060
4507.96, 0.455431
4511.88, 0.450801
4515.81, 0.446369
4519.75, 0.442134
4523.69, 0.437997
4527.65, 0.434058
4531.6, 0.430610
4535.57, 0.427360
4539.54, 0.424307
4543.52, 0.421451
4547.5, 0.418594
4551.5, 0.415640
4555.5, 0.412488
4559.5, 0.409533
4563.52, 0.406874
4567.54, 0.404017
4571.56, 0.400964
4575.6, 0.398009
4579.64, 0.395153
4583.69, 0.392297
4587.75, 0.389637
4591.81, 0.386978
4595.88, 0.384023
4599.96, 0.380872
4604.04, 0.377621
4608.14, 0.373977
4612.24, 0.369939
4616.34, 0.365507
4620.46, 0.360779
4624.58, 0.355657
4628.71, 0.350339
4632.84, 0.345119
4636.99, 0.340391
4641.14, 0.336057
4645.3, 0.332216
4649.47, 0.329360
4653.64, 0.327587
4657.82, 0.326405
4662.01, 0.325420
4666.21, 0.324435
4670.41, 0.323253
4674.62, 0.321776
4678.84, 0.320102
4683.07, 0.318427
4687.3, 0.316359
4691.54, 0.314389
4695.79, 0.312321
4700.05, 0.309957
4704.31, 0.307494
4708.59, 0.304737
4712.87, 0.301782
4717.15, 0.298729
4721.45, 0.295478
4725.76, 0.292327
4730.07, 0.289076
4734.39, 0.286122
4738.72, 0.283167
4743.05, 0.280015
4747.39, 0.276863
4751.75, 0.273416
4756.1, 0.269772
4760.47, 0.266029
4764.85, 0.262286
4769.23, 0.259036
4773.62, 0.256771
4778.02, 0.255884
4782.43, 0.256574
4786.85, 0.258741
4791.27, 0.262286
4795.7, 0.266620
4800.14, 0.271348
4804.59, 0.275780
4809.05, 0.279621
4813.51, 0.282871
4817.99, 0.285334
4822.47, 0.287008
4826.96, 0.287796
4831.46, 0.287303
4835.96, 0.285925
4840.48, 0.283265
4845.0, 0.279720
4849.54, 0.275780
4854.08, 0.271446
4858.63, 0.267408
4863.18, 0.263665
4867.75, 0.260513
4872.33, 0.257657
4876.91, 0.254801
4881.5, 0.252043
4886.1, 0.249285
4890.71, 0.246626
4895.33, 0.244459
4899.96, 0.243277
4904.59, 0.243573
4909.24, 0.245444
4913.89, 0.249088
4918.55, 0.253914
4923.22, 0.258839
4927.9, 0.263567
4932.59, 0.267014
4937.29, 0.268787
4942.0, 0.268688
4946.71, 0.266915
4951.44, 0.263271
4956.17, 0.258445
4960.91, 0.252831
4965.67, 0.246724
4970.43, 0.240421
4975.2, 0.234314
4979.98, 0.228503
4984.76, 0.223480
4989.56, 0.219540
4994.37, 0.216684
4999.18, 0.215108
5004.01, 0.214123
5008.84, 0.213532
5013.69, 0.212843
5018.54, 0.211858
5023.4, 0.211267
5028.28, 0.210282
5033.16, 0.209002
5038.05, 0.207623
5042.95, 0.206145
5047.86, 0.204963
5052.78, 0.204077
5057.71, 0.203092
5062.65, 0.201812
5067.6, 0.200137
5072.56, 0.197970
5077.53, 0.195311
5082.5, 0.192258
5087.49, 0.189106
5092.49, 0.185757
5097.5, 0.182310
5102.51, 0.178961
5107.54, 0.175908
5112.58, 0.173249
5117.62, 0.171180
5122.68, 0.169309
5127.75, 0.167635
5132.82, 0.165960
5137.91, 0.164187
5143.01, 0.162316
5148.12, 0.160445
5153.23, 0.159361
5158.36, 0.158081
5163.5, 0.156407
5168.65, 0.154634
5173.81, 0.152861
5178.98, 0.151088
5184.15, 0.149709
5189.34, 0.148429
5194.54, 0.147444
5199.75, 0.146360
5204.98, 0.145572
5210.21, 0.143996
5215.45, 0.142618
5220.7, 0.142125
5225.96, 0.141436
5231.23, 0.140746
5236.52, 0.140352
5241.81, 0.140845
5247.12, 0.141534
5252.44, 0.142322
5257.76, 0.143209
5263.1, 0.143996
5268.45, 0.144390
5273.81, 0.144686
5279.18, 0.144981
5284.56, 0.145474
5289.95, 0.145474
5295.36, 0.146163
5300.77, 0.147148
5306.2, 0.147838
5311.63, 0.148823
5317.08, 0.149808
5322.54, 0.150694
5328.01, 0.151186
5333.49, 0.151482
5338.98, 0.151580
5344.49, 0.150595
5350.0, 0.149118
5355.53, 0.149020
5361.07, 0.148527
5366.62, 0.147148
5372.18, 0.145277
5377.75, 0.142815
5383.34, 0.140057
5388.93, 0.137003
5394.54, 0.133852
5400.16, 0.130601
5405.79, 0.127253
5411.44, 0.124101
5417.09, 0.119964
5422.76, 0.116517
5428.43, 0.115926
5434.12, 0.114646
5439.83, 0.112577
5445.54, 0.110706
5451.26, 0.108933
5457.0, 0.106963
5462.75, 0.104698
5468.52, 0.103811
5474.29, 0.102925
5480.08, 0.101448
5485.88, 0.100660
5491.69, 0.0993790
5497.51, 0.0977050
5503.35, 0.0960300
5509.2, 0.0942580
5515.06, 0.0920910
5520.93, 0.0900220
5526.82, 0.0878560
5532.71, 0.0855900
5538.63, 0.0835220
5544.55, 0.0813550
5550.49, 0.0792870
5556.44, 0.0781050
5562.4, 0.0774150
5568.37, 0.0768240
5574.36, 0.0755440
5580.36, 0.0753470
5586.37, 0.0768240
5592.4, 0.0779080
5598.44, 0.0781050
5604.49, 0.0785970
5610.56, 0.0789910
5616.63, 0.0789910
5622.73, 0.0788930
5628.83, 0.0783020
5634.95, 0.0766270
5641.08, 0.0743620
5647.23, 0.0741650
5653.39, 0.0742640
5659.56, 0.0740670
5665.74, 0.0739680
5671.94, 0.0728850
5678.15, 0.0722940
5684.38, 0.0722940
5690.62, 0.0718010
5696.87, 0.0718010
5703.14, 0.0712100
5709.42, 0.0699300
5715.72, 0.0701270
5722.03, 0.0707180
5728.35, 0.0712100
5734.69, 0.0713090
5741.03, 0.0714070
5747.4, 0.0713090
5753.78, 0.0723920
5760.17, 0.0714070
5766.58, 0.0699300
5773.0, 0.0719980
5779.44, 0.0736730
5785.88, 0.0743620
5792.35, 0.0750520
5798.83, 0.0754450
5805.32, 0.0761350
5811.83, 0.0760360
5818.35, 0.0740670
5824.89, 0.0737710
5831.45, 0.0755440
5838.01, 0.0767260
5844.59, 0.0770210
5851.19, 0.0767260
5857.8, 0.0761350
5864.43, 0.0752480
5871.07, 0.0747560
5877.73, 0.0715060
5884.4, 0.0711120
5891.09, 0.0719000
5897.79, 0.0715060
5904.5, 0.0739680
5911.23, 0.0748550
5917.98, 0.0747560
5924.75, 0.0746580
5931.53, 0.0724910
5938.32, 0.0719000
5945.13, 0.0750520
5951.96, 0.0765290
5958.8, 0.0770210
5965.65, 0.0758390
5972.53, 0.0759380
5979.42, 0.0764300
5986.32, 0.0751500
5993.24, 0.0750520
6000.18, 0.0759380
6007.13, 0.0753470
6014.1, 0.0744610
6021.08, 0.0747560
6028.09, 0.0748550
6035.1, 0.0739680
6042.14, 0.0704220
6049.19, 0.0673690
6056.25, 0.0707180
6063.34, 0.0725890
6070.44, 0.0712100
6077.55, 0.0715060
6084.69, 0.0730820
6091.84, 0.0731800
6099.0, 0.0723920
6106.19, 0.0703240
6113.39, 0.0681570
6120.61, 0.0688460
6127.84, 0.0691420
6135.09, 0.0677630
6142.36, 0.0661870
6149.65, 0.0652020
6156.95, 0.0637250
6164.27, 0.0631340
6171.61, 0.0630350
6178.97, 0.0611640
6186.34, 0.0596870
6193.73, 0.0609670
6201.14, 0.0615580
6208.57, 0.0613610
6216.01, 0.0613610
6223.47, 0.0615580
6230.95, 0.0617550
6238.45, 0.0619520
6245.97, 0.0624440
6253.5, 0.0629370
6261.06, 0.0630350
6268.63, 0.0632320
6276.21, 0.0635280
6283.82, 0.0636260
6291.45, 0.0639220
6299.1, 0.0642170
6306.76, 0.0645130
6314.44, 0.0650050
6322.14, 0.0653990
6329.86, 0.0655960
6337.6, 0.0644140
6345.35, 0.0638230
6353.13, 0.0662860
6360.92, 0.0671720
6368.74, 0.0664830
6376.57, 0.0673690
6384.43, 0.0684520
6392.3, 0.0687480
6400.19, 0.0680590
6408.1, 0.0646110
6416.03, 0.0634290
6423.98, 0.0661870
6431.95, 0.0670740
6439.94, 0.0671720
6447.95, 0.0667780
6455.98, 0.0660890
6464.03, 0.0651040
6472.1, 0.0632320
6480.19, 0.0611640
6488.31, 0.0586030
6496.44, 0.0578150
6504.59, 0.0598840
6512.76, 0.0599820
6520.95, 0.0585050
6529.16, 0.0587020
6537.4, 0.0586030
6545.65, 0.0577170
6553.92, 0.0567320
6562.22, 0.0558450
6570.54, 0.0541710
6578.88, 0.0541710
6587.23, 0.0543680
6595.61, 0.0537770
6604.02, 0.0536790
6612.44, 0.0531860
6620.89, 0.0524970
6629.35, 0.0504280
6637.84, 0.0490490
6646.35, 0.0509210
6654.88, 0.0526940
6663.44, 0.0523000
6672.01, 0.0513150
6680.61, 0.0504280
6689.23, 0.0508220
6697.88, 0.0509210
6706.54, 0.0499360
6715.23, 0.0492460
6723.94, 0.0489510
6732.67, 0.0487540
6741.42, 0.0485570
6750.2, 0.0481630
6759.0, 0.0480640
6767.82, 0.0473750
6776.67, 0.0466860
6785.54, 0.0459960
6794.44, 0.0461930
6803.35, 0.0471780
6812.29, 0.0473750
6821.26, 0.0466860
6830.24, 0.0463900
6839.25, 0.0465870
6848.29, 0.0457010
6857.35, 0.0435340
6866.43, 0.0426470
6875.54, 0.0437310
6884.67, 0.0436320
6893.82, 0.0429430
6903.0, 0.0420560
6912.2, 0.0416620
6921.43, 0.0412680
6930.69, 0.0406780
6939.96, 0.0399880
6949.27, 0.0389050
6958.59, 0.0375260
6967.95, 0.0376240
6977.33, 0.0378210
6986.73, 0.0376240
6996.16, 0.0372300
7005.61, 0.0370330
7015.09, 0.0365410
7024.6, 0.0361470
7034.13, 0.0354570
7043.69, 0.0344720
7053.27, 0.0342750
7062.88, 0.0340790
7072.52, 0.0336850
7082.18, 0.0328970
7091.87, 0.0322070
7101.58, 0.0315180
7111.32, 0.0305330
7121.09, 0.0296460
7130.88, 0.0288580
7140.71, 0.0277750
7150.56, 0.0268890
7160.43, 0.0261010
7170.33, 0.0252140
7180.27, 0.0246230
7190.23, 0.0239340
7200.21, 0.0229490
7210.23, 0.0221610
7220.27, 0.0216680
7230.34, 0.0211760
7240.44, 0.0206830
7250.56, 0.0200930
7260.72, 0.0195020
7270.9, 0.0188120
7281.12, 0.0183200
7291.36, 0.0178270
7301.63, 0.0170390
7311.93, 0.0163500
7322.25, 0.0159560
7332.61, 0.0153650
7343.0, 0.0147740
7353.41, 0.0141830
7363.86, 0.0138870
7374.33, 0.0133950
7384.83, 0.0129030
7395.37, 0.0125090
7405.93, 0.0121150
7416.53, 0.0117210
7427.15, 0.0113270
7437.81, 0.0108340
7448.5, 0.0104400
7459.22, 0.00994800
7469.96, 0.00965200
7480.74, 0.00925800
7491.55, 0.00866700
7502.39, 0.00807600
7513.27, 0.00768200
7524.17, 0.00728800
7535.11, 0.00689400
7546.08, 0.00650100
7557.08, 0.00610700
7568.11, 0.00581100
7579.17, 0.00551600
7590.27, 0.00522000
7601.4, 0.00472800
7612.56, 0.00433400
7623.76, 0.00403800
7634.98, 0.00384100
7646.24, 0.00384100
7657.54, 0.00364400
7668.87, 0.00354600
7680.23, 0.00344700
7691.62, 0.00325000
7703.05, 0.00315200
7714.51, 0.00334900
7726.01, 0.00344700
7737.54, 0.00374300
7749.11, 0.00403800
7760.71, 0.00433400
7772.35, 0.00472800
7784.02, 0.00522000
7795.72, 0.00591000
7807.46, 0.00679600
7819.23, 0.00778100
7831.04, 0.00896300
7842.89, 0.0106370
7854.77, 0.0125090
7866.69, 0.0146750
7878.65, 0.0173350
7890.64, 0.0204860
7902.67, 0.0241310
7914.74, 0.0283660
7926.84, 0.0331920
7938.98, 0.0386090
7951.16, 0.0444200
7963.37, 0.0510190
7975.62, 0.0584060
7987.91, 0.0664830
8000.24, 0.0750520
8012.6, 0.0842110
8025.01, 0.0938640
8037.45, 0.104205
8049.93, 0.115434
8062.45, 0.127351
8075.01, 0.140155
8087.61, 0.153550
8100.24, 0.167536
8112.91, 0.181916
8125.63, 0.196592
8138.39, 0.211661
8151.18, 0.227026
8164.02, 0.241701
8176.9, 0.255884
8189.81, 0.269082
8202.77, 0.280803
8215.77, 0.291046
8228.82, 0.299418
8241.9, 0.306510
8255.02, 0.312813
8268.19, 0.319018
8281.39, 0.325519
8294.65, 0.331625
8307.94, 0.337338
8321.28, 0.342558
8334.66, 0.346990
8348.08, 0.350339
8361.54, 0.352407
8375.05, 0.352998
8388.6, 0.352506
8402.2, 0.351028
8415.84, 0.348763
8429.52, 0.345907
8443.25, 0.342755
8457.02, 0.339800
8470.84, 0.337141
8484.7, 0.334777
8498.61, 0.332610
8512.57, 0.330542
8526.57, 0.328670
8540.62, 0.327193
8554.71, 0.325617
8568.85, 0.324041
8583.04, 0.322564
8597.27, 0.321480
8611.55, 0.320200
8625.88, 0.319215
8640.26, 0.318526
8654.68, 0.317344
8669.16, 0.315571
8683.68, 0.313010
8698.25, 0.310154
8712.87, 0.306805
8727.53, 0.302471
8742.25, 0.297645
8757.02, 0.292425
8771.83, 0.286811
8786.7, 0.281492
8801.62, 0.276765
8816.59, 0.272037
8831.61, 0.267014
8846.68, 0.261794
8861.8, 0.255983
8876.97, 0.249384
8892.2, 0.242489
8907.48, 0.235496
8922.81, 0.228208
8938.2, 0.221116
8953.63, 0.214714
8969.13, 0.209297
8984.67, 0.205160
9000.27, 0.202698
9015.92, 0.202403
9031.63, 0.203585
9047.39, 0.205751
9063.21, 0.208903
9079.08, 0.213828
9095.01, 0.221313
9111.0, 0.230966
9127.04, 0.240421
9143.13, 0.248005
9159.28, 0.252929
9175.49, 0.254604
9191.76, 0.253422
9208.09, 0.250467
9224.47, 0.245542
9240.92, 0.239140
9257.42, 0.232541
9273.98, 0.226533
9290.6, 0.222298
9307.28, 0.221609
9324.02, 0.225450
9340.82, 0.233132
9357.68, 0.243671
9374.6, 0.254308
9391.58, 0.262188
9408.62, 0.266128
9425.73, 0.267703
9442.9, 0.268393
9460.13, 0.269969
9477.42, 0.276075
9494.78, 0.290357
9512.2, 0.313601
9529.69, 0.340785
9547.24, 0.364916
9564.86, 0.382053
9582.54, 0.392592
9600.28, 0.398797
9618.1, 0.401457
9635.97, 0.400275
9653.92, 0.395744
9671.93, 0.386683
9690.01, 0.371613
9708.16, 0.351619
9726.37, 0.329458
9744.65, 0.307297
9763.0, 0.287500
9781.43, 0.273317
9799.92, 0.268590
9818.48, 0.276568
9837.1, 0.294395
9855.8, 0.313404
9874.58, 0.327193
9893.42, 0.335072
9912.34, 0.338126
9931.33, 0.337141
9950.39, 0.333694
9969.52, 0.328867
9988.74, 0.323155
10008.0, 0.316457
10027.4, 0.309661
10046.8, 0.302471
10066.3, 0.295084
10085.9, 0.288288
10105.6, 0.281985
10125.3, 0.275583
10145.1, 0.268688
10165.0, 0.261400
10185.0, 0.253816
10205.0, 0.245739
10225.2, 0.237368
10245.4, 0.228700
10265.7, 0.220230
10286.0, 0.212252
10306.5, 0.205062
10327.0, 0.198660
10347.6, 0.193341
10368.3, 0.189008
10389.1, 0.185166
10409.9, 0.181818
10430.9, 0.179158
10451.9, 0.176598
10473.0, 0.174135
10494.2, 0.172165
10515.5, 0.170491
10536.9, 0.168324
10558.4, 0.166157
10579.9, 0.164286
10601.5, 0.162513
10623.3, 0.160937
10645.1, 0.159854
10667.0, 0.158672
10689.0, 0.157293
10711.1, 0.156407
10733.2, 0.155422
10755.5, 0.154043
10777.9, 0.152762
10800.3, 0.151679
10822.9, 0.150595
10845.5, 0.149217
10868.2, 0.147936
10891.1, 0.146459
10914.0, 0.145080
10937.0, 0.143799
10960.2, 0.142618
10983.4, 0.142027
11006.7, 0.141140
11030.1, 0.139860
11053.6, 0.138579
11077.3, 0.137397
11101.0, 0.136609
11124.8, 0.135723
11148.7, 0.134738
11172.7, 0.133852
11196.9, 0.133261
11221.1, 0.132276
11245.4, 0.131389
11269.9, 0.130404
11294.4, 0.129321
11319.1, 0.128533
11343.9, 0.127548
11368.8, 0.126465
11393.7, 0.125578
11418.8, 0.124495
11444.0, 0.123214
11469.4, 0.122328
11494.8, 0.121540
11520.3, 0.120654
11546.0, 0.119866
11571.8, 0.119275
11597.7, 0.118585
11623.7, 0.117699
11649.8, 0.116714
11676.0, 0.115926
11702.4, 0.114843
11728.9, 0.113562
11755.5, 0.112380
11782.2, 0.110903
11809.0, 0.109622
11836.0, 0.108441
11863.0, 0.107160
11890.3, 0.106077
11917.6, 0.104796
11945.0, 0.103417
11972.6, 0.102236
12000.4, 0.100660
12028.2, 0.0992810
12056.2, 0.0978030
12084.3, 0.0962270
12112.5, 0.0942580
12140.9, 0.0920910
12169.4, 0.0898250
12198.0, 0.0873630
12226.8, 0.0850980
12255.7, 0.0825370
12284.7, 0.0797790
12313.9, 0.0770210
12343.2, 0.0739680
12372.7, 0.0712100
12402.3, 0.0685510
12432.0, 0.0653010
12461.9, 0.0615580
12491.9, 0.0588990
12522.1, 0.0583080
12552.4, 0.0608690
12582.9, 0.0692400
12613.5, 0.0825370
12644.3, 0.0942580
12675.2, 0.0985910
12706.3, 0.0956360
12737.5, 0.0892340
12768.9, 0.0826350
12800.4, 0.0771200
12832.1, 0.0730820
12863.9, 0.0699300
12895.9, 0.0691420
12928.1, 0.0732790
12960.4, 0.0843100
12992.9, 0.101448
13025.5, 0.118290
13058.3, 0.126760
13091.3, 0.125677
13124.4, 0.118585
13157.8, 0.109130
13191.2, 0.0995760
13224.9, 0.0920910
13258.7, 0.0874620
13292.7, 0.0860830
13326.9, 0.0893330
13361.2, 0.0960300
13395.7, 0.102629
13430.4, 0.105190
13465.3, 0.104008
13500.4, 0.100660
13535.7, 0.0955380
13571.1, 0.0903180
13606.7, 0.0855900
13642.5, 0.0812570
13678.5, 0.0790900
13714.7, 0.0807640
13751.1, 0.0854920
13787.6, 0.0904160
13824.4, 0.0929770
13861.4, 0.0924850
13898.5, 0.0909090
13935.9, 0.0893330
13973.5, 0.0875600
14011.2, 0.0860830
14049.2, 0.0846050
14087.4, 0.0830290
14125.8, 0.0810600
14164.3, 0.0793850
14203.2, 0.0778090
14242.2, 0.0757410
14281.4, 0.0737710
14320.9, 0.0719980
14360.5, 0.0700280
14400.4, 0.0680590
14440.5, 0.0663840
14480.9, 0.0647100
14521.4, 0.0628380
14562.2, 0.0610660
14603.3, 0.0594900
14644.5, 0.0578150
14686.0, 0.0561410
14727.7, 0.0546630
14769.7, 0.0540730
14811.9, 0.0548600
14854.3, 0.0566330
14897.0, 0.0608690
14939.9, 0.0684520
14983.1, 0.0817490
15026.5, 0.102236
15070.2, 0.127056
15114.2, 0.152171
15158.3, 0.172362
15202.8, 0.183591
15247.5, 0.186053
15292.5, 0.182113
15337.7, 0.172756
15383.2, 0.158081
15429.0, 0.140746
15475.1, 0.123411
15521.4, 0.107357
15568.0, 0.0943560
15614.9, 0.0852950
15662.1, 0.0802720
15709.6, 0.0784000
15757.3, 0.0794840
15805.4, 0.0850980
15853.7, 0.0964240
15902.3, 0.112873
15951.2, 0.131192
16000.5, 0.149118
16050.0, 0.162907
16099.8, 0.170097
16150.0, 0.171574
16200.5, 0.167832
16251.3, 0.161725
16302.4, 0.159558
16353.8, 0.168226
16405.5, 0.188121
16457.6, 0.210972
16510.0, 0.228799
16562.8, 0.238254
16615.9, 0.240519
16669.3, 0.237762
16723.1, 0.232541
16777.2, 0.226041
16831.7, 0.219639
16886.5, 0.212252
16941.7, 0.205554
16997.2, 0.200334
17053.1, 0.195114
17109.4, 0.190190
17166.1, 0.186250
17223.1, 0.181325
17280.5, 0.175711
17338.3, 0.168817
17396.5, 0.160543
17455.1, 0.152073
17514.0, 0.144193
17573.4, 0.136019
17633.2, 0.128041
17693.4, 0.122131
17754.0, 0.117699
17815.0, 0.112873
17876.4, 0.108342
17938.3, 0.103910
18000.5, 0.100660
18063.3, 0.0975080
18126.4, 0.0951440
18190.0, 0.0957350
18254.1, 0.0993790
18318.6, 0.106569
18383.5, 0.119373
18449.0, 0.134443
18514.9, 0.149217
18581.2, 0.161233
18648.0, 0.165862
18715.4, 0.164877
18783.2, 0.161430
18851.5, 0.154141
18920.3, 0.144489
18989.6, 0.134246
19059.4, 0.124692
19129.7, 0.116221
19200.6, 0.109032
19272.0, 0.103516
19343.9, 0.0987880
19416.3, 0.0950460
19489.3, 0.0909090
19562.8, 0.0856890
19637.0, 0.0811580
19711.6, 0.0778090
19786.8, 0.0759380
19862.6, 0.0741650
19939.0, 0.0729830
20016.0, 0.0735740
20093.6, 0.0758390
20171.8, 0.0806660
20250.6, 0.0927800
20330.0, 0.113858
20410.0, 0.142716
20490.7, 0.174923
20572.0, 0.199940
20654.0, 0.212252
20736.6, 0.212646
20819.9, 0.203388
20903.8, 0.186348
20988.5, 0.165172
21073.8, 0.143504
21159.8, 0.128829
21246.5, 0.133162
21334.0, 0.148921
21422.1, 0.162612
21511.0, 0.167438
21600.7, 0.163793
21691.0, 0.155126
21782.1, 0.145572
21874.0, 0.139958
21966.7, 0.144686
22060.2, 0.165862
22154.5, 0.199842
22249.6, 0.231754
22345.5, 0.252929
22442.2, 0.264650
22539.8, 0.269181
22638.2, 0.267999
22737.5, 0.265340
22837.7, 0.260218
22938.7, 0.253717
23040.7, 0.251157
23143.5, 0.255884
23247.3, 0.267211
23352.1, 0.288091
23457.7, 0.314881
23564.4, 0.333004
23672.0, 0.339366
23780.5, 0.327831
23890.1, 0.305279
24000.7, 0.279529
24112.3, 0.253391
24225.0, 0.232394
24338.7, 0.223796
24453.5, 0.232437
24569.4, 0.239566
24686.4, 0.239393
24804.5, 0.236714
24923.8, 0.227684
25044.2, 0.217748
25165.8, 0.206471
25288.6, 0.187418
25412.5, 0.171995
25537.7, 0.169705
25664.1, 0.179728
25791.8, 0.190183
25920.8, 0.188931
26051.1, 0.192949
26182.6, 0.215631
26315.5, 0.242158
26449.8, 0.260519
26585.4, 0.272660
26722.5, 0.287090
26860.9, 0.293398
27000.8, 0.290892
27142.1, 0.283029
27285.0, 0.267950
27429.4, 0.243454
27575.3, 0.223278
27722.7, 0.209323
27871.8, 0.197010
28022.4, 0.187591
28174.7, 0.177309
28328.7, 0.166983
28484.4, 0.156441
28641.7, 0.146764
28800.9, 0.136438
28961.8, 0.125810
29124.5, 0.121403
29289.0, 0.127883
29455.4, 0.155059
29623.8, 0.187850
29794.0, 0.201589
29966.3, 0.201546
30140.5, 0.204225
30316.7, 0.198003
30495.1, 0.187678
30675.5, 0.181802
30858.1, 0.176229
31042.8, 0.172643
31229.8, 0.171649
31419.1, 0.169100
31610.7, 0.165903
31804.6, 0.167285
32000.9, 0.167372
32199.7, 0.167847
32400.9, 0.170569
32604.8, 0.173464
32811.1, 0.170742
33020.1, 0.168798
33231.8, 0.178605
33446.2, 0.184610
33663.4, 0.185517
33883.4, 0.186252
34106.3, 0.188844
34332.1, 0.183876
34561.0, 0.177741
34792.9, 0.179123
35028.0, 0.175710
35266.3, 0.164391
35507.8, 0.152855
35752.7, 0.145424
36001.0, 0.141017
36252.8, 0.143178
36508.1, 0.144992
36767.0, 0.150738
37029.7, 0.160157
37296.1, 0.167285
37566.3, 0.165989
37840.5, 0.160934
38118.8, 0.159206
38401.2, 0.162879
38687.8, 0.161021
38978.6, 0.151257
39273.9, 0.144776
39573.7, 0.146504
39878.1, 0.148189
40187.3, 0.148665
40501.2, 0.152380
40820.0, 0.153590
41144.0, 0.161539
41473.2, 0.166810
41807.6, 0.164045
42147.5, 0.160200
42493.0, 0.157910
42844.2, 0.150782
43201.2, 0.137345
43564.3, 0.129655
43933.5, 0.128704
44309.0, 0.120884
44691.0, 0.107750
45079.6, 0.102091
45475.0, 0.101097
45877.5, 0.0993690
46287.1, 0.102480
46704.2, 0.101788
47128.7, 0.0937520
47561.1, 0.0916350
48001.5, 0.0944870
48450.1, 0.107232
48907.2, 0.117039
49373.0, 0.117428
49847.7, 0.118854
50331.5, 0.123650
50825.0, 0.126544
51328.2, 0.134710
51841.5, 0.158299
52365.1, 0.182191
52899.4, 0.198522
53444.8, 0.219303
54001.5, 0.231832
54570.1, 0.232523
55150.6, 0.224487
55743.6, 0.202583
56349.5, 0.190140
56968.7, 0.186900
57601.7, 0.178389
58248.9, 0.158904
58910.9, 0.146332
59588.1, 0.158731
60281.0, 0.174457
60990.2, 0.182536
61716.3, 0.178043
62459.8, 0.171735
63221.6, 0.168452
64002.1, 0.164304
64802.1, 0.162749
65622.1, 0.162317
66463.4, 0.161928
67326.6, 0.163570
68212.4, 0.166162
69121.9, 0.166421
70056.0, 0.168106
71015.7, 0.166897
72002.0, 0.166119
73016.3, 0.163700
74059.4, 0.159984
75132.7, 0.161064
76237.6, 0.170266
77375.5, 0.155232
78547.9, 0.139117
79756.3, 0.156441
81002.5, 0.163613
82288.5, 0.153892
83615.7, 0.163786
84986.5, 0.184092
86402.9, 0.184049
87867.4, 0.186684
89382.4, 0.179987
90950.5, 0.171476
92574.6, 0.194936
94257.2, 0.193856
96002.7, 0.219605
97814.1, 0.295947
99695.1, 0.340274
101650.0, 0.389137
103683.0, 0.403654
105799.0, 0.390822
108003.0, 0.367579
110301.0, 0.344119
112699.0, 0.324029
115204.0, 0.348612
117822.0, 0.340360
120562.0, 0.305927
123433.0, 0.285448
126443.0, 0.269765
129604.0, 0.284454
132926.0, 0.295385
136424.0, 0.299100
140111.0, 0.291410
144003.0, 0.325196
148118.0, 0.384299
152474.0, 0.365116
157095.0, 0.365937
162004.0, 0.317937
167231.0, 0.307180
172805.0, 0.369912
178764.0, 0.485525
185148.0, 0.552275
192005.0, 0.555559
199390.0, 0.351982
207366.0, 0.192689
216006.0, 0.283720
