Database of Origin, USGS Spectral Database
Sample Description, See USGS database for additional info
Date Added,2016-08-03 21:24:45.459498

Data ID,USGS_cli15          
Sample ID, clinochlore_sc-cca-1.5739
Mineral Name, clinochlore
Material Class,Phyllosilicate

Wavelength
1350.04, 0.192471
1350.39, 0.192888
1350.74, 0.191985
1351.1, 0.192124
1351.45, 0.192263
1351.8, 0.192054
1352.15, 0.192332
1352.51, 0.192957
1352.86, 0.193166
1353.21, 0.193374
1353.56, 0.193513
1353.92, 0.193652
1354.27, 0.193582
1354.63, 0.193513
1354.98, 0.193374
1355.33, 0.192888
1355.69, 0.192610
1356.04, 0.192332
1356.4, 0.192818
1356.75, 0.193374
1357.11, 0.194069
1357.46, 0.194485
1357.82, 0.194485
1358.18, 0.194138
1358.53, 0.193999
1358.89, 0.194138
1359.24, 0.194555
1359.6, 0.194485
1359.96, 0.194347
1360.31, 0.194763
1360.67, 0.194763
1361.03, 0.194902
1361.39, 0.194972
1361.74, 0.194972
1362.1, 0.194972
1362.46, 0.194694
1362.82, 0.194972
1363.18, 0.195111
1363.53, 0.195249
1363.89, 0.195527
1364.25, 0.195527
1364.61, 0.195875
1364.97, 0.195736
1365.33, 0.195180
1365.69, 0.195111
1366.05, 0.195458
1366.41, 0.195666
1366.77, 0.195527
1367.13, 0.195875
1367.49, 0.195805
1367.85, 0.195875
1368.21, 0.196291
1368.57, 0.196500
1368.93, 0.196222
1369.3, 0.195875
1369.66, 0.196222
1370.02, 0.196222
1370.38, 0.196778
1370.74, 0.197264
1371.11, 0.196847
1371.47, 0.196500
1371.83, 0.196083
1372.19, 0.196639
1372.56, 0.197403
1372.92, 0.197333
1373.29, 0.197125
1373.65, 0.197055
1374.01, 0.196778
1374.38, 0.196708
1374.74, 0.197194
1375.11, 0.197542
1375.47, 0.197472
1375.84, 0.197264
1376.2, 0.196986
1376.57, 0.197333
1376.93, 0.197889
1377.3, 0.198445
1377.67, 0.198514
1378.03, 0.198236
1378.4, 0.198028
1378.76, 0.197889
1379.13, 0.198028
1379.5, 0.197889
1379.87, 0.197542
1380.23, 0.197889
1380.6, 0.198375
1380.97, 0.198375
1381.34, 0.198097
1381.7, 0.198097
1382.07, 0.197889
1382.44, 0.198097
1382.81, 0.198445
1383.18, 0.198097
1383.55, 0.198028
1383.92, 0.198236
1384.29, 0.198584
1384.66, 0.198514
1385.03, 0.198028
1385.4, 0.198306
1385.77, 0.198584
1386.14, 0.198375
1386.51, 0.198375
1386.88, 0.198236
1387.25, 0.198236
1387.62, 0.198097
1387.99, 0.197681
1388.36, 0.197681
1388.74, 0.198028
1389.11, 0.198028
1389.48, 0.197542
1389.85, 0.197194
1390.23, 0.196778
1390.6, 0.197055
1390.97, 0.197125
1391.35, 0.197125
1391.72, 0.196500
1392.09, 0.195875
1392.47, 0.196222
1392.84, 0.196430
1393.21, 0.196430
1393.59, 0.196222
1393.96, 0.195597
1394.34, 0.195041
1394.71, 0.195111
1395.09, 0.195249
1395.46, 0.194555
1395.84, 0.194347
1396.22, 0.194416
1396.59, 0.194416
1396.97, 0.193721
1397.35, 0.193235
1397.72, 0.193444
1398.1, 0.193444
1398.48, 0.193374
1398.85, 0.193166
1399.23, 0.193027
1399.61, 0.192888
1399.99, 0.192610
1400.37, 0.192749
1400.74, 0.192680
1401.12, 0.192402
1401.5, 0.192402
1401.88, 0.192402
1402.26, 0.192471
1402.64, 0.192402
1403.02, 0.192263
1403.4, 0.192332
1403.78, 0.192193
1404.16, 0.191915
1404.54, 0.191290
1404.92, 0.191151
1405.3, 0.191290
1405.68, 0.191499
1406.06, 0.191568
1406.44, 0.191499
1406.83, 0.191082
1407.21, 0.190874
1407.59, 0.191846
1407.97, 0.192610
1408.35, 0.192332
1408.74, 0.192124
1409.12, 0.192332
1409.5, 0.192402
1409.89, 0.192749
1410.27, 0.193166
1410.65, 0.193166
1411.04, 0.193444
1411.42, 0.193513
1411.81, 0.193235
1412.19, 0.193305
1412.58, 0.193652
1412.96, 0.194208
1413.35, 0.194277
1413.73, 0.194069
1414.12, 0.194208
1414.5, 0.194555
1414.89, 0.194972
1415.28, 0.195388
1415.66, 0.195249
1416.05, 0.195388
1416.44, 0.195597
1416.82, 0.196152
1417.21, 0.196847
1417.6, 0.197472
1417.98, 0.197958
1418.37, 0.197819
1418.76, 0.197681
1419.15, 0.198236
1419.54, 0.198722
1419.93, 0.198931
1420.32, 0.199278
1420.71, 0.199556
1421.09, 0.199903
1421.48, 0.199903
1421.88, 0.199278
1422.27, 0.199486
1422.66, 0.200112
1423.05, 0.200667
1423.44, 0.201015
1423.83, 0.201084
1424.22, 0.201015
1424.61, 0.201362
1425.0, 0.201362
1425.39, 0.201362
1425.78, 0.201709
1426.18, 0.202126
1426.57, 0.202195
1426.96, 0.202056
1427.36, 0.201779
1427.75, 0.201709
1428.14, 0.201987
1428.54, 0.202056
1428.93, 0.202195
1429.32, 0.202334
1429.72, 0.202265
1430.11, 0.202334
1430.51, 0.202821
1430.9, 0.202612
1431.3, 0.202473
1431.69, 0.202821
1432.09, 0.202890
1432.48, 0.202751
1432.88, 0.202821
1433.28, 0.202890
1433.67, 0.202959
1434.07, 0.202959
1434.46, 0.203376
1434.86, 0.203723
1435.26, 0.203793
1435.66, 0.203654
1436.05, 0.203515
1436.45, 0.203654
1436.85, 0.203723
1437.25, 0.203654
1437.65, 0.203515
1438.05, 0.203515
1438.44, 0.203168
1438.84, 0.203307
1439.24, 0.203307
1439.64, 0.203515
1440.04, 0.204001
1440.44, 0.204557
1440.84, 0.204210
1441.24, 0.203862
1441.65, 0.204071
1442.05, 0.204210
1442.45, 0.204071
1442.85, 0.203862
1443.25, 0.204279
1443.65, 0.204418
1444.05, 0.204696
1444.46, 0.205043
1444.86, 0.204974
1445.26, 0.204765
1445.67, 0.204974
1446.07, 0.205252
1446.47, 0.205182
1446.88, 0.204488
1447.28, 0.204696
1447.68, 0.205391
1448.09, 0.205807
1448.49, 0.205807
1448.9, 0.205529
1449.3, 0.205460
1449.71, 0.205807
1450.11, 0.205946
1450.52, 0.205946
1450.93, 0.206363
1451.33, 0.206502
1451.74, 0.206293
1452.14, 0.206224
1452.55, 0.206085
1452.96, 0.206363
1453.36, 0.206571
1453.77, 0.206849
1454.18, 0.207405
1454.59, 0.207613
1455.0, 0.207196
1455.41, 0.206780
1455.81, 0.207058
1456.22, 0.207683
1456.63, 0.207822
1457.04, 0.207752
1457.45, 0.207961
1457.86, 0.208655
1458.27, 0.208863
1458.68, 0.208725
1459.09, 0.208586
1459.5, 0.209002
1459.91, 0.209350
1460.32, 0.209002
1460.74, 0.208933
1461.15, 0.209280
1461.56, 0.209836
1461.97, 0.210253
1462.39, 0.210114
1462.8, 0.209836
1463.21, 0.209905
1463.62, 0.210322
1464.04, 0.210461
1464.45, 0.210392
1464.86, 0.210600
1465.28, 0.211017
1465.69, 0.211156
1466.11, 0.211295
1466.52, 0.211225
1466.94, 0.210878
1467.35, 0.211086
1467.77, 0.211503
1468.18, 0.211503
1468.6, 0.211572
1469.02, 0.211989
1469.43, 0.212128
1469.85, 0.212406
1470.27, 0.212614
1470.68, 0.212475
1471.1, 0.212962
1471.52, 0.213170
1471.94, 0.213031
1472.35, 0.213100
1472.77, 0.213170
1473.19, 0.213170
1473.61, 0.213448
1474.03, 0.213656
1474.45, 0.214003
1474.87, 0.214212
1475.29, 0.214073
1475.71, 0.214073
1476.13, 0.214420
1476.55, 0.214906
1476.97, 0.214976
1477.39, 0.215115
1477.81, 0.215254
1478.23, 0.215323
1478.65, 0.215393
1479.07, 0.215601
1479.5, 0.215740
1479.92, 0.215879
1480.34, 0.216018
1480.76, 0.215809
1481.19, 0.216226
1481.61, 0.216573
1482.03, 0.216643
1482.46, 0.216851
1482.88, 0.217060
1483.31, 0.216990
1483.73, 0.217407
1484.16, 0.217893
1484.58, 0.218032
1485.01, 0.218032
1485.43, 0.217824
1485.86, 0.218240
1486.28, 0.218727
1486.71, 0.218866
1487.14, 0.218518
1487.56, 0.218588
1487.99, 0.218935
1488.42, 0.219213
1488.84, 0.219421
1489.27, 0.219838
1489.7, 0.220185
1490.13, 0.220185
1490.56, 0.220046
1490.98, 0.220324
1491.41, 0.220741
1491.84, 0.220880
1492.27, 0.220949
1492.7, 0.220741
1493.13, 0.220672
1493.56, 0.220741
1493.99, 0.221158
1494.42, 0.221575
1494.85, 0.221644
1495.29, 0.221922
1495.72, 0.222200
1496.15, 0.222477
1496.58, 0.222825
1497.01, 0.222686
1497.44, 0.222755
1497.88, 0.223172
1498.31, 0.223311
1498.74, 0.223033
1499.18, 0.223103
1499.61, 0.223380
1500.04, 0.223241
1500.48, 0.223311
1500.91, 0.224353
1501.35, 0.224561
1501.78, 0.224492
1502.22, 0.224631
1502.65, 0.224561
1503.09, 0.224700
1503.53, 0.224700
1503.96, 0.224770
1504.4, 0.225256
1504.83, 0.225673
1505.27, 0.225950
1505.71, 0.225742
1506.15, 0.225811
1506.58, 0.226367
1507.02, 0.226228
1507.46, 0.226159
1507.9, 0.226437
1508.34, 0.226645
1508.78, 0.226923
1509.21, 0.227201
1509.66, 0.227340
1510.09, 0.227756
1510.53, 0.228243
1510.97, 0.228381
1511.42, 0.228520
1511.86, 0.228451
1512.3, 0.228312
1512.74, 0.228381
1513.18, 0.228520
1513.62, 0.228520
1514.06, 0.228798
1514.51, 0.229076
1514.95, 0.229354
1515.39, 0.229840
1515.83, 0.229910
1516.28, 0.229840
1516.72, 0.229910
1517.16, 0.230048
1517.61, 0.230396
1518.05, 0.230326
1518.5, 0.230604
1518.94, 0.231021
1519.39, 0.231090
1519.83, 0.231160
1520.28, 0.231229
1520.73, 0.231299
1521.17, 0.231577
1521.62, 0.231646
1522.07, 0.231438
1522.51, 0.231716
1522.96, 0.232271
1523.41, 0.232341
1523.85, 0.232549
1524.3, 0.232688
1524.75, 0.232757
1525.2, 0.232827
1525.65, 0.233105
1526.1, 0.233521
1526.55, 0.233938
1527.0, 0.233799
1527.45, 0.233521
1527.9, 0.233799
1528.35, 0.234147
1528.8, 0.234494
1529.25, 0.234772
1529.7, 0.234911
1530.15, 0.235119
1530.6, 0.235327
1531.05, 0.235188
1531.51, 0.235536
1531.96, 0.235883
1532.41, 0.235952
1532.87, 0.235814
1533.32, 0.235952
1533.77, 0.236161
1534.23, 0.236369
1534.68, 0.236578
1535.14, 0.236994
1535.59, 0.237897
1536.05, 0.238175
1536.5, 0.238036
1536.96, 0.238036
1537.41, 0.237689
1537.87, 0.238106
1538.32, 0.238800
1538.78, 0.238870
1539.24, 0.238522
1539.7, 0.238939
1540.15, 0.239425
1540.61, 0.239634
1541.07, 0.239773
1541.53, 0.239912
1541.98, 0.239981
1542.44, 0.240051
1542.9, 0.240328
1543.36, 0.240745
1543.82, 0.240884
1544.28, 0.241023
1544.74, 0.241509
1545.2, 0.241579
1545.66, 0.241579
1546.12, 0.241648
1546.59, 0.241857
1547.05, 0.242204
1547.51, 0.242551
1547.97, 0.242690
1548.43, 0.242829
1548.9, 0.242898
1549.36, 0.242968
1549.82, 0.243246
1550.29, 0.243454
1550.75, 0.243940
1551.21, 0.244565
1551.68, 0.244774
1552.14, 0.245191
1552.61, 0.245607
1553.07, 0.245399
1553.54, 0.245399
1554.0, 0.245677
1554.47, 0.245816
1554.93, 0.246232
1555.4, 0.246649
1555.87, 0.246719
1556.34, 0.246858
1556.8, 0.247205
1557.27, 0.247274
1557.74, 0.247274
1558.21, 0.247761
1558.68, 0.248177
1559.14, 0.248247
1559.61, 0.248594
1560.08, 0.249150
1560.55, 0.249150
1561.02, 0.248802
1561.49, 0.249219
1561.96, 0.249844
1562.43, 0.249844
1562.9, 0.250053
1563.38, 0.250331
1563.85, 0.250331
1564.32, 0.250539
1564.79, 0.251095
1565.26, 0.251442
1565.74, 0.251789
1566.21, 0.251998
1566.68, 0.252067
1567.16, 0.252275
1567.63, 0.252275
1568.1, 0.252414
1568.58, 0.252831
1569.05, 0.253109
1569.53, 0.253317
1570.0, 0.253665
1570.48, 0.254012
1570.96, 0.254081
1571.43, 0.254220
1571.91, 0.254637
1572.39, 0.255123
1572.86, 0.255332
1573.34, 0.255401
1573.82, 0.255748
1574.3, 0.256026
1574.77, 0.255957
1575.25, 0.256165
1575.73, 0.256443
1576.21, 0.256651
1576.69, 0.256790
1577.17, 0.257207
1577.65, 0.257693
1578.13, 0.257832
1578.61, 0.257763
1579.09, 0.257485
1579.57, 0.257832
1580.05, 0.258318
1580.54, 0.258666
1581.02, 0.259082
1581.5, 0.259499
1581.98, 0.260055
1582.47, 0.260194
1582.95, 0.260055
1583.43, 0.260124
1583.92, 0.260333
1584.4, 0.260610
1584.88, 0.260749
1585.37, 0.260749
1585.85, 0.261097
1586.34, 0.261652
1586.82, 0.262278
1587.31, 0.262486
1587.8, 0.262555
1588.28, 0.262903
1588.77, 0.263111
1589.26, 0.263180
1589.74, 0.263319
1590.23, 0.263667
1590.72, 0.263875
1591.21, 0.263875
1591.7, 0.264500
1592.19, 0.264848
1592.67, 0.264986
1593.16, 0.265125
1593.65, 0.265681
1594.14, 0.265750
1594.63, 0.265681
1595.12, 0.266167
1595.61, 0.266584
1596.11, 0.266862
1596.6, 0.267140
1597.09, 0.267556
1597.58, 0.267834
1598.08, 0.267834
1598.57, 0.267973
1599.06, 0.268390
1599.55, 0.269015
1600.05, 0.269223
1600.54, 0.269154
1601.04, 0.269085
1601.53, 0.269640
1602.03, 0.269918
1602.52, 0.270196
1603.02, 0.270543
1603.51, 0.270543
1604.01, 0.270890
1604.5, 0.271238
1605.0, 0.271585
1605.5, 0.271932
1606.0, 0.272210
1606.49, 0.272419
1606.99, 0.272696
1607.49, 0.273044
1607.99, 0.273044
1608.49, 0.273391
1608.99, 0.273808
1609.49, 0.274086
1609.99, 0.274433
1610.49, 0.274919
1610.99, 0.275127
1611.49, 0.275127
1611.99, 0.275197
1612.49, 0.275405
1612.99, 0.275891
1613.49, 0.276100
1614.0, 0.276447
1614.5, 0.276933
1615.0, 0.277420
1615.51, 0.277420
1616.01, 0.277420
1616.51, 0.277836
1617.02, 0.277975
1617.52, 0.277975
1618.03, 0.278670
1618.53, 0.279364
1619.04, 0.279434
1619.54, 0.279712
1620.05, 0.280129
1620.55, 0.280198
1621.06, 0.280406
1621.57, 0.280545
1622.08, 0.280893
1622.58, 0.281170
1623.09, 0.281309
1623.6, 0.281309
1624.11, 0.281657
1624.62, 0.282212
1625.13, 0.282768
1625.64, 0.282976
1626.15, 0.283185
1626.66, 0.283393
1627.17, 0.283740
1627.68, 0.284157
1628.19, 0.284227
1628.7, 0.284574
1629.21, 0.285268
1629.72, 0.285338
1630.24, 0.285407
1630.75, 0.285616
1631.26, 0.285755
1631.78, 0.286171
1632.29, 0.286588
1632.8, 0.286866
1633.32, 0.286727
1633.83, 0.286866
1634.35, 0.287283
1634.86, 0.287838
1635.38, 0.288255
1635.9, 0.288533
1636.41, 0.288672
1636.93, 0.289089
1637.45, 0.289297
1637.96, 0.289297
1638.48, 0.289158
1639.0, 0.289714
1639.52, 0.290200
1640.04, 0.290200
1640.56, 0.290478
1641.08, 0.291103
1641.59, 0.291381
1642.11, 0.291589
1642.63, 0.291728
1643.16, 0.291798
1643.68, 0.292075
1644.2, 0.292423
1644.72, 0.292909
1645.24, 0.293326
1645.76, 0.293534
1646.29, 0.293742
1646.81, 0.293951
1647.33, 0.294229
1647.86, 0.294437
1648.38, 0.294645
1648.9, 0.294854
1649.43, 0.295062
1649.95, 0.295548
1650.48, 0.295896
1651.0, 0.296104
1651.53, 0.296312
1652.06, 0.296451
1652.58, 0.296729
1653.11, 0.297215
1653.64, 0.297493
1654.17, 0.297841
1654.69, 0.298327
1655.22, 0.298327
1655.75, 0.298466
1656.28, 0.298744
1656.81, 0.299021
1657.34, 0.299299
1657.87, 0.299438
1658.4, 0.299577
1658.93, 0.299855
1659.46, 0.300341
1659.99, 0.300758
1660.52, 0.300966
1661.05, 0.301105
1661.59, 0.301383
1662.12, 0.301591
1662.65, 0.301661
1663.19, 0.302008
1663.72, 0.302355
1664.26, 0.302772
1664.79, 0.303119
1665.32, 0.303119
1665.86, 0.303536
1666.39, 0.304022
1666.93, 0.304231
1667.47, 0.304300
1668.0, 0.304578
1668.54, 0.305203
1669.08, 0.305412
1669.61, 0.305342
1670.15, 0.305481
1670.69, 0.305828
1671.23, 0.306245
1671.77, 0.306592
1672.31, 0.306801
1672.85, 0.307079
1673.39, 0.307426
1673.93, 0.307565
1674.47, 0.308051
1675.01, 0.308121
1675.55, 0.308190
1676.09, 0.308398
1676.64, 0.309023
1677.18, 0.309440
1677.72, 0.309996
1678.26, 0.310204
1678.81, 0.310065
1679.35, 0.310274
1679.89, 0.310690
1680.44, 0.311038
1680.98, 0.311385
1681.53, 0.311802
1682.07, 0.311732
1682.62, 0.312010
1683.17, 0.312427
1683.71, 0.312635
1684.26, 0.313191
1684.81, 0.313469
1685.36, 0.313538
1685.9, 0.313886
1686.45, 0.314233
1687.0, 0.314302
1687.55, 0.314441
1688.1, 0.314789
1688.65, 0.315483
1689.2, 0.316039
1689.75, 0.315900
1690.3, 0.315969
1690.85, 0.316247
1691.41, 0.316525
1691.96, 0.316872
1692.51, 0.317220
1693.06, 0.317567
1693.61, 0.317706
1694.17, 0.318123
1694.72, 0.318331
1695.28, 0.318817
1695.83, 0.319303
1696.39, 0.319442
1696.94, 0.319373
1697.5, 0.319581
1698.05, 0.319859
1698.61, 0.320345
1699.17, 0.320832
1699.72, 0.321109
1700.28, 0.321318
1700.84, 0.321526
1701.4, 0.321804
1701.95, 0.322082
1702.51, 0.322429
1703.07, 0.322499
1703.63, 0.322360
1704.19, 0.322776
1704.75, 0.323124
1705.31, 0.323332
1705.88, 0.323610
1706.44, 0.323957
1707.0, 0.324374
1707.56, 0.324721
1708.12, 0.324860
1708.69, 0.325138
1709.25, 0.325485
1709.81, 0.325902
1710.38, 0.326041
1710.94, 0.326249
1711.51, 0.326666
1712.07, 0.327083
1712.64, 0.327430
1713.2, 0.327569
1713.77, 0.327708
1714.34, 0.327847
1714.9, 0.328194
1715.47, 0.328680
1716.04, 0.329028
1716.61, 0.328889
1717.18, 0.329097
1717.74, 0.329444
1718.31, 0.329861
1718.88, 0.330139
1719.45, 0.330417
1720.02, 0.330834
1720.59, 0.331042
1721.17, 0.331111
1721.74, 0.331389
1722.31, 0.331737
1722.88, 0.331876
1723.45, 0.331876
1724.03, 0.332362
1724.6, 0.332778
1725.18, 0.332987
1725.75, 0.333334
1726.33, 0.333681
1726.9, 0.333820
1727.48, 0.333959
1728.05, 0.334376
1728.63, 0.334723
1729.2, 0.334862
1729.78, 0.334793
1730.36, 0.335140
1730.94, 0.335557
1731.51, 0.335835
1732.09, 0.336182
1732.67, 0.336599
1733.25, 0.336946
1733.83, 0.337085
1734.41, 0.337363
1734.99, 0.337571
1735.57, 0.337849
1736.15, 0.337988
1736.73, 0.338266
1737.32, 0.338335
1737.9, 0.338613
1738.48, 0.339169
1739.07, 0.339377
1739.65, 0.339447
1740.23, 0.339794
1740.82, 0.340072
1741.4, 0.340280
1741.99, 0.340627
1742.57, 0.341114
1743.16, 0.341600
1743.74, 0.341739
1744.33, 0.341808
1744.92, 0.341947
1745.51, 0.342364
1746.09, 0.342781
1746.68, 0.343058
1747.27, 0.343197
1747.86, 0.343336
1748.45, 0.343614
1749.04, 0.343961
1749.63, 0.344239
1750.22, 0.344517
1750.81, 0.344934
1751.4, 0.345212
1751.99, 0.345420
1752.59, 0.345767
1753.18, 0.346115
1753.77, 0.346323
1754.37, 0.346531
1754.96, 0.346948
1755.56, 0.347157
1756.15, 0.347434
1756.74, 0.347643
1757.34, 0.348198
1757.94, 0.348546
1758.53, 0.348615
1759.13, 0.348615
1759.73, 0.348824
1760.32, 0.349101
1760.92, 0.349657
1761.52, 0.350143
1762.12, 0.350352
1762.72, 0.350421
1763.32, 0.350699
1763.92, 0.350977
1764.52, 0.351324
1765.12, 0.351671
1765.72, 0.352019
1766.32, 0.352574
1766.92, 0.352713
1767.53, 0.352783
1768.13, 0.353061
1768.73, 0.353477
1769.34, 0.353755
1769.94, 0.353755
1770.55, 0.353894
1771.15, 0.354450
1771.76, 0.354728
1772.36, 0.354866
1772.97, 0.355214
1773.57, 0.355700
1774.18, 0.355978
1774.79, 0.356256
1775.4, 0.356672
1776.0, 0.356811
1776.61, 0.356742
1777.22, 0.356881
1777.83, 0.357367
1778.44, 0.357645
1779.05, 0.357992
1779.66, 0.358270
1780.27, 0.358409
1780.88, 0.358548
1781.5, 0.358756
1782.11, 0.359104
1782.72, 0.359242
1783.33, 0.359520
1783.95, 0.360006
1784.56, 0.360215
1785.18, 0.360284
1785.79, 0.360423
1786.41, 0.360770
1787.02, 0.361187
1787.64, 0.361326
1788.26, 0.361535
1788.87, 0.361882
1789.49, 0.362160
1790.11, 0.362438
1790.73, 0.362715
1791.35, 0.363063
1791.96, 0.363410
1792.58, 0.363618
1793.21, 0.363618
1793.83, 0.363827
1794.45, 0.364174
1795.07, 0.364382
1795.69, 0.364521
1796.31, 0.364938
1796.93, 0.365216
1797.56, 0.365285
1798.18, 0.365494
1798.8, 0.365841
1799.43, 0.366119
1800.05, 0.366119
1800.68, 0.366258
1801.3, 0.366675
1801.93, 0.367022
1802.56, 0.367230
1803.18, 0.367439
1803.81, 0.367855
1804.44, 0.367994
1805.07, 0.368064
1805.7, 0.368342
1806.33, 0.368619
1806.95, 0.368619
1807.58, 0.368828
1808.22, 0.369175
1808.85, 0.369522
1809.48, 0.369661
1810.11, 0.369939
1810.74, 0.370425
1811.38, 0.370634
1812.01, 0.370703
1812.64, 0.370912
1813.28, 0.371050
1813.91, 0.371189
1814.55, 0.371467
1815.18, 0.371814
1815.82, 0.372301
1816.45, 0.372717
1817.09, 0.372717
1817.73, 0.372648
1818.36, 0.372926
1819.0, 0.373343
1819.64, 0.373759
1820.28, 0.373968
1820.92, 0.373968
1821.56, 0.374107
1822.2, 0.374454
1822.84, 0.374871
1823.48, 0.375287
1824.12, 0.375426
1824.76, 0.375704
1825.41, 0.376051
1826.05, 0.376329
1826.69, 0.376468
1827.34, 0.376607
1827.98, 0.376677
1828.63, 0.377024
1829.27, 0.377232
1829.92, 0.377371
1830.56, 0.377510
1831.21, 0.377719
1831.86, 0.377996
1832.5, 0.378552
1833.15, 0.378969
1833.8, 0.379108
1834.45, 0.379386
1835.1, 0.379663
1835.75, 0.379941
1836.4, 0.380080
1837.05, 0.380358
1837.7, 0.380636
1838.35, 0.380844
1839.01, 0.381330
1839.66, 0.381469
1840.31, 0.381608
1840.96, 0.381747
1841.62, 0.381956
1842.27, 0.382164
1842.93, 0.382094
1843.58, 0.382233
1844.24, 0.382720
1844.9, 0.383275
1845.55, 0.383692
1846.21, 0.383831
1846.87, 0.384039
1847.53, 0.384039
1848.18, 0.384178
1848.84, 0.384387
1849.5, 0.384317
1850.16, 0.384456
1850.82, 0.384734
1851.48, 0.385012
1852.14, 0.385498
1852.81, 0.385984
1853.47, 0.386193
1854.13, 0.385984
1854.8, 0.386123
1855.46, 0.386470
1856.12, 0.386818
1856.79, 0.386887
1857.45, 0.386957
1858.12, 0.387096
1858.79, 0.387373
1859.45, 0.387721
1860.12, 0.387998
1860.79, 0.387929
1861.46, 0.388068
1862.12, 0.388485
1862.79, 0.388346
1863.46, 0.388415
1864.13, 0.388693
1864.8, 0.388971
1865.48, 0.389110
1866.15, 0.389110
1866.82, 0.389388
1867.49, 0.390013
1868.16, 0.390221
1868.84, 0.389874
1869.51, 0.389804
1870.19, 0.390152
1870.86, 0.390499
1871.54, 0.390777
1872.21, 0.391124
1872.89, 0.391263
1873.56, 0.391124
1874.24, 0.391194
1874.92, 0.391402
1875.6, 0.391610
1876.28, 0.391610
1876.96, 0.391958
1877.64, 0.392166
1878.32, 0.392235
1879.0, 0.392513
1879.68, 0.392583
1880.36, 0.392583
1881.04, 0.392722
1881.73, 0.392930
1882.41, 0.393277
1883.09, 0.393625
1883.78, 0.393972
1884.46, 0.394041
1885.15, 0.394250
1885.83, 0.394458
1886.52, 0.394528
1887.21, 0.394528
1887.89, 0.394944
1888.58, 0.395222
1889.27, 0.395778
1889.96, 0.396125
1890.65, 0.396125
1891.34, 0.396264
1892.03, 0.396403
1892.72, 0.396750
1893.41, 0.397445
1894.1, 0.397723
1894.79, 0.397862
1895.49, 0.398070
1896.18, 0.398487
1896.87, 0.398904
1897.57, 0.399181
1898.26, 0.399529
1898.96, 0.399806
1899.65, 0.400362
1900.35, 0.400640
1901.05, 0.400918
1901.74, 0.401057
1902.44, 0.401265
1903.14, 0.401751
1903.84, 0.401960
1904.54, 0.402099
1905.24, 0.402377
1905.94, 0.402793
1906.64, 0.403418
1907.34, 0.403627
1908.04, 0.403627
1908.75, 0.403974
1909.45, 0.404530
1910.15, 0.404808
1910.86, 0.404946
1911.56, 0.405294
1912.27, 0.405711
1912.97, 0.405988
1913.68, 0.406197
1914.39, 0.406336
1915.09, 0.406544
1915.8, 0.406961
1916.51, 0.407169
1917.22, 0.407586
1917.93, 0.408142
1918.64, 0.408350
1919.35, 0.408489
1920.06, 0.408697
1920.77, 0.409114
1921.48, 0.409531
1922.19, 0.409739
1922.91, 0.409670
1923.62, 0.410086
1924.33, 0.410295
1925.05, 0.410503
1925.76, 0.410989
1926.48, 0.411476
1927.19, 0.411545
1927.91, 0.411753
1928.63, 0.411962
1929.35, 0.412101
1930.07, 0.412448
1930.78, 0.412934
1931.5, 0.413282
1932.22, 0.413420
1932.94, 0.413490
1933.66, 0.413490
1934.39, 0.413768
1935.11, 0.414323
1935.83, 0.414323
1936.55, 0.414254
1937.28, 0.414462
1938.0, 0.414671
1938.73, 0.414949
1939.45, 0.415365
1940.18, 0.415365
1940.9, 0.415296
1941.63, 0.415435
1942.36, 0.415643
1943.09, 0.415991
1943.81, 0.416199
1944.54, 0.416268
1945.27, 0.416199
1946.0, 0.416199
1946.73, 0.416268
1947.47, 0.416477
1948.2, 0.416685
1948.93, 0.416546
1949.66, 0.416477
1950.4, 0.416616
1951.13, 0.416616
1951.86, 0.416685
1952.6, 0.416824
1953.34, 0.417310
1954.07, 0.417519
1954.81, 0.417588
1955.55, 0.417519
1956.29, 0.417380
1957.02, 0.417519
1957.76, 0.417657
1958.5, 0.417866
1959.24, 0.418074
1959.98, 0.418144
1960.72, 0.418422
1961.47, 0.418630
1962.21, 0.418630
1962.95, 0.419047
1963.7, 0.419186
1964.44, 0.419394
1965.18, 0.419533
1965.93, 0.419672
1966.67, 0.419880
1967.42, 0.420089
1968.17, 0.420019
1968.92, 0.420227
1969.66, 0.420297
1970.41, 0.420297
1971.16, 0.420505
1971.91, 0.420714
1972.66, 0.420714
1973.41, 0.420505
1974.16, 0.420575
1974.92, 0.420783
1975.67, 0.420922
1976.42, 0.420783
1977.18, 0.420644
1977.93, 0.420644
1978.69, 0.420783
1979.44, 0.420853
1980.2, 0.420644
1980.95, 0.420714
1981.71, 0.420922
1982.47, 0.420783
1983.23, 0.420853
1983.99, 0.420783
1984.74, 0.420714
1985.51, 0.420714
1986.27, 0.420783
1987.03, 0.420714
1987.79, 0.420505
1988.55, 0.420644
1989.32, 0.420853
1990.08, 0.420853
1990.84, 0.421061
1991.61, 0.421269
1992.37, 0.421200
1993.14, 0.421130
1993.9, 0.421478
1994.67, 0.421547
1995.44, 0.421617
1996.21, 0.421825
1996.98, 0.421825
1997.75, 0.421756
1998.52, 0.422033
1999.29, 0.422103
2000.06, 0.422242
2000.83, 0.422589
2001.6, 0.422728
2002.38, 0.423006
2003.15, 0.423284
2003.93, 0.423353
2004.7, 0.423700
2005.48, 0.424117
2006.25, 0.424187
2007.03, 0.424464
2007.81, 0.424881
2008.58, 0.425159
2009.36, 0.425715
2010.14, 0.425854
2010.92, 0.426062
2011.7, 0.426548
2012.48, 0.427034
2013.26, 0.427521
2014.05, 0.427937
2014.83, 0.428424
2015.61, 0.428910
2016.4, 0.429188
2017.18, 0.429466
2017.97, 0.430021
2018.75, 0.430577
2019.54, 0.431133
2020.32, 0.431619
2021.11, 0.432174
2021.9, 0.432591
2022.69, 0.433355
2023.48, 0.433980
2024.27, 0.434328
2025.06, 0.434814
2025.85, 0.435439
2026.64, 0.436272
2027.44, 0.436828
2028.23, 0.437384
2029.02, 0.438009
2029.82, 0.438704
2030.61, 0.439329
2031.41, 0.439815
2032.2, 0.440510
2033.0, 0.441065
2033.8, 0.441760
2034.6, 0.442315
2035.4, 0.442871
2036.2, 0.443357
2037.0, 0.443913
2037.8, 0.444469
2038.6, 0.445163
2039.4, 0.445649
2040.2, 0.446136
2041.01, 0.446761
2041.81, 0.447316
2042.61, 0.447664
2043.42, 0.448220
2044.22, 0.448984
2045.03, 0.449539
2045.84, 0.450095
2046.65, 0.450651
2047.46, 0.450998
2048.26, 0.451415
2049.07, 0.452040
2049.88, 0.452526
2050.69, 0.452734
2051.51, 0.453012
2052.32, 0.453498
2053.13, 0.453985
2053.94, 0.454540
2054.76, 0.455026
2055.57, 0.455374
2056.39, 0.455652
2057.2, 0.455929
2058.02, 0.456555
2058.84, 0.457110
2059.66, 0.457319
2060.48, 0.457527
2061.29, 0.457944
2062.11, 0.458152
2062.94, 0.458499
2063.76, 0.459194
2064.58, 0.459472
2065.4, 0.459750
2066.22, 0.460166
2067.05, 0.460305
2067.87, 0.460514
2068.7, 0.461000
2069.52, 0.461486
2070.35, 0.461764
2071.18, 0.462042
2072.0, 0.462250
2072.83, 0.462459
2073.66, 0.462736
2074.49, 0.463084
2075.32, 0.463501
2076.15, 0.463709
2076.98, 0.464056
2077.82, 0.464334
2078.65, 0.464473
2079.48, 0.464890
2080.32, 0.465167
2081.15, 0.465376
2081.99, 0.465654
2082.83, 0.465862
2083.66, 0.466001
2084.5, 0.466279
2085.34, 0.466696
2086.18, 0.466973
2087.02, 0.467182
2087.86, 0.467390
2088.7, 0.467807
2089.54, 0.468015
2090.39, 0.468363
2091.23, 0.468710
2092.07, 0.468849
2092.92, 0.469127
2093.76, 0.469266
2094.61, 0.469405
2095.45, 0.469613
2096.3, 0.470030
2097.15, 0.470446
2098.0, 0.470724
2098.85, 0.470933
2099.7, 0.470863
2100.55, 0.470933
2101.4, 0.471141
2102.25, 0.471210
2103.1, 0.471349
2103.96, 0.471627
2104.81, 0.471836
2105.67, 0.472044
2106.52, 0.472113
2107.38, 0.472183
2108.24, 0.472183
2109.09, 0.472391
2109.95, 0.472739
2110.81, 0.472877
2111.67, 0.472947
2112.53, 0.473225
2113.39, 0.473225
2114.25, 0.473294
2115.12, 0.473572
2115.98, 0.473711
2116.84, 0.473780
2117.71, 0.473989
2118.58, 0.473989
2119.44, 0.474058
2120.31, 0.474128
2121.18, 0.474128
2122.04, 0.474475
2122.91, 0.474892
2123.78, 0.475170
2124.65, 0.475309
2125.52, 0.475447
2126.4, 0.475586
2127.27, 0.475864
2128.14, 0.476073
2129.02, 0.476350
2129.89, 0.476628
2130.77, 0.476906
2131.64, 0.477114
2132.52, 0.477323
2133.4, 0.477531
2134.27, 0.477809
2135.15, 0.478156
2136.03, 0.478365
2136.91, 0.478643
2137.79, 0.479129
2138.68, 0.479337
2139.56, 0.479546
2140.44, 0.479754
2141.33, 0.480032
2142.21, 0.480171
2143.1, 0.480449
2143.99, 0.480796
2144.87, 0.481004
2145.76, 0.481282
2146.65, 0.481560
2147.54, 0.481977
2148.43, 0.482046
2149.32, 0.482046
2150.21, 0.482185
2151.1, 0.482393
2151.99, 0.482671
2152.89, 0.482880
2153.78, 0.483157
2154.68, 0.483227
2155.57, 0.483366
2156.47, 0.483435
2157.37, 0.483644
2158.27, 0.483852
2159.16, 0.484060
2160.06, 0.484199
2160.96, 0.484130
2161.86, 0.484338
2162.77, 0.484616
2163.67, 0.484755
2164.57, 0.484894
2165.48, 0.484894
2166.38, 0.484963
2167.29, 0.484963
2168.2, 0.484824
2169.1, 0.484824
2170.01, 0.484824
2170.92, 0.484697
2171.83, 0.484377
2172.74, 0.483993
2173.65, 0.484185
2174.56, 0.484952
2175.47, 0.484888
2176.39, 0.484824
2177.3, 0.484824
2178.22, 0.484313
2179.13, 0.484633
2180.05, 0.485016
2180.96, 0.484505
2181.88, 0.484633
2182.8, 0.484952
2183.72, 0.485016
2184.64, 0.484697
2185.56, 0.484569
2186.48, 0.484377
2187.41, 0.484249
2188.33, 0.484185
2189.25, 0.484057
2190.18, 0.483545
2191.1, 0.483290
2192.03, 0.482970
2192.96, 0.482842
2193.89, 0.482458
2194.82, 0.482394
2195.74, 0.481819
2196.68, 0.481307
2197.61, 0.480988
2198.54, 0.480860
2199.47, 0.480604
2200.4, 0.480732
2201.34, 0.480796
2202.28, 0.480604
2203.21, 0.479581
2204.15, 0.479517
2205.08, 0.479645
2206.02, 0.479325
2206.96, 0.478750
2207.9, 0.478366
2208.84, 0.478302
2209.78, 0.477663
2210.73, 0.477151
2211.67, 0.476959
2212.61, 0.476576
2213.56, 0.476192
2214.5, 0.475169
2215.45, 0.474849
2216.4, 0.474338
2217.35, 0.473762
2218.3, 0.473442
2219.24, 0.472547
2220.2, 0.471332
2221.15, 0.470885
2222.1, 0.469798
2223.05, 0.469030
2224.0, 0.468071
2224.96, 0.467240
2225.91, 0.466089
2226.87, 0.464618
2227.83, 0.463147
2228.79, 0.461805
2229.74, 0.460590
2230.7, 0.458671
2231.66, 0.456369
2232.63, 0.454579
2233.59, 0.452724
2234.55, 0.450422
2235.51, 0.447673
2236.48, 0.444987
2237.44, 0.442238
2238.41, 0.439168
2239.38, 0.435396
2240.34, 0.431431
2241.31, 0.427530
2242.28, 0.423054
2243.25, 0.418514
2244.22, 0.413910
2245.19, 0.409562
2246.17, 0.405981
2247.14, 0.402272
2248.12, 0.398628
2249.09, 0.395494
2250.07, 0.392873
2251.04, 0.390507
2252.02, 0.388141
2253.0, 0.386670
2253.98, 0.386031
2254.96, 0.385136
2255.94, 0.384816
2256.92, 0.385327
2257.91, 0.386159
2258.89, 0.386926
2259.88, 0.387693
2260.86, 0.388780
2261.85, 0.390315
2262.83, 0.391466
2263.82, 0.393192
2264.81, 0.394663
2265.8, 0.395942
2266.79, 0.397732
2267.78, 0.399971
2268.78, 0.401569
2269.77, 0.403104
2270.76, 0.404702
2271.76, 0.406429
2272.75, 0.407708
2273.75, 0.408667
2274.75, 0.409498
2275.75, 0.410393
2276.75, 0.411544
2277.75, 0.412184
2278.75, 0.412695
2279.75, 0.413143
2280.75, 0.413463
2281.76, 0.413655
2282.76, 0.413655
2283.77, 0.413335
2284.77, 0.413079
2285.78, 0.412887
2286.79, 0.412312
2287.8, 0.411672
2288.81, 0.410969
2289.82, 0.410138
2290.83, 0.408987
2291.84, 0.407772
2292.86, 0.406493
2293.87, 0.405789
2294.89, 0.404383
2295.91, 0.403296
2296.92, 0.402272
2297.94, 0.401058
2298.96, 0.400098
2299.98, 0.398883
2301.0, 0.397860
2302.02, 0.397221
2303.04, 0.396198
2304.07, 0.395239
2305.09, 0.394407
2306.12, 0.393192
2307.15, 0.391850
2308.17, 0.391210
2309.2, 0.390890
2310.23, 0.390315
2311.26, 0.389420
2312.29, 0.388780
2313.32, 0.388013
2314.35, 0.387054
2315.39, 0.385903
2316.42, 0.385008
2317.46, 0.384240
2318.5, 0.383985
2319.53, 0.383729
2320.57, 0.383281
2321.61, 0.382578
2322.65, 0.381810
2323.69, 0.380979
2324.73, 0.379764
2325.78, 0.378613
2326.82, 0.377654
2327.86, 0.376183
2328.91, 0.375352
2329.96, 0.374649
2331.01, 0.373562
2332.05, 0.372283
2333.1, 0.370556
2334.15, 0.369086
2335.21, 0.367935
2336.26, 0.366656
2337.31, 0.365185
2338.36, 0.363842
2339.42, 0.362243
2340.48, 0.361220
2341.53, 0.360645
2342.59, 0.360005
2343.65, 0.358982
2344.71, 0.357895
2345.77, 0.357512
2346.83, 0.357512
2347.9, 0.357320
2348.96, 0.356936
2350.02, 0.357128
2351.09, 0.357831
2352.16, 0.358471
2353.23, 0.359046
2354.29, 0.360069
2355.36, 0.361220
2356.43, 0.362371
2357.51, 0.363458
2358.58, 0.365121
2359.65, 0.366975
2360.73, 0.368830
2361.8, 0.369853
2362.88, 0.371068
2363.96, 0.373178
2365.03, 0.375672
2366.11, 0.378038
2367.19, 0.380020
2368.27, 0.382002
2369.36, 0.384368
2370.44, 0.386798
2371.53, 0.389100
2372.61, 0.391338
2373.7, 0.393768
2374.78, 0.396390
2375.87, 0.398628
2376.96, 0.400866
2378.05, 0.403168
2379.14, 0.405150
2380.24, 0.407196
2381.33, 0.409178
2382.42, 0.411033
2383.52, 0.413143
2384.61, 0.414806
2385.71, 0.416148
2386.81, 0.417683
2387.91, 0.418770
2389.01, 0.419729
2390.11, 0.421008
2391.22, 0.422223
2392.32, 0.422671
2393.42, 0.423310
2394.53, 0.424397
2395.64, 0.424973
2396.74, 0.425484
2397.85, 0.426252
2398.96, 0.426379
2400.07, 0.426955
2401.18, 0.427530
2402.3, 0.428042
2403.41, 0.428426
2404.52, 0.428809
2405.64, 0.429257
2406.76, 0.429896
2407.88, 0.430280
2408.99, 0.430600
2410.11, 0.431047
2411.23, 0.431431
2412.36, 0.431879
2413.48, 0.432646
2414.6, 0.433158
2415.73, 0.433605
2416.85, 0.433797
2417.98, 0.434117
2419.11, 0.434245
2420.24, 0.434436
2421.37, 0.434884
2422.5, 0.435587
2423.64, 0.435332
2424.77, 0.435523
2425.9, 0.436099
2427.04, 0.436611
2428.18, 0.436419
2429.31, 0.436483
2430.45, 0.436674
2431.59, 0.436738
2432.73, 0.436611
2433.88, 0.436419
2435.02, 0.436163
2436.16, 0.435971
2437.31, 0.435779
2438.45, 0.435523
2439.6, 0.435012
2440.75, 0.435140
2441.9, 0.435268
2443.05, 0.434756
2444.2, 0.434436
2445.35, 0.434053
2446.51, 0.433541
2447.67, 0.433413
2448.82, 0.433349
2449.98, 0.433030
2451.14, 0.432326
2452.3, 0.431815
2453.46, 0.431303
2454.62, 0.430472
2455.78, 0.429768
2456.94, 0.428873
2458.11, 0.427914
2459.28, 0.427339
2460.44, 0.426443
2461.61, 0.425420
2462.78, 0.424525
2463.95, 0.423566
2465.12, 0.422862
2466.3, 0.421903
2467.47, 0.421008
2468.65, 0.420497
2469.82, 0.419473
2471.0, 0.418131
2472.18, 0.417235
2473.36, 0.416340
2474.54, 0.415509
2475.72, 0.414933
2476.9, 0.413846
2478.08, 0.413079
2479.27, 0.412504
2480.46, 0.412120
2481.64, 0.411289
2482.83, 0.410074
2484.02, 0.409306
2485.21, 0.408731
2486.4, 0.408155
2487.6, 0.407580
2488.79, 0.406749
2489.99, 0.406109
2491.18, 0.405726
2492.38, 0.405470
2493.58, 0.405278
2494.78, 0.404766
2495.98, 0.404319
2497.18, 0.404063
2498.39, 0.403743
2499.59, 0.403679
2500.8, 0.403168
2502.01, 0.402592
2503.21, 0.402464
2504.42, 0.402400
2505.63, 0.402209
2506.84, 0.402081
2508.06, 0.402081
2509.27, 0.401761
2510.49, 0.401185
2511.7, 0.401058
2512.92, 0.401122
2514.14, 0.400930
2515.36, 0.400610
2516.58, 0.400162
2517.8, 0.399907
2519.03, 0.399779
2520.25, 0.399779
2521.48, 0.399523
2522.7, 0.398820
2523.93, 0.398308
2525.16, 0.398244
2526.39, 0.398308
2527.62, 0.397860
2528.86, 0.397093
2530.09, 0.396773
2531.33, 0.396390
2532.56, 0.395814
2533.8, 0.395558
2535.04, 0.395367
2536.28, 0.395047
2537.52, 0.394855
2538.76, 0.394855
2540.01, 0.394407
2541.25, 0.394088
2542.5, 0.393640
2543.75, 0.393320
2544.99, 0.393256
2546.24, 0.392873
2547.49, 0.392745
2548.75, 0.392489
2550.0, 0.391850
2551.26, 0.391402
2552.51, 0.391402
2553.77, 0.391402
2555.03, 0.391146
2556.29, 0.391018
2557.55, 0.390763
2558.81, 0.390635
2560.08, 0.389867
2561.34, 0.389356
2562.61, 0.388972
2563.88, 0.388844
2565.14, 0.389164
2566.41, 0.389100
2567.68, 0.388716
2568.96, 0.388716
2570.23, 0.388652
2571.51, 0.388588
2572.78, 0.387885
2574.06, 0.387374
2575.34, 0.387437
2576.62, 0.387246
2577.9, 0.387118
2579.18, 0.387182
2580.47, 0.386734
2581.75, 0.386223
2583.04, 0.385967
2584.32, 0.386095
2585.61, 0.385903
2586.9, 0.385967
2588.2, 0.385839
2589.49, 0.385903
2590.78, 0.386350
2592.08, 0.386350
2593.37, 0.384816
2594.67, 0.383921
2595.97, 0.384688
2597.27, 0.385775
2598.57, 0.386286
2599.88, 0.386223
2601.18, 0.385839
2602.49, 0.385711
2603.79, 0.385455
2605.1, 0.385136
2606.41, 0.385136
2607.72, 0.385647
2609.03, 0.385903
2610.35, 0.385903
2611.66, 0.386031
2612.98, 0.386095
2614.3, 0.386031
2615.62, 0.385455
2616.94, 0.385008
2618.26, 0.385199
2619.58, 0.385327
2620.91, 0.385711
2622.23, 0.385967
2623.56, 0.386159
2624.89, 0.385775
2626.22, 0.385072
2627.55, 0.384752
2628.88, 0.384368
2630.21, 0.383729
2631.55, 0.383601
2632.89, 0.383601
2634.22, 0.383537
2635.56, 0.383089
2636.9, 0.382961
2638.25, 0.382706
2639.59, 0.381938
2640.93, 0.381043
2642.28, 0.380595
2643.63, 0.379892
2644.98, 0.379125
2646.33, 0.378549
2647.68, 0.378230
2649.03, 0.377654
2650.39, 0.376823
2651.74, 0.375928
2653.1, 0.375224
2654.46, 0.374649
2655.82, 0.373945
2657.18, 0.373242
2658.54, 0.372730
2659.9, 0.372027
2661.27, 0.371324
2662.64, 0.370364
2664.01, 0.369022
2665.38, 0.367871
2666.74, 0.366847
2668.12, 0.366208
2669.49, 0.365249
2670.87, 0.364290
2672.24, 0.364034
2673.62, 0.363650
2675.0, 0.362371
2676.38, 0.360517
2677.76, 0.359046
2679.15, 0.357895
2680.54, 0.357000
2681.92, 0.355657
2683.31, 0.354187
2684.7, 0.352396
2686.09, 0.350478
2687.48, 0.348559
2688.88, 0.346897
2690.27, 0.344787
2691.67, 0.342357
2693.07, 0.339351
2694.47, 0.336602
2695.87, 0.333980
2697.27, 0.331231
2698.67, 0.328161
2700.08, 0.324516
2701.49, 0.320680
2702.9, 0.316779
2704.31, 0.311408
2705.72, 0.304630
2707.13, 0.295678
2708.54, 0.284360
2709.96, 0.270867
2711.38, 0.255777
2712.8, 0.240750
2714.22, 0.226170
2715.64, 0.212039
2717.06, 0.199634
2718.49, 0.189147
2719.91, 0.179939
2721.34, 0.171754
2722.77, 0.165423
2724.2, 0.159285
2725.63, 0.153786
2727.07, 0.149693
2728.5, 0.146048
2729.94, 0.142787
2731.38, 0.140293
2732.82, 0.138183
2734.26, 0.136009
2735.7, 0.134027
2737.15, 0.132173
2738.59, 0.129998
2740.04, 0.127824
2741.49, 0.126290
2742.94, 0.125267
2744.39, 0.124052
2745.84, 0.123092
2747.3, 0.122709
2748.76, 0.122837
2750.21, 0.123092
2751.67, 0.123092
2753.14, 0.122837
2754.6, 0.122453
2756.06, 0.122197
2757.53, 0.122453
2759.0, 0.122581
2760.46, 0.122517
2761.94, 0.122453
2763.41, 0.122389
2764.88, 0.122453
2766.36, 0.122325
2767.83, 0.121622
2769.31, 0.120471
2770.79, 0.118361
2772.27, 0.115803
2773.76, 0.113181
2775.24, 0.109856
2776.73, 0.106275
2778.22, 0.102950
2779.71, 0.0993690
2781.2, 0.0958520
2782.69, 0.0925270
2784.18, 0.0897140
2785.68, 0.0871560
2787.18, 0.0845340
2788.68, 0.0819120
2790.18, 0.0798660
2791.68, 0.0780120
2793.19, 0.0763490
2794.69, 0.0749430
2796.2, 0.0736640
2797.71, 0.0725770
2799.22, 0.0716170
2800.73, 0.0704660
2802.24, 0.0693790
2803.76, 0.0684840
2805.28, 0.0679090
2806.8, 0.0675890
2808.32, 0.0673330
2809.84, 0.0670130
2811.36, 0.0666300
2812.89, 0.0663100
2814.42, 0.0661820
2815.94, 0.0661820
2817.48, 0.0661820
2819.01, 0.0661180
2820.54, 0.0661180
2822.08, 0.0661180
2823.61, 0.0661180
2825.15, 0.0662460
2826.69, 0.0666940
2828.23, 0.0668860
2829.78, 0.0670770
2831.32, 0.0675250
2832.87, 0.0679090
2834.42, 0.0680370
2835.97, 0.0684200
2837.52, 0.0689960
2839.08, 0.0694430
2840.63, 0.0696350
2842.19, 0.0701470
2843.75, 0.0705940
2845.31, 0.0711060
2846.87, 0.0714900
2848.44, 0.0719370
2850.0, 0.0721930
2851.57, 0.0725130
2853.14, 0.0727040
2854.71, 0.0728320
2856.28, 0.0730880
2857.86, 0.0734080
2859.43, 0.0734720
2861.01, 0.0735360
2862.59, 0.0736000
2864.17, 0.0738550
2865.76, 0.0739190
2867.34, 0.0737920
2868.93, 0.0735360
2870.52, 0.0732160
2872.11, 0.0728960
2873.7, 0.0726410
2875.29, 0.0720650
2876.89, 0.0714260
2878.49, 0.0710420
2880.08, 0.0705300
2881.69, 0.0698270
2883.29, 0.0690600
2884.89, 0.0685480
2886.5, 0.0679090
2888.11, 0.0671410
2889.72, 0.0665020
2891.33, 0.0658620
2892.94, 0.0653510
2894.56, 0.0649030
2896.17, 0.0641360
2897.79, 0.0634330
2899.42, 0.0629210
2901.04, 0.0624730
2902.66, 0.0619620
2904.29, 0.0615780
2905.92, 0.0611310
2907.55, 0.0606830
2909.18, 0.0602350
2910.81, 0.0598520
2912.45, 0.0597240
2914.08, 0.0597880
2915.72, 0.0595960
2917.36, 0.0593400
2919.01, 0.0590200
2920.65, 0.0587010
2922.3, 0.0583810
2923.94, 0.0585090
2925.59, 0.0585730
2927.25, 0.0586370
2928.9, 0.0585730
2930.56, 0.0583170
2932.21, 0.0584450
2933.87, 0.0585090
2935.53, 0.0583810
2937.2, 0.0581250
2938.86, 0.0583810
2940.53, 0.0586370
2942.2, 0.0587650
2943.87, 0.0588930
2945.54, 0.0590840
2947.22, 0.0592120
2948.89, 0.0594040
2950.57, 0.0596600
2952.25, 0.0596600
2953.93, 0.0596600
2955.62, 0.0599800
2957.3, 0.0604270
2958.99, 0.0607470
2960.68, 0.0610030
2962.37, 0.0611310
2964.07, 0.0614500
2965.76, 0.0618980
2967.46, 0.0622820
2969.16, 0.0624090
2970.86, 0.0626010
2972.56, 0.0631130
2974.27, 0.0636240
2975.98, 0.0640720
2977.69, 0.0645200
2979.4, 0.0648390
2981.11, 0.0652230
2982.83, 0.0657990
2984.54, 0.0663740
2986.26, 0.0667580
2987.98, 0.0671410
2989.71, 0.0676530
2991.43, 0.0683560
2993.16, 0.0689320
2994.89, 0.0695710
2996.62, 0.0702110
2998.35, 0.0708500
3000.09, 0.0715530
3001.83, 0.0721290
3003.57, 0.0727040
3005.31, 0.0733440
3007.05, 0.0738550
3008.79, 0.0744950
3010.54, 0.0751980
3012.29, 0.0758380
3014.04, 0.0764130
3015.8, 0.0771170
3017.55, 0.0779480
3019.31, 0.0786510
3021.07, 0.0794190
3022.83, 0.0803780
3024.59, 0.0811450
3026.36, 0.0819120
3028.13, 0.0825520
3029.9, 0.0833190
3031.67, 0.0843420
3033.44, 0.0850460
3035.22, 0.0857490
3037.0, 0.0866440
3038.78, 0.0875400
3040.56, 0.0884350
3042.34, 0.0893940
3044.13, 0.0902890
3045.92, 0.0912480
3047.71, 0.0922070
3049.5, 0.0931030
3051.3, 0.0939980
3053.09, 0.0948930
3054.89, 0.0958520
3056.69, 0.0969390
3058.5, 0.0979620
3060.3, 0.0989220
3062.11, 0.0998810
3063.92, 0.100968
3065.73, 0.102055
3067.55, 0.103206
3069.36, 0.104229
3071.18, 0.105316
3073.0, 0.106467
3074.82, 0.107618
3076.65, 0.108577
3078.48, 0.109472
3080.31, 0.110623
3082.14, 0.111710
3083.97, 0.112797
3085.8, 0.113885
3087.64, 0.115035
3089.48, 0.116186
3091.33, 0.117529
3093.17, 0.118680
3095.02, 0.119703
3096.87, 0.120918
3098.72, 0.122133
3100.57, 0.123220
3102.43, 0.124243
3104.28, 0.125458
3106.14, 0.126737
3108.01, 0.127952
3109.87, 0.129231
3111.74, 0.130510
3113.61, 0.131597
3115.48, 0.132748
3117.35, 0.134027
3119.23, 0.135306
3121.1, 0.136265
3122.98, 0.137416
3124.87, 0.138759
3126.75, 0.139910
3128.64, 0.141061
3130.53, 0.142084
3132.42, 0.143235
3134.31, 0.144450
3136.21, 0.145793
3138.11, 0.146752
3140.01, 0.147839
3141.91, 0.149054
3143.82, 0.150397
3145.73, 0.151612
3147.64, 0.152571
3149.55, 0.153594
3151.46, 0.154873
3153.38, 0.156152
3155.3, 0.157494
3157.22, 0.158709
3159.14, 0.159796
3161.07, 0.160947
3163.0, 0.162226
3164.93, 0.163569
3166.86, 0.164720
3168.8, 0.165999
3170.74, 0.167342
3172.68, 0.168493
3174.62, 0.169708
3176.56, 0.170987
3178.51, 0.172138
3180.46, 0.173289
3182.42, 0.174567
3184.37, 0.175974
3186.33, 0.177189
3188.29, 0.178340
3190.25, 0.179619
3192.21, 0.180834
3194.18, 0.181985
3196.15, 0.183200
3198.12, 0.184287
3200.09, 0.185566
3202.07, 0.186845
3204.05, 0.187996
3206.03, 0.189211
3208.02, 0.190490
3210.0, 0.191768
3211.99, 0.192983
3213.98, 0.194006
3215.98, 0.195157
3217.97, 0.196372
3219.97, 0.197651
3221.97, 0.198802
3223.98, 0.199825
3225.98, 0.200912
3227.99, 0.202000
3230.0, 0.203087
3232.02, 0.204174
3234.03, 0.205389
3236.05, 0.206603
3238.07, 0.207627
3240.1, 0.208586
3242.12, 0.209545
3244.15, 0.210504
3246.18, 0.211591
3248.22, 0.212614
3250.25, 0.213573
3252.29, 0.214597
3254.33, 0.215684
3256.38, 0.216579
3258.43, 0.217474
3260.47, 0.218241
3262.53, 0.219009
3264.58, 0.219776
3266.64, 0.220735
3268.7, 0.221566
3270.76, 0.222398
3272.82, 0.223421
3274.89, 0.224124
3276.96, 0.224764
3279.04, 0.225595
3281.11, 0.226490
3283.19, 0.227257
3285.27, 0.228089
3287.35, 0.228664
3289.44, 0.229304
3291.53, 0.230135
3293.62, 0.231030
3295.71, 0.231797
3297.81, 0.232437
3299.91, 0.233012
3302.01, 0.233716
3304.11, 0.234803
3306.22, 0.235826
3308.33, 0.236529
3310.44, 0.237297
3312.56, 0.238000
3314.68, 0.238576
3316.8, 0.239279
3318.92, 0.240238
3321.05, 0.240878
3323.18, 0.241517
3325.31, 0.242348
3327.44, 0.242988
3329.58, 0.243755
3331.72, 0.244394
3333.86, 0.245098
3336.01, 0.245865
3338.16, 0.246505
3340.31, 0.247144
3342.46, 0.247656
3344.61, 0.248039
3346.77, 0.248615
3348.94, 0.249318
3351.1, 0.249894
3353.27, 0.250213
3355.44, 0.250597
3357.61, 0.251236
3359.79, 0.251812
3361.97, 0.252260
3364.15, 0.252579
3366.33, 0.252963
3368.52, 0.253347
3370.71, 0.253666
3372.9, 0.254178
3375.1, 0.254753
3377.3, 0.255393
3379.5, 0.256288
3381.71, 0.257183
3383.91, 0.257951
3386.12, 0.258782
3388.34, 0.259677
3390.55, 0.260444
3392.77, 0.261148
3394.99, 0.261659
3397.22, 0.261979
3399.45, 0.262299
3401.68, 0.262682
3403.91, 0.262938
3406.15, 0.263258
3408.39, 0.263514
3410.63, 0.263961
3412.87, 0.264473
3415.12, 0.265048
3417.37, 0.265752
3419.63, 0.266903
3421.88, 0.268246
3424.14, 0.269461
3426.41, 0.270739
3428.67, 0.271890
3430.94, 0.273105
3433.21, 0.274320
3435.49, 0.275216
3437.77, 0.276111
3440.05, 0.277070
3442.33, 0.278093
3444.62, 0.278988
3446.91, 0.279756
3449.2, 0.280587
3451.5, 0.281546
3453.8, 0.282441
3456.1, 0.283272
3458.41, 0.284040
3460.72, 0.284807
3463.03, 0.285319
3465.34, 0.285894
3467.66, 0.286342
3469.98, 0.286789
3472.31, 0.287237
3474.63, 0.287813
3476.96, 0.288388
3479.3, 0.289027
3481.64, 0.289539
3483.97, 0.289987
3486.32, 0.290434
3488.66, 0.290882
3491.01, 0.291329
3493.36, 0.291649
3495.72, 0.292033
3498.08, 0.292225
3500.44, 0.292800
3502.81, 0.293567
3505.18, 0.294335
3507.55, 0.295614
3509.92, 0.297020
3512.3, 0.298299
3514.68, 0.299514
3517.06, 0.300729
3519.45, 0.302008
3521.84, 0.303031
3524.24, 0.303990
3526.64, 0.305077
3529.04, 0.305845
3531.44, 0.306484
3533.85, 0.307315
3536.26, 0.308275
3538.67, 0.309170
3541.09, 0.310065
3543.51, 0.310960
3545.93, 0.311919
3548.36, 0.312687
3550.79, 0.313454
3553.22, 0.314413
3555.66, 0.315500
3558.1, 0.316651
3560.54, 0.317483
3562.99, 0.318314
3565.44, 0.319401
3567.9, 0.320424
3570.35, 0.321319
3572.81, 0.322278
3575.28, 0.323429
3577.75, 0.324516
3580.22, 0.325412
3582.69, 0.326435
3585.17, 0.327458
3587.65, 0.328353
3590.14, 0.329312
3592.62, 0.330207
3595.11, 0.331167
3597.61, 0.332190
3600.11, 0.333149
3602.61, 0.333980
3605.11, 0.335003
3607.62, 0.335643
3610.14, 0.336410
3612.65, 0.337305
3615.17, 0.338264
3617.69, 0.339032
3620.22, 0.339735
3622.75, 0.340502
3625.28, 0.341334
3627.82, 0.342165
3630.36, 0.342932
3632.9, 0.343444
3635.45, 0.344083
3638.0, 0.344723
3640.56, 0.345490
3643.12, 0.346257
3645.68, 0.346833
3648.24, 0.347345
3650.81, 0.348112
3653.39, 0.348879
3655.96, 0.349519
3658.54, 0.350094
3661.13, 0.350606
3663.71, 0.351181
3666.3, 0.351821
3668.9, 0.352588
3671.5, 0.353355
3674.1, 0.353995
3676.7, 0.354442
3679.31, 0.354762
3681.93, 0.355274
3684.54, 0.355913
3687.17, 0.356680
3689.79, 0.357128
3692.42, 0.357576
3695.05, 0.358087
3697.69, 0.358663
3700.32, 0.359110
3702.97, 0.359558
3705.61, 0.359941
3708.27, 0.360453
3710.92, 0.361093
3713.58, 0.361732
3716.24, 0.362180
3718.91, 0.362627
3721.58, 0.363011
3724.25, 0.363522
3726.93, 0.364034
3729.61, 0.364545
3732.29, 0.364865
3734.98, 0.365441
3737.67, 0.365888
3740.37, 0.366400
3743.07, 0.366847
3745.78, 0.367423
3748.49, 0.367935
3751.2, 0.368446
3753.91, 0.368894
3756.63, 0.369341
3759.36, 0.369661
3762.09, 0.370173
3764.82, 0.370684
3767.55, 0.371132
3770.29, 0.371579
3773.04, 0.371963
3775.78, 0.372347
3778.54, 0.372794
3781.29, 0.373114
3784.05, 0.373306
3786.82, 0.373690
3789.59, 0.374201
3792.36, 0.374521
3795.13, 0.374777
3797.92, 0.375096
3800.7, 0.375480
3803.49, 0.375864
3806.28, 0.376247
3809.08, 0.376439
3811.88, 0.376695
3814.68, 0.377015
3817.49, 0.377526
3820.31, 0.377910
3823.12, 0.378357
3825.94, 0.378741
3828.77, 0.379253
3831.6, 0.379636
3834.43, 0.380084
3837.27, 0.380532
3840.11, 0.380851
3842.96, 0.381171
3845.81, 0.381683
3848.67, 0.382002
3851.53, 0.382514
3854.39, 0.383089
3857.26, 0.383537
3860.13, 0.383793
3863.01, 0.384048
3865.89, 0.384368
3868.77, 0.384624
3871.66, 0.385072
3874.55, 0.385647
3877.45, 0.386095
3880.35, 0.386414
3883.26, 0.386798
3886.17, 0.387182
3889.09, 0.387437
3892.01, 0.387693
3894.93, 0.387949
3897.86, 0.388205
3900.79, 0.388525
3903.73, 0.388844
3906.67, 0.388972
3909.62, 0.389164
3912.57, 0.389292
3915.52, 0.389612
3918.48, 0.389739
3921.45, 0.389803
3924.42, 0.389931
3927.39, 0.390059
3930.37, 0.390251
3933.35, 0.390507
3936.34, 0.390443
3939.33, 0.390635
3942.32, 0.390827
3945.32, 0.391082
3948.33, 0.391146
3951.34, 0.391274
3954.35, 0.391530
3957.37, 0.391786
3960.39, 0.391977
3963.42, 0.392105
3966.45, 0.392297
3969.49, 0.392425
3972.53, 0.392553
3975.58, 0.392809
3978.63, 0.393001
3981.68, 0.393128
3984.75, 0.393256
3987.81, 0.393512
3990.88, 0.393704
3993.95, 0.393832
3997.03, 0.393960
4000.12, 0.394216
4003.21, 0.394471
4006.3, 0.394535
4009.4, 0.394663
4012.5, 0.394663
4015.61, 0.394535
4018.72, 0.394663
4021.84, 0.394791
4024.96, 0.394983
4028.09, 0.394983
4031.22, 0.395047
4034.36, 0.395175
4037.5, 0.395175
4040.65, 0.395175
4043.8, 0.395111
4046.96, 0.395111
4050.12, 0.395047
4053.29, 0.394919
4056.46, 0.394983
4059.64, 0.394919
4062.82, 0.394855
4066.0, 0.394791
4069.19, 0.394791
4072.39, 0.394727
4075.59, 0.394663
4078.8, 0.394599
4082.01, 0.394407
4085.23, 0.394088
4088.45, 0.393960
4091.68, 0.394024
4094.91, 0.394024
4098.15, 0.393768
4101.39, 0.393576
4104.63, 0.393384
4107.89, 0.393320
4111.14, 0.393192
4114.41, 0.393001
4117.67, 0.392745
4120.95, 0.392617
4124.23, 0.392553
4127.51, 0.392297
4130.8, 0.391977
4134.09, 0.391914
4137.39, 0.391722
4140.7, 0.391530
4144.01, 0.391210
4147.32, 0.390954
4150.64, 0.390763
4153.97, 0.390379
4157.3, 0.390123
4160.64, 0.389931
4163.98, 0.389612
4167.33, 0.389484
4170.68, 0.389164
4174.04, 0.388780
4177.4, 0.388525
4180.77, 0.388333
4184.14, 0.387949
4187.52, 0.387629
4190.91, 0.387310
4194.3, 0.386926
4197.69, 0.386414
4201.1, 0.385967
4204.5, 0.385519
4207.92, 0.385008
4211.34, 0.384432
4214.76, 0.383793
4218.19, 0.383025
4221.62, 0.382450
4225.06, 0.381938
4228.51, 0.381299
4231.96, 0.380787
4235.42, 0.380404
4238.88, 0.380212
4242.35, 0.380148
4245.83, 0.379828
4249.31, 0.379700
4252.79, 0.379764
4256.28, 0.379764
4259.78, 0.379189
4263.29, 0.378293
4266.79, 0.377526
4270.31, 0.376951
4273.83, 0.376567
4277.35, 0.376247
4280.89, 0.375800
4284.42, 0.375416
4287.97, 0.374904
4291.52, 0.374393
4295.07, 0.374009
4298.63, 0.373690
4302.2, 0.373370
4305.78, 0.372922
4309.35, 0.372538
4312.94, 0.372411
4316.53, 0.372091
4320.13, 0.371579
4323.73, 0.371132
4327.34, 0.370748
4330.96, 0.370428
4334.58, 0.369981
4338.21, 0.369405
4341.84, 0.368894
4345.48, 0.368446
4349.12, 0.367935
4352.77, 0.367423
4356.43, 0.366975
4360.1, 0.366336
4363.76, 0.365760
4367.44, 0.365249
4371.12, 0.364801
4374.81, 0.364226
4378.51, 0.363586
4382.21, 0.362819
4385.92, 0.362116
4389.63, 0.361476
4393.35, 0.360837
4397.08, 0.360133
4400.81, 0.359494
4404.55, 0.358854
4408.29, 0.358087
4412.04, 0.357320
4415.8, 0.356680
4419.57, 0.355977
4423.34, 0.355210
4427.12, 0.354378
4430.9, 0.353675
4434.69, 0.352844
4438.49, 0.352012
4442.29, 0.351117
4446.1, 0.350222
4449.92, 0.349263
4453.74, 0.348368
4457.57, 0.347408
4461.41, 0.346513
4465.25, 0.345490
4469.1, 0.344531
4472.95, 0.343572
4476.82, 0.342549
4480.69, 0.341526
4484.56, 0.340630
4488.44, 0.339607
4492.33, 0.338648
4496.23, 0.337753
4500.13, 0.336666
4504.04, 0.335643
4507.96, 0.334684
4511.88, 0.333788
4515.81, 0.332829
4519.75, 0.331934
4523.69, 0.330975
4527.65, 0.330080
4531.6, 0.329184
4535.57, 0.328161
4539.54, 0.327138
4543.52, 0.326051
4547.5, 0.324964
4551.5, 0.323813
4555.5, 0.322662
4559.5, 0.321255
4563.52, 0.319849
4567.54, 0.318378
4571.56, 0.316907
4575.6, 0.315181
4579.64, 0.313582
4583.69, 0.311792
4587.75, 0.309937
4591.81, 0.308019
4595.88, 0.306101
4599.96, 0.304054
4604.04, 0.302200
4608.14, 0.300601
4612.24, 0.299003
4616.34, 0.297340
4620.46, 0.295933
4624.58, 0.294527
4628.71, 0.293184
4632.84, 0.291905
4636.99, 0.290946
4641.14, 0.289859
4645.3, 0.288772
4649.47, 0.287685
4653.64, 0.286725
4657.82, 0.285511
4662.01, 0.284168
4666.21, 0.282825
4670.41, 0.281418
4674.62, 0.279947
4678.84, 0.278477
4683.07, 0.276878
4687.3, 0.275279
4691.54, 0.273617
4695.79, 0.271890
4700.05, 0.270100
4704.31, 0.268374
4708.59, 0.266583
4712.87, 0.264665
4717.15, 0.262682
4721.45, 0.260828
4725.76, 0.258782
4730.07, 0.256736
4734.39, 0.254626
4738.72, 0.252579
4743.05, 0.250469
4747.39, 0.248487
4751.75, 0.246633
4756.1, 0.244650
4760.47, 0.242796
4764.85, 0.240941
4769.23, 0.239215
4773.62, 0.237680
4778.02, 0.236146
4782.43, 0.234547
4786.85, 0.233076
4791.27, 0.231734
4795.7, 0.230391
4800.14, 0.228984
4804.59, 0.227705
4809.05, 0.226490
4813.51, 0.225211
4817.99, 0.223996
4822.47, 0.222653
4826.96, 0.221375
4831.46, 0.219968
4835.96, 0.218625
4840.48, 0.217346
4845.0, 0.216131
4849.54, 0.214852
4854.08, 0.213509
4858.63, 0.212103
4863.18, 0.210760
4867.75, 0.209545
4872.33, 0.208394
4876.91, 0.207243
4881.5, 0.206028
4886.1, 0.204941
4890.71, 0.203726
4895.33, 0.202511
4899.96, 0.201296
4904.59, 0.200145
4909.24, 0.199058
4913.89, 0.197907
4918.55, 0.196884
4923.22, 0.195861
4927.9, 0.194774
4932.59, 0.193815
4937.29, 0.192919
4942.0, 0.192024
4946.71, 0.191193
4951.44, 0.190298
4956.17, 0.189466
4960.91, 0.188827
4965.67, 0.188315
4970.43, 0.187804
4975.2, 0.187228
4979.98, 0.186781
4984.76, 0.186205
4989.56, 0.185694
4994.37, 0.185374
4999.18, 0.185118
5004.01, 0.185054
5008.84, 0.184926
5013.69, 0.184671
5018.54, 0.184479
5023.4, 0.184479
5028.28, 0.184479
5033.16, 0.184415
5038.05, 0.184351
5042.95, 0.184287
5047.86, 0.184287
5052.78, 0.184159
5057.71, 0.184031
5062.65, 0.184031
5067.6, 0.183967
5072.56, 0.183967
5077.53, 0.183967
5082.5, 0.183711
5087.49, 0.183520
5092.49, 0.183392
5097.5, 0.183392
5102.51, 0.183264
5107.54, 0.183136
5112.58, 0.183008
5117.62, 0.182880
5122.68, 0.182752
5127.75, 0.182624
5132.82, 0.182433
5137.91, 0.182177
5143.01, 0.181921
5148.12, 0.181665
5153.23, 0.181601
5158.36, 0.181537
5163.5, 0.181282
5168.65, 0.181090
5173.81, 0.180834
5178.98, 0.180642
5184.15, 0.180450
5189.34, 0.180195
5194.54, 0.179875
5199.75, 0.179619
5204.98, 0.179235
5210.21, 0.178788
5215.45, 0.178276
5220.7, 0.177893
5225.96, 0.177445
5231.23, 0.176869
5236.52, 0.176294
5241.81, 0.175846
5247.12, 0.175399
5252.44, 0.174823
5257.76, 0.174376
5263.1, 0.173928
5268.45, 0.173416
5273.81, 0.172905
5279.18, 0.172457
5284.56, 0.172074
5289.95, 0.171562
5295.36, 0.171114
5300.77, 0.170987
5306.2, 0.170731
5311.63, 0.170539
5317.08, 0.170283
5322.54, 0.170027
5328.01, 0.169708
5333.49, 0.169452
5338.98, 0.169260
5344.49, 0.169068
5350.0, 0.168685
5355.53, 0.168557
5361.07, 0.168493
5366.62, 0.168429
5372.18, 0.168301
5377.75, 0.168173
5383.34, 0.168045
5388.93, 0.167853
5394.54, 0.167662
5400.16, 0.167534
5405.79, 0.167278
5411.44, 0.166958
5417.09, 0.166574
5422.76, 0.166255
5428.43, 0.166127
5434.12, 0.165935
5439.83, 0.165487
5445.54, 0.165296
5451.26, 0.164848
5457.0, 0.164336
5462.75, 0.163697
5468.52, 0.163121
5474.29, 0.162610
5480.08, 0.162034
5485.88, 0.161459
5491.69, 0.160819
5497.51, 0.160116
5503.35, 0.159349
5509.2, 0.158581
5515.06, 0.157878
5520.93, 0.157047
5526.82, 0.156279
5532.71, 0.155768
5538.63, 0.155128
5544.55, 0.154361
5550.49, 0.153530
5556.44, 0.152890
5562.4, 0.152251
5568.37, 0.151484
5574.36, 0.150652
5580.36, 0.149885
5586.37, 0.149437
5592.4, 0.149118
5598.44, 0.148542
5604.49, 0.148031
5610.56, 0.147519
5616.63, 0.147008
5622.73, 0.146560
5628.83, 0.146112
5634.95, 0.145665
5641.08, 0.145089
5647.23, 0.144770
5653.39, 0.144578
5659.56, 0.144322
5665.74, 0.144130
5671.94, 0.143746
5678.15, 0.143235
5684.38, 0.142979
5690.62, 0.142531
5696.87, 0.142212
5703.14, 0.141764
5709.42, 0.141061
5715.72, 0.140485
5722.03, 0.139974
5728.35, 0.139398
5734.69, 0.138631
5741.03, 0.137736
5747.4, 0.136904
5753.78, 0.136137
5760.17, 0.135114
5766.58, 0.133707
5773.0, 0.132940
5779.44, 0.132173
5785.88, 0.131085
5792.35, 0.130126
5798.83, 0.129231
5805.32, 0.128208
5811.83, 0.127057
5818.35, 0.125842
5824.89, 0.124755
5831.45, 0.124116
5838.01, 0.123540
5844.59, 0.122901
5851.19, 0.122261
5857.8, 0.121686
5864.43, 0.121174
5871.07, 0.120854
5877.73, 0.119959
5884.4, 0.119512
5891.09, 0.119576
5897.79, 0.119192
5904.5, 0.119320
5911.23, 0.119384
5917.98, 0.119000
5924.75, 0.118616
5931.53, 0.118105
5938.32, 0.117657
5945.13, 0.117913
5951.96, 0.117849
5958.8, 0.117657
5965.65, 0.117274
5972.53, 0.116954
5979.42, 0.116954
5986.32, 0.116698
5993.24, 0.116506
6000.18, 0.116570
6007.13, 0.116506
6014.1, 0.116186
6021.08, 0.115867
6028.09, 0.115675
6035.1, 0.115355
6042.14, 0.114716
6049.19, 0.113948
6056.25, 0.113821
6063.34, 0.113693
6070.44, 0.113053
6077.55, 0.112733
6084.69, 0.112606
6091.84, 0.112158
6099.0, 0.111646
6106.19, 0.111135
6113.39, 0.110368
6120.61, 0.110112
6127.84, 0.110048
6135.09, 0.109600
6142.36, 0.109025
6149.65, 0.108577
6156.95, 0.108002
6164.27, 0.107490
6171.61, 0.107234
6178.97, 0.106659
6186.34, 0.106019
6193.73, 0.105891
6201.14, 0.105764
6208.57, 0.105380
6216.01, 0.105060
6223.47, 0.104932
6230.95, 0.104868
6238.45, 0.104740
6245.97, 0.104613
6253.5, 0.104677
6261.06, 0.104804
6268.63, 0.104740
6276.21, 0.104804
6283.82, 0.104932
6291.45, 0.105188
6299.1, 0.105444
6306.76, 0.105700
6314.44, 0.106019
6322.14, 0.106403
6329.86, 0.106787
6337.6, 0.106979
6345.35, 0.107298
6353.13, 0.108193
6360.92, 0.108769
6368.74, 0.108961
6376.57, 0.109664
6384.43, 0.110559
6392.3, 0.111263
6400.19, 0.111838
6408.1, 0.112030
6416.03, 0.112222
6423.98, 0.113117
6431.95, 0.114012
6439.94, 0.114844
6447.95, 0.115675
6455.98, 0.116442
6464.03, 0.117018
6472.1, 0.117465
6480.19, 0.117785
6488.31, 0.118297
6496.44, 0.119064
6504.59, 0.120215
6512.76, 0.121046
6520.95, 0.121494
6529.16, 0.122261
6537.4, 0.123092
6545.65, 0.123540
6553.92, 0.123924
6562.22, 0.124435
6570.54, 0.124755
6578.88, 0.125330
6587.23, 0.125970
6595.61, 0.126545
6604.02, 0.127121
6612.44, 0.127377
6620.89, 0.127696
6629.35, 0.127760
6637.84, 0.127760
6646.35, 0.128528
6654.88, 0.129167
6663.44, 0.129359
6672.01, 0.129359
6680.61, 0.129487
6689.23, 0.129807
6697.88, 0.129998
6706.54, 0.129934
6715.23, 0.130062
6723.94, 0.130254
6732.67, 0.130382
6741.42, 0.130510
6750.2, 0.130510
6759.0, 0.130510
6767.82, 0.130254
6776.67, 0.129934
6785.54, 0.129423
6794.44, 0.129103
6803.35, 0.129231
6812.29, 0.129295
6821.26, 0.128975
6830.24, 0.128720
6839.25, 0.128656
6848.29, 0.128528
6857.35, 0.127952
6866.43, 0.127569
6875.54, 0.127888
6884.67, 0.127888
6893.82, 0.127569
6903.0, 0.127057
6912.2, 0.126737
6921.43, 0.126545
6930.69, 0.126290
6939.96, 0.125778
6949.27, 0.125267
6958.59, 0.124563
6967.95, 0.124116
6977.33, 0.123860
6986.73, 0.123348
6996.16, 0.122773
7005.61, 0.122389
7015.09, 0.122005
7024.6, 0.121622
7034.13, 0.121238
7043.69, 0.120535
7053.27, 0.120151
7062.88, 0.119959
7072.52, 0.119703
7082.18, 0.119384
7091.87, 0.119064
7101.58, 0.118872
7111.32, 0.118488
7121.09, 0.117977
7130.88, 0.117593
7140.71, 0.117146
7150.56, 0.116570
7160.43, 0.116059
7170.33, 0.115547
7180.27, 0.115227
7190.23, 0.114716
7200.21, 0.114076
7210.23, 0.113437
7220.27, 0.112861
7230.34, 0.112286
7240.44, 0.111583
7250.56, 0.110879
7260.72, 0.110112
7270.9, 0.109536
7281.12, 0.109025
7291.36, 0.108385
7301.63, 0.107810
7311.93, 0.107234
7322.25, 0.106531
7332.61, 0.105828
7343.0, 0.105252
7353.41, 0.104613
7363.86, 0.103909
7374.33, 0.103206
7384.83, 0.102439
7395.37, 0.101735
7405.93, 0.101032
7416.53, 0.100264
7427.15, 0.0996250
7437.81, 0.0989220
7448.5, 0.0983460
7459.22, 0.0976430
7469.96, 0.0967470
7480.74, 0.0959800
7491.55, 0.0952130
7502.39, 0.0943820
7513.27, 0.0937420
7524.17, 0.0930390
7535.11, 0.0921430
7546.08, 0.0912480
7557.08, 0.0905450
7568.11, 0.0899050
7579.17, 0.0892020
7590.27, 0.0884350
7601.4, 0.0876670
7612.56, 0.0870280
7623.76, 0.0865160
7634.98, 0.0859410
7646.24, 0.0853010
7657.54, 0.0846620
7668.87, 0.0840230
7680.23, 0.0833830
7691.62, 0.0828720
7703.05, 0.0823600
7714.51, 0.0817850
7726.01, 0.0812090
7737.54, 0.0806970
7749.11, 0.0800580
7760.71, 0.0794830
7772.35, 0.0788430
7784.02, 0.0781400
7795.72, 0.0774360
7807.46, 0.0767330
7819.23, 0.0759660
7831.04, 0.0751980
7842.89, 0.0744950
7854.77, 0.0738550
7866.69, 0.0732800
7878.65, 0.0726410
7890.64, 0.0718730
7902.67, 0.0711060
7914.74, 0.0702110
7926.84, 0.0694430
7938.98, 0.0684840
7951.16, 0.0675890
7963.37, 0.0668220
7975.62, 0.0659260
7987.91, 0.0648390
8000.24, 0.0638160
8012.6, 0.0628570
8025.01, 0.0618980
8037.45, 0.0609390
8049.93, 0.0599160
8062.45, 0.0589560
8075.01, 0.0581890
8087.61, 0.0571660
8100.24, 0.0560150
8112.91, 0.0550560
8125.63, 0.0541610
8138.39, 0.0532020
8151.18, 0.0520510
8164.02, 0.0509000
8176.9, 0.0498120
8189.81, 0.0486610
8202.77, 0.0474470
8215.77, 0.0463590
8228.82, 0.0453360
8241.9, 0.0442490
8255.02, 0.0430980
8268.19, 0.0418190
8281.39, 0.0406050
8294.65, 0.0394540
8307.94, 0.0383030
8321.28, 0.0371520
8334.66, 0.0358730
8348.08, 0.0345940
8361.54, 0.0334430
8375.05, 0.0322280
8388.6, 0.0309490
8402.2, 0.0296700
8415.84, 0.0285190
8429.52, 0.0273680
8443.25, 0.0261530
8457.02, 0.0250660
8470.84, 0.0239150
8484.7, 0.0227640
8498.61, 0.0218690
8512.57, 0.0208460
8526.57, 0.0196310
8540.62, 0.0185440
8554.71, 0.0175850
8568.85, 0.0166250
8583.04, 0.0157940
8597.27, 0.0149630
8611.55, 0.0143230
8625.88, 0.0134920
8640.26, 0.0126610
8654.68, 0.0118940
8669.16, 0.0113820
8683.68, 0.0109340
8698.25, 0.0103590
8712.87, 0.00984700
8727.53, 0.00965600
8742.25, 0.00952800
8757.02, 0.00933600
8771.83, 0.00920800
8786.7, 0.00920800
8801.62, 0.00940000
8816.59, 0.00965600
8831.61, 0.00991100
8846.68, 0.0104230
8861.8, 0.0109980
8876.97, 0.0117660
8892.2, 0.0128530
8907.48, 0.0140680
8922.81, 0.0155380
8938.2, 0.0172010
8953.63, 0.0190550
8969.13, 0.0214210
8984.67, 0.0241070
9000.27, 0.0272400
9015.92, 0.0306930
9031.63, 0.0345940
9047.39, 0.0390060
9063.21, 0.0440580
9079.08, 0.0495570
9095.01, 0.0554400
9111.0, 0.0615140
9127.04, 0.0678450
9143.13, 0.0743670
9159.28, 0.0810810
9175.49, 0.0875400
9191.76, 0.0937420
9208.09, 0.0999450
9224.47, 0.106595
9240.92, 0.114140
9257.42, 0.122517
9273.98, 0.131597
9290.6, 0.141828
9307.28, 0.152379
9324.02, 0.163058
9340.82, 0.173672
9357.68, 0.183264
9374.6, 0.190937
9391.58, 0.196628
9408.62, 0.200145
9425.73, 0.201232
9442.9, 0.200337
9460.13, 0.198483
9477.42, 0.195797
9494.78, 0.192792
9512.2, 0.190234
9529.69, 0.188188
9547.24, 0.187228
9564.86, 0.187037
9582.54, 0.187932
9600.28, 0.189658
9618.1, 0.192408
9635.97, 0.196308
9653.92, 0.201104
9671.93, 0.206220
9690.01, 0.211591
9708.16, 0.217218
9726.37, 0.222717
9744.65, 0.227897
9763.0, 0.232181
9781.43, 0.235059
9799.92, 0.236913
9818.48, 0.238384
9837.1, 0.239279
9855.8, 0.239727
9874.58, 0.240046
9893.42, 0.240046
9912.34, 0.239790
9931.33, 0.239151
9950.39, 0.238000
9969.52, 0.236529
9988.74, 0.234483
10008.0, 0.232181
10027.4, 0.229687
10046.8, 0.226426
10066.3, 0.222526
10085.9, 0.217858
10105.6, 0.212358
10125.3, 0.206156
10145.1, 0.199506
10165.0, 0.192600
10185.0, 0.185886
10205.0, 0.179299
10225.2, 0.173416
10245.4, 0.168365
10265.7, 0.163953
10286.0, 0.160116
10306.5, 0.156343
10327.0, 0.153210
10347.6, 0.150397
10368.3, 0.147135
10389.1, 0.143938
10409.9, 0.140933
10430.9, 0.137991
10451.9, 0.134922
10473.0, 0.132045
10494.2, 0.129615
10515.5, 0.127249
10536.9, 0.125011
10558.4, 0.122709
10579.9, 0.120215
10601.5, 0.117337
10623.3, 0.114140
10645.1, 0.110495
10667.0, 0.106851
10689.0, 0.103014
10711.1, 0.0993690
10733.2, 0.0959800
10755.5, 0.0927830
10777.9, 0.0893300
10800.3, 0.0860690
10822.9, 0.0835110
10845.5, 0.0813370
10868.2, 0.0790990
10891.1, 0.0769250
10914.0, 0.0750700
10937.0, 0.0733440
10960.2, 0.0718090
10983.4, 0.0700190
11006.7, 0.0682280
11030.1, 0.0669500
11053.6, 0.0657350
11077.3, 0.0645200
11101.0, 0.0634330
11124.8, 0.0622180
11148.7, 0.0610670
11172.7, 0.0601070
11196.9, 0.0590840
11221.1, 0.0579970
11245.4, 0.0571660
11269.9, 0.0563990
11294.4, 0.0553760
11319.1, 0.0542250
11343.9, 0.0532020
11368.8, 0.0522420
11393.7, 0.0511550
11418.8, 0.0503240
11444.0, 0.0496210
11469.4, 0.0487250
11494.8, 0.0475740
11520.3, 0.0470630
11546.0, 0.0465510
11571.8, 0.0454640
11597.7, 0.0444410
11623.7, 0.0436740
11649.8, 0.0429700
11676.0, 0.0421390
11702.4, 0.0408600
11728.9, 0.0397090
11755.5, 0.0386860
11782.2, 0.0372150
11809.0, 0.0361920
11836.0, 0.0349770
11863.0, 0.0336350
11890.3, 0.0322920
11917.6, 0.0308850
11945.0, 0.0296700
11972.6, 0.0288390
12000.4, 0.0281990
12028.2, 0.0276240
12056.2, 0.0274320
12084.3, 0.0275600
12112.5, 0.0277520
12140.9, 0.0283910
12169.4, 0.0290310
12198.0, 0.0292220
12226.8, 0.0292860
12255.7, 0.0297340
12284.7, 0.0300540
12313.9, 0.0298620
12343.2, 0.0297340
12372.7, 0.0297980
12402.3, 0.0298620
12432.0, 0.0297980
12461.9, 0.0296060
12491.9, 0.0297980
12522.1, 0.0301820
12552.4, 0.0303730
12582.9, 0.0305010
12613.5, 0.0311410
12644.3, 0.0320360
12675.2, 0.0329950
12706.3, 0.0340820
12737.5, 0.0351050
12768.9, 0.0361280
12800.4, 0.0377910
12832.1, 0.0404770
12863.9, 0.0421390
12895.9, 0.0435460
12928.1, 0.0455920
12960.4, 0.0476380
12992.9, 0.0494290
13025.5, 0.0510270
13058.3, 0.0525620
13091.3, 0.0538410
13124.4, 0.0546720
13157.8, 0.0556310
13191.2, 0.0565910
13224.9, 0.0568460
13258.7, 0.0565910
13292.7, 0.0562070
13326.9, 0.0552480
13361.2, 0.0541610
13395.7, 0.0528820
13430.4, 0.0513470
13465.3, 0.0496210
13500.4, 0.0485340
13535.7, 0.0472550
13571.1, 0.0459120
13606.7, 0.0448250
13642.5, 0.0439940
13678.5, 0.0426510
13714.7, 0.0415640
13751.1, 0.0407320
13787.6, 0.0401570
13824.4, 0.0397730
13861.4, 0.0397090
13898.5, 0.0397730
13935.9, 0.0391980
13973.5, 0.0384940
14011.2, 0.0380470
14049.2, 0.0374710
14087.4, 0.0374070
14125.8, 0.0374070
14164.3, 0.0368320
14203.2, 0.0361920
14242.2, 0.0360010
14281.4, 0.0360640
14320.9, 0.0364480
14360.5, 0.0368320
14400.4, 0.0374710
14440.5, 0.0383660
14480.9, 0.0399650
14521.4, 0.0417560
14562.2, 0.0436100
14603.3, 0.0460400
14644.5, 0.0489170
14686.0, 0.0511550
14727.7, 0.0528820
14769.7, 0.0546080
14811.9, 0.0564630
14854.3, 0.0575500
14897.0, 0.0583170
14939.9, 0.0585730
14983.1, 0.0592760
15026.5, 0.0599800
15070.2, 0.0602350
15114.2, 0.0602990
15158.3, 0.0598520
15202.8, 0.0592120
15247.5, 0.0589560
15292.5, 0.0589560
15337.7, 0.0587650
15383.2, 0.0579330
15429.0, 0.0568460
15475.1, 0.0560790
15521.4, 0.0555040
15568.0, 0.0547360
15614.9, 0.0539050
15662.1, 0.0525620
15709.6, 0.0509630
15757.3, 0.0491730
15805.4, 0.0479580
15853.7, 0.0467430
15902.3, 0.0456560
15951.2, 0.0443770
16000.5, 0.0427790
16050.0, 0.0411800
16099.8, 0.0401570
16150.0, 0.0392620
16200.5, 0.0377270
16251.3, 0.0358090
16302.4, 0.0346580
16353.8, 0.0333150
16405.5, 0.0316520
16457.6, 0.0309490
16510.0, 0.0294140
16562.8, 0.0274320
16615.9, 0.0260250
16669.3, 0.0247460
16723.1, 0.0232760
16777.2, 0.0217410
16831.7, 0.0203980
16886.5, 0.0189910
16941.7, 0.0179680
16997.2, 0.0171370
17053.1, 0.0164980
17109.4, 0.0161140
17166.1, 0.0159860
17223.1, 0.0161780
17280.5, 0.0173930
17338.3, 0.0195030
17396.5, 0.0222530
17455.1, 0.0251300
17514.0, 0.0290310
17573.4, 0.0344020
17633.2, 0.0408600
17693.4, 0.0481500
17754.0, 0.0567180
17815.0, 0.0653510
17876.4, 0.0736000
17938.3, 0.0810170
18000.5, 0.0857490
18063.3, 0.0874760
18126.4, 0.0856850
18190.0, 0.0812090
18254.1, 0.0763490
18318.6, 0.0721930
18383.5, 0.0694430
18449.0, 0.0675250
18514.9, 0.0670130
18581.2, 0.0681000
18648.0, 0.0700830
18715.4, 0.0736640
18783.2, 0.0794190
18851.5, 0.0862610
18920.3, 0.0939980
18989.6, 0.104421
19059.4, 0.116250
19129.7, 0.128656
19200.6, 0.142531
19272.0, 0.157558
19343.9, 0.170475
19416.3, 0.180898
19489.3, 0.189594
19562.8, 0.197587
19637.0, 0.204493
19711.6, 0.210312
19786.8, 0.215044
19862.6, 0.219840
19939.0, 0.224891
20016.0, 0.230263
20093.6, 0.234931
20171.8, 0.239087
20250.6, 0.243819
20330.0, 0.247592
20410.0, 0.251428
20490.7, 0.256032
20572.0, 0.260061
20654.0, 0.262682
20736.6, 0.265240
20819.9, 0.269716
20903.8, 0.273297
20988.5, 0.275535
21073.8, 0.278732
21159.8, 0.280843
21246.5, 0.282121
21334.0, 0.283528
21422.1, 0.283336
21511.0, 0.280779
21600.7, 0.274896
21691.0, 0.267926
21782.1, 0.260253
21874.0, 0.251684
21966.7, 0.244970
22060.2, 0.238895
22154.5, 0.231861
22249.6, 0.224444
22345.5, 0.221502
22442.2, 0.221950
22539.8, 0.222973
22638.2, 0.223996
22737.5, 0.223549
22837.7, 0.224764
22938.7, 0.229304
23040.7, 0.232948
23143.5, 0.230646
23247.3, 0.222909
23352.1, 0.213190
23457.7, 0.200017
23564.4, 0.186013
23672.0, 0.174887
23780.5, 0.165487
23890.1, 0.156791
24000.7, 0.152890
24112.3, 0.150524
24225.0, 0.145281
24338.7, 0.142659
24453.5, 0.139910
24569.4, 0.135625
24686.4, 0.132428
24804.5, 0.132812
24923.8, 0.131917
