Database of Origin, USGS Spectral Database
Sample Description, See USGS database for additional info
Date Added,2016-08-10 05:24:33.830565

Data ID,USGS_phl08          
Sample ID, phlogopite_ws675.17799
Mineral Name, phlogopite
Material Class,Phyllosilicate

Wavelength
1607.49, 0.560719
1607.99, 0.561760
1608.49, 0.561883
1608.99, 0.562067
1609.49, 0.561515
1609.99, 0.562128
1610.49, 0.562496
1610.99, 0.562802
1611.49, 0.563293
1611.99, 0.563905
1612.49, 0.563967
1612.99, 0.564763
1613.49, 0.564763
1614.0, 0.565131
1614.5, 0.565499
1615.0, 0.565989
1615.51, 0.566418
1616.01, 0.566847
1616.51, 0.566847
1617.02, 0.567399
1617.52, 0.567399
1618.03, 0.568318
1618.53, 0.568257
1619.04, 0.568686
1619.54, 0.568563
1620.05, 0.569421
1620.55, 0.569973
1621.06, 0.570647
1621.57, 0.570892
1622.08, 0.571076
1622.58, 0.570647
1623.09, 0.571076
1623.6, 0.571444
1624.11, 0.572302
1624.62, 0.571995
1625.13, 0.572363
1625.64, 0.572670
1626.15, 0.573466
1626.66, 0.573650
1627.17, 0.573773
1627.68, 0.573466
1628.19, 0.574508
1628.7, 0.574876
1629.21, 0.575305
1629.72, 0.575550
1630.24, 0.576224
1630.75, 0.576286
1631.26, 0.576715
1631.78, 0.576715
1632.29, 0.577082
1632.8, 0.577205
1633.32, 0.578124
1633.83, 0.578002
1634.35, 0.578124
1634.86, 0.578002
1635.38, 0.578614
1635.9, 0.578676
1636.41, 0.579350
1636.93, 0.579718
1637.45, 0.580085
1637.96, 0.580330
1638.48, 0.580453
1639.0, 0.580882
1639.52, 0.581434
1640.04, 0.581311
1640.56, 0.581434
1641.08, 0.581495
1641.59, 0.582598
1642.11, 0.583211
1642.63, 0.583579
1643.16, 0.583395
1643.68, 0.583456
1644.2, 0.583701
1644.72, 0.584253
1645.24, 0.584069
1645.76, 0.584437
1646.29, 0.584682
1646.81, 0.585295
1647.33, 0.584927
1647.86, 0.585111
1648.38, 0.585724
1648.9, 0.586520
1649.43, 0.586582
1649.95, 0.587011
1650.48, 0.587256
1651.0, 0.587930
1651.53, 0.587869
1652.06, 0.588359
1652.58, 0.588543
1653.11, 0.589033
1653.64, 0.589156
1654.17, 0.589769
1654.69, 0.589953
1655.22, 0.590075
1655.75, 0.589953
1656.28, 0.590198
1656.81, 0.590382
1657.34, 0.590811
1657.87, 0.590872
1658.4, 0.591485
1658.93, 0.591669
1659.46, 0.592465
1659.99, 0.592465
1660.52, 0.592588
1661.05, 0.592588
1661.59, 0.593262
1662.12, 0.593630
1662.65, 0.593998
1663.19, 0.594181
1663.72, 0.594794
1664.26, 0.594427
1664.79, 0.594733
1665.32, 0.595223
1665.86, 0.595652
1666.39, 0.595530
1666.93, 0.595897
1667.47, 0.595836
1668.0, 0.596143
1668.54, 0.596694
1669.08, 0.597185
1669.61, 0.597368
1670.15, 0.597736
1670.69, 0.597675
1671.23, 0.598349
1671.77, 0.598901
1672.31, 0.599268
1672.85, 0.598778
1673.39, 0.598962
1673.93, 0.599330
1674.47, 0.599820
1675.01, 0.599697
1675.55, 0.600249
1676.09, 0.600249
1676.64, 0.600555
1677.18, 0.601046
1677.72, 0.601781
1678.26, 0.601597
1678.81, 0.601965
1679.35, 0.601904
1679.89, 0.602394
1680.44, 0.602394
1680.98, 0.603007
1681.53, 0.603313
1682.07, 0.603804
1682.62, 0.603742
1683.17, 0.603865
1683.71, 0.603926
1684.26, 0.604723
1684.81, 0.604600
1685.36, 0.604907
1685.9, 0.605029
1686.45, 0.605520
1687.0, 0.605397
1687.55, 0.605949
1688.1, 0.606133
1688.65, 0.606745
1689.2, 0.606745
1689.75, 0.607052
1690.3, 0.606991
1690.85, 0.607174
1691.41, 0.607297
1691.96, 0.607849
1692.51, 0.608094
1693.06, 0.608584
1693.61, 0.608707
1694.17, 0.608829
1694.72, 0.608890
1695.28, 0.609136
1695.83, 0.609197
1696.39, 0.609565
1696.94, 0.609442
1697.5, 0.610177
1698.05, 0.609994
1698.61, 0.610177
1699.17, 0.610361
1699.72, 0.610668
1700.28, 0.610606
1700.84, 0.610852
1701.4, 0.610852
1701.95, 0.611648
1702.51, 0.611832
1703.07, 0.612016
1703.63, 0.611648
1704.19, 0.612261
1704.75, 0.612261
1705.31, 0.612690
1705.88, 0.612935
1706.44, 0.613364
1707.0, 0.613487
1707.56, 0.613855
1708.12, 0.614100
1708.69, 0.614284
1709.25, 0.614284
1709.81, 0.614774
1710.38, 0.614590
1710.94, 0.615019
1711.51, 0.615448
1712.07, 0.615693
1712.64, 0.615448
1713.2, 0.615693
1713.77, 0.615755
1714.34, 0.616122
1714.9, 0.615877
1715.47, 0.616245
1716.04, 0.616490
1716.61, 0.617103
1717.18, 0.616919
1717.74, 0.616980
1718.31, 0.616919
1718.88, 0.617409
1719.45, 0.617532
1720.02, 0.617838
1720.59, 0.617961
1721.17, 0.618513
1721.74, 0.618267
1722.31, 0.618574
1722.88, 0.619125
1723.45, 0.619493
1724.03, 0.619493
1724.6, 0.619861
1725.18, 0.619922
1725.75, 0.620351
1726.33, 0.620167
1726.9, 0.620596
1727.48, 0.620719
1728.05, 0.620842
1728.63, 0.620903
1729.2, 0.621209
1729.78, 0.621148
1730.36, 0.621516
1730.94, 0.621761
1731.51, 0.622190
1732.09, 0.622251
1732.67, 0.622680
1733.25, 0.622374
1733.83, 0.622987
1734.41, 0.622741
1734.99, 0.622680
1735.57, 0.623416
1736.15, 0.624212
1736.73, 0.624028
1737.32, 0.624212
1737.9, 0.624396
1738.48, 0.624764
1739.07, 0.624457
1739.65, 0.625070
1740.23, 0.625499
1740.82, 0.625622
1741.4, 0.625438
1741.99, 0.625867
1742.57, 0.626235
1743.16, 0.626480
1743.74, 0.626419
1744.33, 0.626848
1744.92, 0.626848
1745.51, 0.627399
1746.09, 0.627399
1746.68, 0.627767
1747.27, 0.627767
1747.86, 0.627583
1748.45, 0.627644
1749.04, 0.628502
1749.63, 0.628625
1750.22, 0.628502
1750.81, 0.628564
1751.4, 0.628993
1751.99, 0.628993
1752.59, 0.629789
1753.18, 0.629851
1753.77, 0.629667
1754.37, 0.629789
1754.96, 0.630218
1755.56, 0.630586
1756.15, 0.631260
1756.74, 0.631322
1757.34, 0.631505
1757.94, 0.631751
1758.53, 0.632118
1759.13, 0.632057
1759.73, 0.632425
1760.32, 0.632425
1760.92, 0.632670
1761.52, 0.632793
1762.12, 0.632976
1762.72, 0.633099
1763.32, 0.633528
1763.92, 0.633589
1764.52, 0.633344
1765.12, 0.633222
1765.72, 0.633712
1766.32, 0.633834
1766.92, 0.634202
1767.53, 0.634447
1768.13, 0.634570
1768.73, 0.634447
1769.34, 0.634692
1769.94, 0.634876
1770.55, 0.634938
1771.15, 0.634876
1771.76, 0.635428
1772.36, 0.635612
1772.97, 0.635796
1773.57, 0.635796
1774.18, 0.636654
1774.79, 0.636592
1775.4, 0.636531
1776.0, 0.636470
1776.61, 0.636776
1777.22, 0.636837
1777.83, 0.637021
1778.44, 0.637083
1779.05, 0.637573
1779.66, 0.637512
1780.27, 0.637695
1780.88, 0.637573
1781.5, 0.637695
1782.11, 0.637818
1782.72, 0.638247
1783.33, 0.638247
1783.95, 0.638308
1784.56, 0.638370
1785.18, 0.638676
1785.79, 0.638615
1786.41, 0.639044
1787.02, 0.639166
1787.64, 0.639657
1788.26, 0.639595
1788.87, 0.639718
1789.49, 0.639534
1790.11, 0.639841
1790.73, 0.639779
1791.35, 0.640392
1791.96, 0.640453
1792.58, 0.640515
1793.21, 0.640331
1793.83, 0.640515
1794.45, 0.640637
1795.07, 0.640944
1795.69, 0.641128
1796.31, 0.641373
1796.93, 0.641373
1797.56, 0.641802
1798.18, 0.641986
1798.8, 0.642231
1799.43, 0.642108
1800.05, 0.642476
1800.68, 0.642537
1801.3, 0.642844
1801.93, 0.642782
1802.56, 0.643150
1803.18, 0.643150
1803.81, 0.643457
1804.44, 0.643518
1805.07, 0.643824
1805.7, 0.643947
1806.33, 0.644192
1806.95, 0.644315
1807.58, 0.644866
1808.22, 0.644560
1808.85, 0.644682
1809.48, 0.644744
1810.11, 0.645050
1810.74, 0.645234
1811.38, 0.645356
1812.01, 0.645234
1812.64, 0.645356
1813.28, 0.645724
1813.91, 0.646031
1814.55, 0.646092
1815.18, 0.646398
1815.82, 0.646643
1816.45, 0.646950
1817.09, 0.646766
1817.73, 0.647318
1818.36, 0.647502
1819.0, 0.647563
1819.64, 0.647502
1820.28, 0.648237
1820.92, 0.648237
1821.56, 0.648421
1822.2, 0.648543
1822.84, 0.648727
1823.48, 0.648666
1824.12, 0.648482
1824.76, 0.648666
1825.41, 0.649401
1826.05, 0.649769
1826.69, 0.649892
1827.34, 0.649647
1827.98, 0.649769
1828.63, 0.649769
1829.27, 0.649953
1829.92, 0.650014
1830.56, 0.650688
1831.21, 0.650688
1831.86, 0.650934
1832.5, 0.650811
1833.15, 0.651301
1833.8, 0.651363
1834.45, 0.651608
1835.1, 0.651730
1835.75, 0.651914
1836.4, 0.652221
1837.05, 0.652650
1837.7, 0.652711
1838.35, 0.652466
1839.01, 0.652221
1839.66, 0.653140
1840.31, 0.653262
1840.96, 0.653201
1841.62, 0.653446
1842.27, 0.653937
1842.93, 0.653508
1843.58, 0.653508
1844.24, 0.653508
1844.9, 0.653569
1845.55, 0.653814
1846.21, 0.654304
1846.87, 0.654611
1847.53, 0.654979
1848.18, 0.655040
1848.84, 0.655101
1849.5, 0.654979
1850.16, 0.655101
1850.82, 0.654979
1851.48, 0.655224
1852.14, 0.655101
1852.81, 0.655346
1853.47, 0.655469
1854.13, 0.655837
1854.8, 0.655714
1855.46, 0.655591
1856.12, 0.655591
1856.79, 0.656082
1857.45, 0.656020
1858.12, 0.656082
1858.79, 0.655959
1859.45, 0.656695
1860.12, 0.656511
1860.79, 0.656388
1861.46, 0.656388
1862.12, 0.656572
1862.79, 0.656511
1863.46, 0.656817
1864.13, 0.656695
1864.8, 0.656878
1865.48, 0.656756
1866.15, 0.657001
1866.82, 0.657124
1867.49, 0.657553
1868.16, 0.657430
1868.84, 0.657124
1869.51, 0.656940
1870.19, 0.657491
1870.86, 0.657736
1871.54, 0.657369
1872.21, 0.656878
1872.89, 0.657614
1873.56, 0.657369
1874.24, 0.657185
1874.92, 0.656878
1875.6, 0.657001
1876.28, 0.656756
1876.96, 0.656756
1877.64, 0.656327
1878.32, 0.656266
1879.0, 0.655959
1879.68, 0.656143
1880.36, 0.656082
1881.04, 0.656082
1881.73, 0.656082
1882.41, 0.656204
1883.09, 0.656143
1883.78, 0.656511
1884.46, 0.656817
1885.15, 0.656695
1885.83, 0.656449
1886.52, 0.656756
1887.21, 0.656633
1887.89, 0.656695
1888.58, 0.656695
1889.27, 0.656756
1889.96, 0.657001
1890.65, 0.657062
1891.34, 0.656572
1892.03, 0.656633
1892.72, 0.656266
1893.41, 0.656327
1894.1, 0.656143
1894.79, 0.655959
1895.49, 0.655775
1896.18, 0.655837
1896.87, 0.655530
1897.57, 0.655408
1898.26, 0.655224
1898.96, 0.655530
1899.65, 0.655653
1900.35, 0.655530
1901.05, 0.655040
1901.74, 0.654733
1902.44, 0.654611
1903.14, 0.654611
1903.84, 0.654243
1904.54, 0.654488
1905.24, 0.654733
1905.94, 0.654672
1906.64, 0.654488
1907.34, 0.654366
1908.04, 0.654059
1908.75, 0.654059
1909.45, 0.653937
1910.15, 0.654059
1910.86, 0.653753
1911.56, 0.654121
1912.27, 0.654243
1912.97, 0.654488
1913.68, 0.654672
1914.39, 0.654611
1915.09, 0.654182
1915.8, 0.654427
1916.51, 0.654366
1917.22, 0.654550
1917.93, 0.654672
1918.64, 0.654979
1919.35, 0.655285
1920.06, 0.655714
1920.77, 0.655837
1921.48, 0.655898
1922.19, 0.655714
1922.91, 0.656082
1923.62, 0.656266
1924.33, 0.656633
1925.05, 0.656695
1925.76, 0.656817
1926.48, 0.656572
1927.19, 0.657124
1927.91, 0.657491
1928.63, 0.657859
1929.35, 0.657736
1930.07, 0.657920
1930.78, 0.658165
1931.5, 0.658717
1932.22, 0.658840
1932.94, 0.658962
1933.66, 0.658901
1934.39, 0.659146
1935.11, 0.659330
1935.83, 0.659698
1936.55, 0.659820
1937.28, 0.660065
1938.0, 0.659943
1938.73, 0.660311
1939.45, 0.660433
1940.18, 0.660617
1940.9, 0.660556
1941.63, 0.660862
1942.36, 0.661046
1943.09, 0.661291
1943.81, 0.661475
1944.54, 0.661659
1945.27, 0.661781
1946.0, 0.661904
1946.73, 0.661781
1947.47, 0.662272
1948.2, 0.662456
1948.93, 0.662456
1949.66, 0.662517
1950.4, 0.663007
1951.13, 0.662946
1951.86, 0.663130
1952.6, 0.663314
1953.34, 0.663620
1954.07, 0.663743
1954.81, 0.664110
1955.55, 0.663988
1956.29, 0.663988
1957.02, 0.663927
1957.76, 0.664049
1958.5, 0.664233
1959.24, 0.664723
1959.98, 0.664907
1960.72, 0.665214
1961.47, 0.665091
1962.21, 0.665091
1962.95, 0.665030
1963.7, 0.665397
1964.44, 0.665336
1965.18, 0.665765
1965.93, 0.665765
1966.67, 0.666072
1967.42, 0.665826
1968.17, 0.665888
1968.92, 0.666072
1969.66, 0.666255
1970.41, 0.666562
1971.16, 0.666930
1971.91, 0.666807
1972.66, 0.666930
1973.41, 0.666991
1974.16, 0.667359
1974.92, 0.667420
1975.67, 0.667543
1976.42, 0.667236
1977.18, 0.667481
1977.93, 0.667726
1978.69, 0.668217
1979.44, 0.668278
1980.2, 0.668155
1980.95, 0.668278
1981.71, 0.668646
1982.47, 0.668830
1983.23, 0.669136
1983.99, 0.669136
1984.74, 0.669381
1985.51, 0.669259
1986.27, 0.669381
1987.03, 0.669565
1987.79, 0.669871
1988.55, 0.669871
1989.32, 0.670239
1990.08, 0.670362
1990.84, 0.670546
1991.61, 0.670484
1992.37, 0.670913
1993.14, 0.671036
1993.9, 0.671404
1994.67, 0.671342
1995.44, 0.671465
1996.21, 0.671710
1996.98, 0.672200
1997.75, 0.672017
1998.52, 0.672384
1999.29, 0.672507
2000.06, 0.672629
2000.83, 0.672445
2001.6, 0.672813
2002.38, 0.673058
2003.15, 0.673303
2003.93, 0.673181
2004.7, 0.673242
2005.48, 0.673365
2006.25, 0.673794
2007.03, 0.673549
2007.81, 0.673794
2008.58, 0.674100
2009.36, 0.674529
2010.14, 0.674591
2010.92, 0.674836
2011.7, 0.674897
2012.48, 0.675081
2013.26, 0.674897
2014.05, 0.675020
2014.83, 0.675265
2015.61, 0.675694
2016.4, 0.675878
2017.18, 0.676061
2017.97, 0.676000
2018.75, 0.676123
2019.54, 0.676000
2020.32, 0.676245
2021.11, 0.676123
2021.9, 0.676184
2022.69, 0.676184
2023.48, 0.676245
2024.27, 0.676307
2025.06, 0.676613
2025.85, 0.676858
2026.64, 0.676919
2027.44, 0.676919
2028.23, 0.677348
2029.02, 0.677226
2029.82, 0.677348
2030.61, 0.677287
2031.41, 0.677287
2032.2, 0.677287
2033.0, 0.677532
2033.8, 0.677716
2034.6, 0.677839
2035.4, 0.677655
2036.2, 0.677839
2037.0, 0.677716
2037.8, 0.677900
2038.6, 0.677900
2039.4, 0.678206
2040.2, 0.678145
2041.01, 0.678329
2041.81, 0.678452
2042.61, 0.678635
2043.42, 0.678635
2044.22, 0.678881
2045.03, 0.678513
2045.84, 0.678513
2046.65, 0.678452
2047.46, 0.678635
2048.26, 0.678574
2049.07, 0.678758
2049.88, 0.678819
2050.69, 0.678942
2051.51, 0.678819
2052.32, 0.679065
2053.13, 0.679065
2053.94, 0.679003
2054.76, 0.678881
2055.57, 0.679065
2056.39, 0.679126
2057.2, 0.679187
2058.02, 0.679187
2058.84, 0.679310
2059.66, 0.679003
2060.48, 0.679003
2061.29, 0.679371
2062.11, 0.679616
2062.94, 0.679248
2063.76, 0.679126
2064.58, 0.679126
2065.4, 0.679126
2066.22, 0.679065
2067.05, 0.678881
2067.87, 0.678574
2068.7, 0.678635
2069.52, 0.678268
2070.35, 0.678268
2071.18, 0.677900
2072.0, 0.677839
2072.83, 0.677348
2073.66, 0.677165
2074.49, 0.676797
2075.32, 0.676490
2076.15, 0.675939
2076.98, 0.675632
2077.82, 0.675142
2078.65, 0.675142
2079.48, 0.674958
2080.32, 0.674897
2081.15, 0.674468
2081.99, 0.674223
2082.83, 0.673978
2083.66, 0.674223
2084.5, 0.674039
2085.34, 0.674284
2086.18, 0.674468
2087.02, 0.674468
2087.86, 0.674407
2088.7, 0.674591
2089.54, 0.674713
2090.39, 0.674652
2091.23, 0.674529
2092.07, 0.674897
2092.92, 0.674774
2093.76, 0.675020
2094.61, 0.675203
2095.45, 0.675449
2096.3, 0.675387
2097.15, 0.675571
2098.0, 0.675694
2098.85, 0.675755
2099.7, 0.675816
2100.55, 0.676245
2101.4, 0.676184
2102.25, 0.676245
2103.1, 0.676245
2103.96, 0.676307
2104.81, 0.676552
2105.67, 0.676919
2106.52, 0.677042
2107.38, 0.677287
2108.24, 0.677348
2109.09, 0.677287
2109.95, 0.677226
2110.81, 0.677716
2111.67, 0.677961
2112.53, 0.677961
2113.39, 0.677716
2114.25, 0.677900
2115.12, 0.677778
2115.98, 0.677839
2116.84, 0.677839
2117.71, 0.678206
2118.58, 0.678329
2119.44, 0.678452
2120.31, 0.678513
2121.18, 0.678942
2122.04, 0.679187
2122.91, 0.679432
2123.78, 0.679248
2124.65, 0.679494
2125.52, 0.679616
2126.4, 0.679861
2127.27, 0.680045
2128.14, 0.680352
2129.02, 0.680597
2129.89, 0.680781
2130.77, 0.680842
2131.64, 0.681332
2132.52, 0.681271
2133.4, 0.681332
2134.27, 0.681271
2135.15, 0.681577
2136.03, 0.681577
2136.91, 0.681884
2137.79, 0.681945
2138.68, 0.682190
2139.56, 0.682251
2140.44, 0.682435
2141.33, 0.682558
2142.21, 0.682803
2143.1, 0.682926
2143.99, 0.682864
2144.87, 0.682987
2145.76, 0.683538
2146.65, 0.683477
2147.54, 0.683538
2148.43, 0.683477
2149.32, 0.683661
2150.21, 0.683355
2151.1, 0.683538
2151.99, 0.683355
2152.89, 0.683538
2153.78, 0.683600
2154.68, 0.683784
2155.57, 0.683722
2156.47, 0.683845
2157.37, 0.683845
2158.27, 0.683845
2159.16, 0.683722
2160.06, 0.683906
2160.96, 0.683784
2161.86, 0.683845
2162.77, 0.684029
2163.67, 0.684335
2164.57, 0.684335
2165.48, 0.684335
2166.38, 0.684213
2167.29, 0.684519
2168.2, 0.684274
2169.1, 0.684458
2170.01, 0.684642
2170.92, 0.684764
2171.83, 0.684764
2172.74, 0.684826
2173.65, 0.684642
2174.56, 0.684887
2175.47, 0.684764
2176.39, 0.684642
2177.3, 0.684642
2178.22, 0.684887
2179.13, 0.684826
2180.05, 0.684826
2180.96, 0.684826
2181.88, 0.684826
2182.8, 0.684580
2183.72, 0.684642
2184.64, 0.684458
2185.56, 0.684703
2186.48, 0.684642
2187.41, 0.684642
2188.33, 0.684519
2189.25, 0.684458
2190.18, 0.684458
2191.1, 0.684396
2192.03, 0.684213
2192.96, 0.684335
2193.89, 0.684213
2194.82, 0.684151
2195.74, 0.683661
2196.68, 0.683722
2197.61, 0.683784
2198.54, 0.683906
2199.47, 0.683784
2200.4, 0.683845
2201.34, 0.683722
2202.28, 0.683784
2203.21, 0.683661
2204.15, 0.683661
2205.08, 0.683416
2206.02, 0.683293
2206.96, 0.682987
2207.9, 0.682926
2208.84, 0.682926
2209.78, 0.682864
2210.73, 0.682680
2211.67, 0.682803
2212.61, 0.682803
2213.56, 0.683048
2214.5, 0.682987
2215.45, 0.682926
2216.4, 0.682742
2217.35, 0.682864
2218.3, 0.682926
2219.24, 0.682926
2220.2, 0.682803
2221.15, 0.682803
2222.1, 0.682374
2223.05, 0.682190
2224.0, 0.681822
2224.96, 0.681761
2225.91, 0.681332
2226.87, 0.681026
2227.83, 0.680474
2228.79, 0.679984
2229.74, 0.679187
2230.7, 0.678574
2231.66, 0.677839
2232.63, 0.677165
2233.59, 0.675939
2234.55, 0.674774
2235.51, 0.673426
2236.48, 0.672078
2237.44, 0.670300
2238.41, 0.668707
2239.38, 0.666746
2240.34, 0.664968
2241.31, 0.663252
2242.28, 0.661781
2243.25, 0.660127
2244.22, 0.659207
2245.19, 0.658288
2246.17, 0.657859
2247.14, 0.657614
2248.12, 0.657859
2249.09, 0.658165
2250.07, 0.659024
2251.04, 0.659698
2252.02, 0.660617
2253.0, 0.661598
2253.98, 0.662639
2254.96, 0.663375
2255.94, 0.664294
2256.92, 0.665091
2257.91, 0.666194
2258.89, 0.666868
2259.88, 0.667604
2260.86, 0.667910
2261.85, 0.668339
2262.83, 0.668278
2263.82, 0.668584
2264.81, 0.668768
2265.8, 0.668646
2266.79, 0.668220
2267.78, 0.667635
2268.78, 0.666944
2269.77, 0.666518
2270.76, 0.665773
2271.76, 0.665295
2272.75, 0.664444
2273.75, 0.663646
2274.75, 0.662795
2275.75, 0.662103
2276.75, 0.660933
2277.75, 0.659657
2278.75, 0.658274
2279.75, 0.657210
2280.75, 0.655667
2281.76, 0.653912
2282.76, 0.652157
2283.77, 0.650295
2284.77, 0.647742
2285.78, 0.645508
2286.79, 0.643487
2287.8, 0.641413
2288.81, 0.639179
2289.82, 0.637370
2290.83, 0.635615
2291.84, 0.633434
2292.86, 0.631519
2293.87, 0.630136
2294.89, 0.628434
2295.91, 0.626307
2296.92, 0.624498
2297.94, 0.622796
2298.96, 0.620828
2299.98, 0.618541
2301.0, 0.616041
2302.02, 0.613594
2303.04, 0.611095
2304.07, 0.608754
2305.09, 0.606148
2306.12, 0.603808
2307.15, 0.600776
2308.17, 0.597850
2309.2, 0.595085
2310.23, 0.591946
2311.26, 0.588968
2312.29, 0.586308
2313.32, 0.583489
2314.35, 0.580670
2315.39, 0.578064
2316.42, 0.575777
2317.46, 0.573968
2318.5, 0.572266
2319.53, 0.570617
2320.57, 0.569075
2321.61, 0.567532
2322.65, 0.566362
2323.69, 0.565618
2324.73, 0.565139
2325.78, 0.564554
2326.82, 0.564767
2327.86, 0.565830
2328.91, 0.567479
2329.96, 0.569181
2331.01, 0.571947
2332.05, 0.575138
2333.1, 0.578596
2334.15, 0.581947
2335.21, 0.585829
2336.26, 0.589659
2337.31, 0.592904
2338.36, 0.595829
2339.42, 0.598701
2340.48, 0.601255
2341.53, 0.603648
2342.59, 0.605616
2343.65, 0.607744
2344.71, 0.609605
2345.77, 0.611254
2346.83, 0.612371
2347.9, 0.613222
2348.96, 0.614126
2350.02, 0.614924
2351.09, 0.615297
2352.16, 0.615722
2353.23, 0.615828
2354.29, 0.615828
2355.36, 0.615350
2356.43, 0.615137
2357.51, 0.614658
2358.58, 0.614339
2359.65, 0.613754
2360.73, 0.612956
2361.8, 0.611999
2362.88, 0.611041
2363.96, 0.609871
2365.03, 0.608222
2366.11, 0.606573
2367.19, 0.604712
2368.27, 0.602584
2369.36, 0.600935
2370.44, 0.598861
2371.53, 0.596521
2372.61, 0.593755
2373.7, 0.591468
2374.78, 0.589021
2375.87, 0.587000
2376.96, 0.584766
2378.05, 0.583170
2379.14, 0.581787
2380.24, 0.580723
2381.33, 0.580298
2382.42, 0.580564
2383.52, 0.581415
2384.61, 0.582904
2385.71, 0.584553
2386.81, 0.587053
2387.91, 0.589659
2389.01, 0.592744
2390.11, 0.595723
2391.22, 0.598648
2392.32, 0.601255
2393.42, 0.603808
2394.53, 0.606201
2395.64, 0.608329
2396.74, 0.609871
2397.85, 0.611573
2398.96, 0.612637
2400.07, 0.613648
2401.18, 0.614605
2402.3, 0.615456
2403.41, 0.615988
2404.52, 0.616573
2405.64, 0.616892
2406.76, 0.617424
2407.88, 0.617850
2408.99, 0.618328
2410.11, 0.618701
2411.23, 0.619233
2412.36, 0.619977
2413.48, 0.621307
2414.6, 0.621839
2415.73, 0.622264
2416.85, 0.622743
2417.98, 0.623115
2419.11, 0.623541
2420.24, 0.623913
2421.37, 0.624020
2422.5, 0.623807
2423.64, 0.623435
2424.77, 0.623328
2425.9, 0.622903
2427.04, 0.622530
2428.18, 0.621573
2429.31, 0.620669
2430.45, 0.619764
2431.59, 0.619126
2432.73, 0.618382
2433.88, 0.617690
2435.02, 0.616786
2436.16, 0.615828
2437.31, 0.614924
2438.45, 0.614499
2439.6, 0.613860
2440.75, 0.613807
2441.9, 0.613860
2443.05, 0.613914
2444.2, 0.613860
2445.35, 0.614339
2446.51, 0.614765
2447.67, 0.615243
2448.82, 0.615775
2449.98, 0.616467
2451.14, 0.616626
2452.3, 0.617318
2453.46, 0.618009
2454.62, 0.618967
2455.78, 0.619977
2456.94, 0.620881
2458.11, 0.621679
2459.28, 0.622530
2460.44, 0.623009
2461.61, 0.623647
2462.78, 0.624020
2463.95, 0.624658
2465.12, 0.625083
2466.3, 0.625349
2467.47, 0.625349
2468.65, 0.625669
2469.82, 0.625775
2471.0, 0.626200
2472.18, 0.626307
2473.36, 0.626200
2474.54, 0.626200
2475.72, 0.626520
2476.9, 0.626520
2478.08, 0.626573
2479.27, 0.626786
2480.46, 0.627105
2481.64, 0.627051
2482.83, 0.627371
2484.02, 0.627636
2485.21, 0.627636
2486.4, 0.627530
2487.6, 0.627583
2488.79, 0.627477
2489.99, 0.627583
2491.18, 0.627477
2492.38, 0.627371
2493.58, 0.627158
2494.78, 0.626466
2495.98, 0.626094
2497.18, 0.625934
2498.39, 0.625403
2499.59, 0.625243
2500.8, 0.624977
2502.01, 0.625137
2503.21, 0.624924
2504.42, 0.624871
2505.63, 0.625083
2506.84, 0.625403
2508.06, 0.625403
2509.27, 0.625775
2510.49, 0.626094
2511.7, 0.626732
2512.92, 0.627264
2514.14, 0.627743
2515.36, 0.628168
2516.58, 0.628860
2517.8, 0.629232
2519.03, 0.629817
2520.25, 0.630243
2521.48, 0.630615
2522.7, 0.631041
2523.93, 0.631573
2525.16, 0.631732
2526.39, 0.632051
2527.62, 0.631998
2528.86, 0.631892
2530.09, 0.632211
2531.33, 0.632796
2532.56, 0.632477
2533.8, 0.632104
2535.04, 0.632370
2536.28, 0.632530
2537.52, 0.631094
2538.76, 0.630190
2540.01, 0.629764
2541.25, 0.630349
2542.5, 0.631200
2543.75, 0.630509
2544.99, 0.628966
2546.24, 0.628541
2547.49, 0.629073
2548.75, 0.628222
2550.0, 0.628009
2551.26, 0.628594
2552.51, 0.628222
2553.77, 0.626200
2555.03, 0.624286
2556.29, 0.623807
2557.55, 0.623222
2558.81, 0.624020
2560.08, 0.627956
2561.34, 0.631466
2562.61, 0.630987
2563.88, 0.629977
2565.14, 0.626520
2566.41, 0.623647
2567.68, 0.624605
2568.96, 0.628434
2570.23, 0.627743
2571.51, 0.625934
2572.78, 0.630509
2574.06, 0.629658
2575.34, 0.627530
2576.62, 0.629711
2577.9, 0.627211
2579.18, 0.625669
2580.47, 0.628913
2581.75, 0.629977
2583.04, 0.634551
2584.32, 0.635455
2585.61, 0.631466
2586.9, 0.634072
2588.2, 0.633381
2589.49, 0.631519
2590.78, 0.629551
2592.08, 0.631466
2593.37, 0.643913
2594.67, 0.656093
2595.97, 0.644604
2597.27, 0.632902
2598.57, 0.628807
2599.88, 0.629817
2601.18, 0.632264
2602.49, 0.634072
2603.79, 0.637051
2605.1, 0.641679
2606.41, 0.638487
2607.72, 0.633966
2609.03, 0.632690
2610.35, 0.630828
2611.66, 0.629126
2612.98, 0.629870
2614.3, 0.628966
2615.62, 0.634604
2616.94, 0.638168
2618.26, 0.632370
2619.58, 0.634711
2620.91, 0.632955
2622.23, 0.624498
2623.56, 0.622477
2624.89, 0.624286
2626.22, 0.629658
2627.55, 0.625456
2628.88, 0.625669
2630.21, 0.630722
2631.55, 0.623541
2632.89, 0.618860
2634.22, 0.617584
2635.56, 0.613329
2636.9, 0.611999
2638.25, 0.611201
2639.59, 0.611201
2640.93, 0.611680
2642.28, 0.612531
2643.63, 0.612637
2644.98, 0.615669
2646.33, 0.615775
2647.68, 0.614286
2649.03, 0.614392
2650.39, 0.616999
2651.74, 0.621679
2653.1, 0.622584
2654.46, 0.621520
2655.82, 0.621839
2657.18, 0.619339
2658.54, 0.621839
2659.9, 0.622477
2661.27, 0.620137
2662.64, 0.617796
2664.01, 0.623222
2665.38, 0.627477
2666.74, 0.622264
2668.12, 0.609499
2669.49, 0.608435
2670.87, 0.598595
2672.24, 0.575617
2673.62, 0.562160
2675.0, 0.553916
2676.38, 0.542693
2677.76, 0.521098
2679.15, 0.490673
2680.54, 0.449398
2681.92, 0.408389
2683.31, 0.370306
2684.7, 0.335147
2686.09, 0.306106
2687.48, 0.281532
2688.88, 0.262171
2690.27, 0.247597
2691.67, 0.239140
2693.07, 0.235630
2694.47, 0.233236
2695.87, 0.231215
2697.27, 0.232438
2698.67, 0.236534
2700.08, 0.243821
2701.49, 0.252225
2702.9, 0.260416
2704.31, 0.269724
2705.72, 0.280575
2707.13, 0.291691
2708.54, 0.304404
2709.96, 0.316478
2711.38, 0.324031
2712.8, 0.325467
2714.22, 0.327913
2715.64, 0.329296
2717.06, 0.329616
2718.49, 0.329243
2719.91, 0.331052
2721.34, 0.325999
2722.77, 0.320573
2724.2, 0.320041
2725.63, 0.315946
2727.07, 0.312010
2728.5, 0.311318
2729.94, 0.312276
2731.38, 0.314403
2732.82, 0.317701
2734.26, 0.322754
2735.7, 0.325254
2737.15, 0.328233
2738.59, 0.335998
2740.04, 0.342381
2741.49, 0.343604
2742.94, 0.343179
2744.39, 0.344828
2745.84, 0.347860
2747.3, 0.350413
2748.76, 0.352753
2750.21, 0.354827
2751.67, 0.356529
2753.14, 0.358338
2754.6, 0.363444
2756.06, 0.363178
2757.53, 0.358019
2759.0, 0.355944
2760.46, 0.356476
2761.94, 0.358551
2763.41, 0.358444
2764.88, 0.356423
2766.36, 0.356210
2767.83, 0.356423
2769.31, 0.356529
2770.79, 0.356529
2772.27, 0.354561
2773.76, 0.352540
2775.24, 0.352062
2776.73, 0.352062
2778.22, 0.351636
2779.71, 0.351264
2781.2, 0.351157
2782.69, 0.350359
2784.18, 0.349615
2785.68, 0.350945
2787.18, 0.351849
2788.68, 0.349934
2790.18, 0.348285
2791.68, 0.347753
2793.19, 0.347594
2794.69, 0.347434
2796.2, 0.347434
2797.71, 0.347221
2799.22, 0.346955
2800.73, 0.347487
2802.24, 0.349189
2803.76, 0.349083
2805.28, 0.347274
2806.8, 0.346211
2808.32, 0.345785
2809.84, 0.344987
2811.36, 0.344721
2812.89, 0.344562
2814.42, 0.344455
2815.94, 0.343977
2817.48, 0.343711
2819.01, 0.344030
2820.54, 0.343817
2822.08, 0.342913
2823.61, 0.342221
2825.15, 0.341743
2826.69, 0.341796
2828.23, 0.341583
2829.78, 0.341105
2831.32, 0.340839
2832.87, 0.340945
2834.42, 0.340785
2835.97, 0.340253
2837.52, 0.339881
2839.08, 0.339349
2840.63, 0.338711
2842.19, 0.338392
2843.75, 0.338073
2845.31, 0.337700
2846.87, 0.337488
2848.44, 0.337541
2850.0, 0.337168
2851.57, 0.336743
2853.14, 0.336796
2854.71, 0.336849
2856.28, 0.336211
2857.86, 0.335732
2859.43, 0.335360
2861.01, 0.335200
2862.59, 0.334988
2864.17, 0.334722
2865.76, 0.334669
2867.34, 0.334562
2868.93, 0.334137
2870.52, 0.334137
2872.11, 0.334083
2873.7, 0.333977
2875.29, 0.333711
2876.89, 0.333445
2878.49, 0.333073
2880.08, 0.333020
2881.69, 0.332754
2883.29, 0.332754
2884.89, 0.332541
2886.5, 0.332647
2888.11, 0.332381
2889.72, 0.332169
2891.33, 0.332062
2892.94, 0.332169
2894.56, 0.331956
2896.17, 0.331796
2897.79, 0.331850
2899.42, 0.332115
2901.04, 0.332009
2902.66, 0.331690
2904.29, 0.331584
2905.92, 0.331584
2907.55, 0.331424
2909.18, 0.331477
2910.81, 0.331530
2912.45, 0.331530
2914.08, 0.331530
2915.72, 0.331637
2917.36, 0.331637
2919.01, 0.331850
2920.65, 0.332062
2922.3, 0.332328
2923.94, 0.332381
2925.59, 0.332541
2927.25, 0.332647
2928.9, 0.332754
2930.56, 0.332913
2932.21, 0.333179
2933.87, 0.333392
2935.53, 0.333605
2937.2, 0.333711
2938.86, 0.333977
2940.53, 0.334243
2942.2, 0.334615
2943.87, 0.334988
2945.54, 0.335307
2947.22, 0.335520
2948.89, 0.335732
2950.57, 0.335945
2952.25, 0.336317
2953.93, 0.336849
2955.62, 0.337381
2957.3, 0.337381
2958.99, 0.337594
2960.68, 0.338019
2962.37, 0.338498
2964.07, 0.338924
2965.76, 0.339296
2967.46, 0.339562
2969.16, 0.340094
2970.86, 0.340519
2972.56, 0.340839
2974.27, 0.341158
2975.98, 0.341690
2977.69, 0.342062
2979.4, 0.342541
2981.11, 0.342966
2982.83, 0.343338
2984.54, 0.343551
2986.26, 0.344083
2987.98, 0.344668
2989.71, 0.345306
2991.43, 0.345732
2993.16, 0.345998
2994.89, 0.346264
2996.62, 0.346902
2998.35, 0.347328
3000.09, 0.347594
3001.83, 0.348019
3003.57, 0.348657
3005.31, 0.349136
3007.05, 0.349562
3008.79, 0.349934
3010.54, 0.350359
3012.29, 0.350891
3014.04, 0.351530
3015.8, 0.351902
3017.55, 0.352327
3019.31, 0.352753
3021.07, 0.353285
3022.83, 0.353657
3024.59, 0.353976
3026.36, 0.354349
3028.13, 0.354827
3029.9, 0.355306
3031.67, 0.355732
3033.44, 0.356051
3035.22, 0.356423
3037.0, 0.356795
3038.78, 0.357274
3040.56, 0.357806
3042.34, 0.358019
3044.13, 0.358338
3045.92, 0.358763
3047.71, 0.359136
3049.5, 0.359614
3051.3, 0.360146
3053.09, 0.360572
3054.89, 0.360838
3056.69, 0.361263
3058.5, 0.361582
3060.3, 0.361955
3062.11, 0.362434
3063.92, 0.362965
3065.73, 0.363285
3067.55, 0.363604
3069.36, 0.364136
3071.18, 0.364721
3073.0, 0.364880
3074.82, 0.365199
3076.65, 0.365625
3078.48, 0.365944
3080.31, 0.366370
3082.14, 0.366742
3083.97, 0.367167
3085.8, 0.367593
3087.64, 0.367752
3089.48, 0.367965
3091.33, 0.368231
3093.17, 0.368763
3095.02, 0.369295
3096.87, 0.369827
3098.72, 0.370252
3100.57, 0.370837
3102.43, 0.371263
3104.28, 0.371795
3106.14, 0.372380
3108.01, 0.373071
3109.87, 0.373710
3111.74, 0.374401
3113.61, 0.375093
3115.48, 0.375944
3117.35, 0.376529
3119.23, 0.377433
3121.1, 0.378231
3122.98, 0.379029
3124.87, 0.379826
3126.75, 0.380784
3128.64, 0.381475
3130.53, 0.382220
3132.42, 0.382965
3134.31, 0.383922
3136.21, 0.384773
3138.11, 0.385571
3140.01, 0.386369
3141.91, 0.387220
3143.82, 0.388177
3145.73, 0.389135
3147.64, 0.389773
3149.55, 0.390411
3151.46, 0.391209
3153.38, 0.392113
3155.3, 0.392911
3157.22, 0.393656
3159.14, 0.394400
3161.07, 0.395198
3163.0, 0.395890
3164.93, 0.396688
3166.86, 0.397432
3168.8, 0.398124
3170.74, 0.398815
3172.68, 0.399507
3174.62, 0.399985
3176.56, 0.400517
3178.51, 0.401209
3180.46, 0.401847
3182.42, 0.402272
3184.37, 0.402751
3186.33, 0.403177
3188.29, 0.403709
3190.25, 0.404347
3192.21, 0.404772
3194.18, 0.405091
3196.15, 0.405570
3198.12, 0.405996
3200.09, 0.406581
3202.07, 0.407113
3204.05, 0.407698
3206.03, 0.408176
3208.02, 0.408708
3210.0, 0.409240
3211.99, 0.409879
3213.98, 0.410304
3215.98, 0.410836
3217.97, 0.411527
3219.97, 0.412272
3221.97, 0.413070
3223.98, 0.413868
3225.98, 0.414612
3227.99, 0.415410
3230.0, 0.416155
3232.02, 0.417112
3234.03, 0.417910
3236.05, 0.418655
3238.07, 0.419453
3240.1, 0.420463
3242.12, 0.421368
3244.15, 0.422219
3246.18, 0.423176
3248.22, 0.424080
3250.25, 0.424772
3252.29, 0.425569
3254.33, 0.426421
3256.38, 0.427325
3258.43, 0.428123
3260.47, 0.429080
3262.53, 0.429984
3264.58, 0.430888
3266.64, 0.431633
3268.7, 0.432537
3270.76, 0.433601
3272.82, 0.434399
3274.89, 0.435090
3276.96, 0.435941
3279.04, 0.436739
3281.11, 0.437590
3283.19, 0.438388
3285.27, 0.439399
3287.35, 0.440303
3289.44, 0.441154
3291.53, 0.441952
3293.62, 0.442909
3295.71, 0.443814
3297.81, 0.444771
3299.91, 0.445462
3302.01, 0.446313
3304.11, 0.447058
3306.22, 0.447856
3308.33, 0.448707
3310.44, 0.449558
3312.56, 0.450303
3314.68, 0.450994
3316.8, 0.451792
3318.92, 0.452696
3321.05, 0.453494
3323.18, 0.454079
3325.31, 0.454664
3327.44, 0.455249
3329.58, 0.455887
3331.72, 0.456579
3333.86, 0.457111
3336.01, 0.457430
3338.16, 0.457643
3340.31, 0.457856
3342.46, 0.457802
3344.61, 0.457749
3346.77, 0.457802
3348.94, 0.458175
3351.1, 0.458494
3353.27, 0.458972
3355.44, 0.459611
3357.61, 0.460355
3359.79, 0.460887
3361.97, 0.461685
3364.15, 0.462430
3366.33, 0.463068
3368.52, 0.463653
3370.71, 0.464238
3372.9, 0.464717
3375.1, 0.465355
3377.3, 0.465887
3379.5, 0.466419
3381.71, 0.467004
3383.91, 0.467696
3386.12, 0.468281
3388.34, 0.468972
3390.55, 0.469504
3392.77, 0.470036
3394.99, 0.470515
3397.22, 0.471047
3399.45, 0.471259
3401.68, 0.471578
3403.91, 0.471844
3406.15, 0.472217
3408.39, 0.472429
3410.63, 0.472908
3412.87, 0.473334
3415.12, 0.473972
3417.37, 0.474610
3419.63, 0.475568
3421.88, 0.476631
3424.14, 0.477855
3426.41, 0.479238
3428.67, 0.480461
3430.94, 0.481472
3433.21, 0.482589
3435.49, 0.483599
3437.77, 0.484557
3440.05, 0.485514
3442.33, 0.486525
3444.62, 0.487323
3446.91, 0.488174
3449.2, 0.488918
3451.5, 0.489503
3453.8, 0.490088
3456.1, 0.490673
3458.41, 0.491152
3460.72, 0.491525
3463.03, 0.491684
3465.34, 0.491790
3467.66, 0.491684
3469.98, 0.491525
3472.31, 0.491365
3474.63, 0.491525
3476.96, 0.491737
3479.3, 0.492110
3481.64, 0.492748
3483.97, 0.493705
3486.32, 0.494397
3488.66, 0.495248
3491.01, 0.495939
3493.36, 0.496684
3495.72, 0.497322
3498.08, 0.497960
3500.44, 0.498652
3502.81, 0.499503
3505.18, 0.500460
3507.55, 0.501524
3509.92, 0.502694
3512.3, 0.504237
3514.68, 0.505779
3517.06, 0.507322
3519.45, 0.508705
3521.84, 0.510407
3524.24, 0.511896
3526.64, 0.513385
3529.04, 0.514609
3531.44, 0.515885
3533.85, 0.517056
3536.26, 0.518066
3538.67, 0.518970
3541.09, 0.519928
3543.51, 0.520726
3545.93, 0.521630
3548.36, 0.522321
3550.79, 0.523119
3553.22, 0.523864
3555.66, 0.524555
3558.1, 0.525140
3560.54, 0.525885
3562.99, 0.526417
3565.44, 0.527002
3567.9, 0.527481
3570.35, 0.528066
3572.81, 0.528438
3575.28, 0.528810
3577.75, 0.529183
3580.22, 0.529715
3582.69, 0.530087
3585.17, 0.530566
3587.65, 0.530938
3590.14, 0.531523
3592.62, 0.532055
3595.11, 0.532746
3597.61, 0.533544
3600.11, 0.534448
3602.61, 0.535299
3605.11, 0.536044
3607.62, 0.536895
3610.14, 0.537746
3612.65, 0.538491
3615.17, 0.539236
3617.69, 0.539767
3620.22, 0.540512
3622.75, 0.541044
3625.28, 0.541576
3627.82, 0.542108
3630.36, 0.542586
3632.9, 0.543012
3635.45, 0.543703
3638.0, 0.544289
3640.56, 0.544767
3643.12, 0.544980
3645.68, 0.545352
3648.24, 0.545725
3650.81, 0.546310
3653.39, 0.546629
3655.96, 0.547108
3658.54, 0.547746
3661.13, 0.548437
3663.71, 0.548916
3666.3, 0.549501
3668.9, 0.550086
3671.5, 0.550618
3674.1, 0.551150
3676.7, 0.551735
3679.31, 0.552107
3681.93, 0.552639
3684.54, 0.553065
3687.17, 0.553597
3689.79, 0.554075
3692.42, 0.554554
3695.05, 0.554926
3697.69, 0.555299
3700.32, 0.555565
3702.97, 0.555884
3705.61, 0.556150
3708.27, 0.556629
3710.92, 0.557001
3713.58, 0.557586
3716.24, 0.558065
3718.91, 0.558650
3721.58, 0.559182
3724.25, 0.559767
3726.93, 0.560352
3729.61, 0.560937
3732.29, 0.561362
3734.98, 0.561735
3737.67, 0.562107
3740.37, 0.562639
3743.07, 0.563118
3745.78, 0.563596
3748.49, 0.563969
3751.2, 0.564501
3753.91, 0.564979
3756.63, 0.565352
3759.36, 0.565671
3762.09, 0.566096
3764.82, 0.566469
3767.55, 0.566841
3770.29, 0.567266
3773.04, 0.567586
3775.78, 0.567745
3778.54, 0.568117
3781.29, 0.568490
3784.05, 0.568756
3786.82, 0.568809
3789.59, 0.569075
3792.36, 0.569181
3795.13, 0.569181
3797.92, 0.569181
3800.7, 0.569341
3803.49, 0.569181
3806.28, 0.569181
3809.08, 0.569075
3811.88, 0.568968
3814.68, 0.568809
3817.49, 0.568809
3820.31, 0.568596
3823.12, 0.568437
3825.94, 0.568224
3828.77, 0.568064
3831.6, 0.567851
3834.43, 0.567639
3837.27, 0.567373
3840.11, 0.567213
3842.96, 0.567107
3845.81, 0.567107
3848.67, 0.567054
3851.53, 0.567213
3854.39, 0.567266
3857.26, 0.567320
3860.13, 0.567426
3863.01, 0.567426
3865.89, 0.567479
3868.77, 0.567586
3871.66, 0.567745
3874.55, 0.567851
3877.45, 0.567958
3880.35, 0.568011
3883.26, 0.568064
3886.17, 0.568277
3889.09, 0.568224
3892.01, 0.568224
3894.93, 0.568224
3897.86, 0.568330
3900.79, 0.568437
3903.73, 0.568490
3906.67, 0.568330
3909.62, 0.568330
3912.57, 0.568330
3915.52, 0.568383
3918.48, 0.568224
3921.45, 0.568064
3924.42, 0.567798
3927.39, 0.567532
3930.37, 0.567320
3933.35, 0.567000
3936.34, 0.566415
3939.33, 0.565458
3942.32, 0.563969
3945.32, 0.562373
3948.33, 0.560565
3951.34, 0.558650
3954.35, 0.556682
3957.37, 0.555086
3960.39, 0.553597
3963.42, 0.552214
3966.45, 0.551044
3969.49, 0.550299
3972.53, 0.549714
3975.58, 0.549395
3978.63, 0.549235
3981.68, 0.549554
3984.75, 0.550193
3987.81, 0.551522
3990.88, 0.553278
3993.95, 0.555352
3997.03, 0.557533
4000.12, 0.559979
4003.21, 0.562213
4006.3, 0.564554
4009.4, 0.566681
4012.5, 0.568596
4015.61, 0.570085
4018.72, 0.571309
4021.84, 0.572479
4024.96, 0.573649
4028.09, 0.574500
4031.22, 0.575298
4034.36, 0.576096
4037.5, 0.576947
4040.65, 0.577692
4043.8, 0.578330
4046.96, 0.578702
4050.12, 0.579128
4053.29, 0.579394
4056.46, 0.579660
4059.64, 0.579872
4062.82, 0.580191
4066.0, 0.580298
4069.19, 0.580404
4072.39, 0.580511
4075.59, 0.580670
4078.8, 0.580564
4082.01, 0.580617
4085.23, 0.580617
4088.45, 0.580511
4091.68, 0.580457
4094.91, 0.580564
4098.15, 0.580564
4101.39, 0.580457
4104.63, 0.580351
4107.89, 0.580564
4111.14, 0.580457
4114.41, 0.580404
4117.67, 0.580298
4120.95, 0.580245
4124.23, 0.580298
4127.51, 0.580351
4130.8, 0.580191
4134.09, 0.580138
4137.39, 0.579979
4140.7, 0.579926
4144.01, 0.579872
4147.32, 0.579872
4150.64, 0.579660
4153.97, 0.579660
4157.3, 0.579553
4160.64, 0.579500
4163.98, 0.579340
4167.33, 0.579287
4170.68, 0.579234
4174.04, 0.579234
4177.4, 0.579021
4180.77, 0.578968
4184.14, 0.578809
4187.52, 0.578755
4190.91, 0.578543
4194.3, 0.578596
4197.69, 0.578755
4201.1, 0.579181
4204.5, 0.579819
4207.92, 0.580830
4211.34, 0.582000
4214.76, 0.583542
4218.19, 0.585298
4221.62, 0.586893
4225.06, 0.588276
4228.51, 0.589393
4231.96, 0.589819
4235.42, 0.589766
4238.88, 0.589021
4242.35, 0.587638
4245.83, 0.585670
4249.31, 0.583170
4252.79, 0.580351
4256.28, 0.578702
4259.78, 0.579606
4263.29, 0.581628
4266.79, 0.583064
4270.31, 0.584021
4273.83, 0.584340
4277.35, 0.584340
4280.89, 0.584127
4284.42, 0.583755
4287.97, 0.583117
4291.52, 0.582479
4295.07, 0.581574
4298.63, 0.580617
4302.2, 0.579660
4305.78, 0.578755
4309.35, 0.577745
4312.94, 0.576894
4316.53, 0.576149
4320.13, 0.575511
4323.73, 0.574872
4327.34, 0.574287
4330.96, 0.573596
4334.58, 0.573277
4338.21, 0.572958
4341.84, 0.572692
4345.48, 0.572319
4349.12, 0.572107
4352.77, 0.571841
4356.43, 0.571734
4360.1, 0.571468
4363.76, 0.571256
4367.44, 0.570937
4371.12, 0.570777
4374.81, 0.570671
4378.51, 0.570458
4382.21, 0.570192
4385.92, 0.570032
4389.63, 0.569766
4393.35, 0.569607
4397.08, 0.569394
4400.81, 0.569288
4404.55, 0.569022
4408.29, 0.568809
4412.04, 0.568596
4415.8, 0.568330
4419.57, 0.568064
4423.34, 0.567905
4427.12, 0.567586
4430.9, 0.567373
4434.69, 0.567107
4438.49, 0.566947
4442.29, 0.566628
4446.1, 0.566362
4449.92, 0.566043
4453.74, 0.565777
4457.57, 0.565458
4461.41, 0.565245
4465.25, 0.564873
4469.1, 0.564607
4472.95, 0.564181
4476.82, 0.563809
4480.69, 0.563384
4484.56, 0.563118
4488.44, 0.562799
4492.33, 0.562479
4496.23, 0.562001
4500.13, 0.561628
4504.04, 0.561150
4507.96, 0.560671
4511.88, 0.560033
4515.81, 0.559554
4519.75, 0.558916
4523.69, 0.558331
4527.65, 0.557639
4531.6, 0.556894
4535.57, 0.556097
4539.54, 0.555299
4543.52, 0.554288
4547.5, 0.553437
4551.5, 0.552373
4555.5, 0.551310
4559.5, 0.550193
4563.52, 0.549022
4567.54, 0.547639
4571.56, 0.546363
4575.6, 0.544980
4579.64, 0.543597
4583.69, 0.542161
4587.75, 0.540725
4591.81, 0.539182
4595.88, 0.537640
4599.96, 0.536044
4604.04, 0.534395
4608.14, 0.532640
4612.24, 0.530991
4616.34, 0.529236
4620.46, 0.527427
4624.58, 0.525672
4628.71, 0.523704
4632.84, 0.521736
4636.99, 0.519875
4641.14, 0.518013
4645.3, 0.516098
4649.47, 0.514130
4653.64, 0.512109
4657.82, 0.510247
4662.01, 0.508439
4666.21, 0.506630
4670.41, 0.505088
4674.62, 0.503599
4678.84, 0.502216
4683.07, 0.500779
4687.3, 0.499450
4691.54, 0.498067
4695.79, 0.496684
4700.05, 0.495407
4704.31, 0.493918
4708.59, 0.492748
4712.87, 0.491099
4717.15, 0.489822
4721.45, 0.488174
4725.76, 0.486791
4730.07, 0.484982
4734.39, 0.483387
4738.72, 0.481472
4743.05, 0.479770
4747.39, 0.477802
4751.75, 0.475940
4756.1, 0.474185
4760.47, 0.472270
4764.85, 0.470781
4769.23, 0.468866
4773.62, 0.467430
4778.02, 0.465515
4782.43, 0.464345
4786.85, 0.462643
4791.27, 0.461472
4795.7, 0.459983
4800.14, 0.458760
4804.59, 0.457430
4809.05, 0.456153
4813.51, 0.454983
4817.99, 0.453813
4822.47, 0.452749
4826.96, 0.451632
4831.46, 0.450462
4835.96, 0.449505
4840.48, 0.448441
4845.0, 0.447484
4849.54, 0.446313
4854.08, 0.445356
4858.63, 0.444292
4863.18, 0.443441
4867.75, 0.442484
4872.33, 0.441579
4876.91, 0.440835
4881.5, 0.440250
4886.1, 0.439612
4890.71, 0.439133
4895.33, 0.438707
4899.96, 0.438441
4904.59, 0.438069
4909.24, 0.437909
4913.89, 0.437697
4918.55, 0.437697
4923.22, 0.437750
4927.9, 0.437856
4932.59, 0.437856
4937.29, 0.437963
4942.0, 0.438016
4946.71, 0.438069
4951.44, 0.437909
4956.17, 0.437909
4960.91, 0.437431
4965.67, 0.436899
4970.43, 0.436367
4975.2, 0.435888
4979.98, 0.435303
4984.76, 0.434665
4989.56, 0.433973
4994.37, 0.433441
4999.18, 0.432856
5004.01, 0.432271
5008.84, 0.431633
5013.69, 0.431420
5018.54, 0.431474
5023.4, 0.430995
5028.28, 0.430410
5033.16, 0.430037
5038.05, 0.429878
5042.95, 0.429931
5047.86, 0.429825
5052.78, 0.429825
5057.71, 0.429771
5062.65, 0.429878
5067.6, 0.429878
5072.56, 0.430037
5077.53, 0.430250
5082.5, 0.430622
5087.49, 0.430410
5092.49, 0.430303
5097.5, 0.430357
5102.51, 0.430622
5107.54, 0.430622
5112.58, 0.430888
5117.62, 0.430995
5122.68, 0.431048
5127.75, 0.431048
5132.82, 0.431154
5137.91, 0.431208
5143.01, 0.431686
5148.12, 0.431846
5153.23, 0.430995
5158.36, 0.430463
5163.5, 0.430357
5168.65, 0.430144
5173.81, 0.429825
5178.98, 0.429399
5184.15, 0.429080
5189.34, 0.428761
5194.54, 0.428761
5199.75, 0.428761
5204.98, 0.428069
5210.21, 0.428495
5215.45, 0.428176
5220.7, 0.426314
5225.96, 0.425623
5231.23, 0.425197
5236.52, 0.424878
5241.81, 0.424027
5247.12, 0.423282
5252.44, 0.422431
5257.76, 0.421633
5263.1, 0.420516
5268.45, 0.419559
5273.81, 0.418602
5279.18, 0.417112
5284.56, 0.415304
5289.95, 0.414293
5295.36, 0.411793
5300.77, 0.408708
5306.2, 0.405943
5311.63, 0.403017
5317.08, 0.399985
5322.54, 0.397007
5328.01, 0.393815
5333.49, 0.390677
5338.98, 0.387433
5344.49, 0.385518
5350.0, 0.383656
5355.53, 0.379135
5361.07, 0.374454
5366.62, 0.370837
5372.18, 0.367487
5377.75, 0.364242
5383.34, 0.361051
5388.93, 0.357912
5394.54, 0.354827
5400.16, 0.351955
5405.79, 0.349296
5411.44, 0.346902
5417.09, 0.346158
5422.76, 0.344934
5428.43, 0.339775
5434.12, 0.336264
5439.83, 0.334083
5445.54, 0.332062
5451.26, 0.329935
5457.0, 0.328871
5462.75, 0.328871
5468.52, 0.326797
5474.29, 0.324775
5480.08, 0.323658
5485.88, 0.321158
5491.69, 0.319669
5497.51, 0.318552
5503.35, 0.317595
5509.2, 0.316318
5515.06, 0.315733
5520.93, 0.314935
5526.82, 0.313446
5532.71, 0.311265
5538.63, 0.309297
5544.55, 0.307116
5550.49, 0.305202
5556.44, 0.302489
5562.4, 0.300042
5568.37, 0.298872
5574.36, 0.300255
5580.36, 0.301000
5586.37, 0.299510
5592.4, 0.299138
5598.44, 0.299989
5604.49, 0.299989
5610.56, 0.299457
5616.63, 0.298766
5622.73, 0.297223
5628.83, 0.296213
5634.95, 0.297117
5641.08, 0.298606
5647.23, 0.295627
5653.39, 0.292755
5659.56, 0.290468
5665.74, 0.288234
5671.94, 0.288766
5678.15, 0.287755
5684.38, 0.285787
5690.62, 0.285415
5696.87, 0.283926
5703.14, 0.283607
5709.42, 0.285202
5715.72, 0.283979
5722.03, 0.282064
5728.35, 0.280362
5734.69, 0.279724
5741.03, 0.279671
5747.4, 0.279990
5753.78, 0.277649
5760.17, 0.279671
5766.58, 0.282330
5773.0, 0.277437
5779.44, 0.274032
5785.88, 0.272224
5792.35, 0.270735
5798.83, 0.270203
5805.32, 0.269192
5811.83, 0.269671
5818.35, 0.272969
5824.89, 0.272490
5831.45, 0.268288
5838.01, 0.265150
5844.59, 0.263235
5851.19, 0.262650
5857.8, 0.262756
5864.43, 0.262278
5871.07, 0.261107
5877.73, 0.265788
5884.4, 0.264086
5891.09, 0.260363
5897.79, 0.259193
5904.5, 0.253289
5911.23, 0.250576
5917.98, 0.249459
5924.75, 0.248661
5931.53, 0.251746
5938.32, 0.252225
5945.13, 0.245576
5951.96, 0.241906
5958.8, 0.240257
5965.65, 0.241055
5972.53, 0.238981
5979.42, 0.235949
5986.32, 0.235842
5993.24, 0.233130
6000.18, 0.228715
6007.13, 0.227332
6014.1, 0.226694
6021.08, 0.223662
6028.09, 0.221215
6035.1, 0.220417
6042.14, 0.224619
6049.19, 0.228236
6056.25, 0.220471
6063.34, 0.216801
6070.44, 0.218449
6077.55, 0.216535
6084.69, 0.213184
6091.84, 0.212173
6099.0, 0.212492
6106.19, 0.215152
6113.39, 0.217971
6120.61, 0.215311
6127.84, 0.213450
6135.09, 0.214567
6142.36, 0.216269
6149.65, 0.217386
6156.95, 0.219832
6164.27, 0.220683
6171.61, 0.220843
6178.97, 0.224726
6186.34, 0.228077
6193.73, 0.226268
6201.14, 0.226375
6208.57, 0.228077
6216.01, 0.229672
6223.47, 0.230736
6230.95, 0.232013
6238.45, 0.233289
6245.97, 0.234406
6253.5, 0.235364
6261.06, 0.236587
6268.63, 0.237651
6276.21, 0.238449
6283.82, 0.239034
6291.45, 0.239832
6299.1, 0.240523
6306.76, 0.241427
6314.44, 0.242385
6322.14, 0.243449
6329.86, 0.244619
6337.6, 0.248980
6345.35, 0.252118
6353.13, 0.249299
6360.92, 0.249512
6368.74, 0.252650
6376.57, 0.252118
6384.43, 0.251533
6392.3, 0.252225
6400.19, 0.254299
6408.1, 0.262331
6416.03, 0.265629
6423.98, 0.259299
6431.95, 0.256533
6439.94, 0.254618
6447.95, 0.253555
6455.98, 0.252757
6464.03, 0.252384
6472.1, 0.253555
6480.19, 0.255097
6488.31, 0.257916
6496.44, 0.255788
6504.59, 0.247863
6512.76, 0.244938
6520.95, 0.244406
6529.16, 0.240204
6537.4, 0.237491
6545.65, 0.236268
6553.92, 0.234672
6562.22, 0.232970
6570.54, 0.232811
6578.88, 0.228502
6587.23, 0.224300
6595.61, 0.220790
6604.02, 0.216535
6612.44, 0.213875
6620.89, 0.211641
6629.35, 0.212599
6637.84, 0.212067
6646.35, 0.204567
6654.88, 0.198610
6663.44, 0.196429
6672.01, 0.195152
6680.61, 0.193450
6689.23, 0.189195
6697.88, 0.185844
6706.54, 0.184834
6715.23, 0.182812
6723.94, 0.179621
6732.67, 0.176430
6741.42, 0.173877
6750.2, 0.172015
6759.0, 0.169887
6767.82, 0.168611
6776.67, 0.167600
6785.54, 0.167228
6794.44, 0.164888
6803.35, 0.161005
6812.29, 0.158877
6821.26, 0.158398
6830.24, 0.156909
6839.25, 0.154516
6848.29, 0.153984
6857.35, 0.155579
6866.43, 0.154569
6875.54, 0.150526
6884.67, 0.148612
6893.82, 0.147761
6903.0, 0.147495
6912.2, 0.146803
6921.43, 0.146005
6930.69, 0.145580
6939.96, 0.145261
6949.27, 0.145899
6958.59, 0.147335
6967.95, 0.146218
6977.33, 0.145154
6986.73, 0.145580
6996.16, 0.145899
7005.61, 0.145952
7015.09, 0.146484
7024.6, 0.146963
7034.13, 0.147654
7043.69, 0.149516
7053.27, 0.149250
7062.88, 0.148558
7072.52, 0.148984
7082.18, 0.149835
7091.87, 0.150526
7101.58, 0.151324
7111.32, 0.152282
7121.09, 0.152654
7130.88, 0.152601
7140.71, 0.153452
7150.56, 0.154143
7160.43, 0.154888
7170.33, 0.156058
7180.27, 0.156111
7190.23, 0.156537
7200.21, 0.157973
7210.23, 0.158771
7220.27, 0.158558
7230.34, 0.158824
7240.44, 0.159196
7250.56, 0.159569
7260.72, 0.159728
7270.9, 0.160101
7281.12, 0.159941
7291.36, 0.159409
7301.63, 0.159090
7311.93, 0.158771
7322.25, 0.158664
7332.61, 0.158984
7343.0, 0.158718
7353.41, 0.157813
7363.86, 0.157069
7374.33, 0.156430
7384.83, 0.155792
7395.37, 0.155101
7405.93, 0.154409
7416.53, 0.153611
7427.15, 0.152814
7437.81, 0.151909
7448.5, 0.151271
7459.22, 0.150846
7469.96, 0.149994
7480.74, 0.148824
7491.55, 0.147707
7502.39, 0.146590
7513.27, 0.145420
7524.17, 0.144197
7535.11, 0.143027
7546.08, 0.141697
7557.08, 0.140420
7568.11, 0.139197
7579.17, 0.137920
7590.27, 0.136484
7601.4, 0.135155
7612.56, 0.133825
7623.76, 0.132336
7634.98, 0.130899
7646.24, 0.129570
7657.54, 0.128187
7668.87, 0.126857
7680.23, 0.125368
7691.62, 0.123825
7703.05, 0.122336
7714.51, 0.120847
7726.01, 0.119198
7737.54, 0.117655
7749.11, 0.116113
7760.71, 0.114570
7772.35, 0.112921
7784.02, 0.111273
7795.72, 0.109517
7807.46, 0.107975
7819.23, 0.106220
7831.04, 0.104464
7842.89, 0.102656
7854.77, 0.100901
7866.69, 0.0990920
7878.65, 0.0972300
7890.64, 0.0952620
7902.67, 0.0932940
7914.74, 0.0914330
7926.84, 0.0896240
7938.98, 0.0876030
7951.16, 0.0856350
7963.37, 0.0837200
7975.62, 0.0817520
7987.91, 0.0796250
8000.24, 0.0776570
8012.6, 0.0755290
8025.01, 0.0734020
8037.45, 0.0712740
8049.93, 0.0692000
8062.45, 0.0670190
8075.01, 0.0649440
8087.61, 0.0628170
8100.24, 0.0607960
8112.91, 0.0585620
8125.63, 0.0564340
8138.39, 0.0541470
8151.18, 0.0518600
8164.02, 0.0496260
8176.9, 0.0474980
8189.81, 0.0452640
8202.77, 0.0430300
8215.77, 0.0408500
8228.82, 0.0387750
8241.9, 0.0366480
8255.02, 0.0346260
8268.19, 0.0326050
8281.39, 0.0306900
8294.65, 0.0288290
8307.94, 0.0271270
8321.28, 0.0253180
8334.66, 0.0236690
8348.08, 0.0220740
8361.54, 0.0208500
8375.05, 0.0195740
8388.6, 0.0184040
8402.2, 0.0172330
8415.84, 0.0164360
8429.52, 0.0157970
8443.25, 0.0153190
8457.02, 0.0148930
8470.84, 0.0147340
8484.7, 0.0146270
8498.61, 0.0147870
8512.57, 0.0152120
8526.57, 0.0160630
8540.62, 0.0169140
8554.71, 0.0181380
8568.85, 0.0195210
8583.04, 0.0212230
8597.27, 0.0230310
8611.55, 0.0253710
8625.88, 0.0280840
8640.26, 0.0313290
8654.68, 0.0349990
8669.16, 0.0391470
8683.68, 0.0437750
8698.25, 0.0488280
8712.87, 0.0543070
8727.53, 0.0605300
8742.25, 0.0672850
8757.02, 0.0745190
8771.83, 0.0822840
8786.7, 0.0906880
8801.62, 0.0997840
8816.59, 0.109411
8831.61, 0.119198
8846.68, 0.129251
8861.8, 0.139357
8876.97, 0.149409
8892.2, 0.159356
8907.48, 0.169143
8922.81, 0.178717
8938.2, 0.188238
8953.63, 0.197759
8969.13, 0.207226
8984.67, 0.216535
9000.27, 0.225683
9015.92, 0.234300
9031.63, 0.242012
9047.39, 0.249033
9063.21, 0.255469
9079.08, 0.261586
9095.01, 0.267437
9111.0, 0.272969
9127.04, 0.278234
9143.13, 0.282915
9159.28, 0.286851
9175.49, 0.289670
9191.76, 0.291319
9208.09, 0.291798
9224.47, 0.291000
9240.92, 0.289192
9257.42, 0.286745
9273.98, 0.283926
9290.6, 0.281000
9307.28, 0.278128
9324.02, 0.275362
9340.82, 0.272969
9357.68, 0.270788
9374.6, 0.268979
9391.58, 0.267437
9408.62, 0.266480
9425.73, 0.266107
9442.9, 0.266160
9460.13, 0.266426
9477.42, 0.266799
9494.78, 0.267277
9512.2, 0.267916
9529.69, 0.268714
9547.24, 0.269990
9564.86, 0.271533
9582.54, 0.273660
9600.28, 0.276532
9618.1, 0.280149
9635.97, 0.284245
9653.92, 0.288447
9671.93, 0.292436
9690.01, 0.296266
9708.16, 0.299723
9726.37, 0.302861
9744.65, 0.305468
9763.0, 0.307063
9781.43, 0.307223
9799.92, 0.305414
9818.48, 0.300787
9837.1, 0.293606
9855.8, 0.284245
9874.58, 0.273607
9893.42, 0.262118
9912.34, 0.250735
9931.33, 0.239672
9950.39, 0.229034
9969.52, 0.219141
9988.74, 0.210045
10008.0, 0.201535
10027.4, 0.193610
10046.8, 0.186483
10066.3, 0.179993
10085.9, 0.173930
10105.6, 0.168504
10125.3, 0.164037
10145.1, 0.160579
10165.0, 0.157973
10185.0, 0.156324
10205.0, 0.155579
10225.2, 0.155473
10245.4, 0.155899
10265.7, 0.156271
10286.0, 0.156484
10306.5, 0.156377
10327.0, 0.155792
10347.6, 0.154622
10368.3, 0.153292
10389.1, 0.151643
10409.9, 0.149729
10430.9, 0.147654
10451.9, 0.145580
10473.0, 0.143452
10494.2, 0.141271
10515.5, 0.138878
10536.9, 0.136484
10558.4, 0.134410
10579.9, 0.132336
10601.5, 0.130474
10623.3, 0.128719
10645.1, 0.127017
10667.0, 0.125474
10689.0, 0.124038
10711.1, 0.122815
10733.2, 0.121804
10755.5, 0.120900
10777.9, 0.120208
10800.3, 0.119570
10822.9, 0.119145
10845.5, 0.119038
10868.2, 0.118879
10891.1, 0.118613
10914.0, 0.118559
10937.0, 0.118666
10960.2, 0.118879
10983.4, 0.119464
11006.7, 0.120315
11030.1, 0.121379
11053.6, 0.122868
11077.3, 0.124570
11101.0, 0.126804
11124.8, 0.129570
11148.7, 0.132548
11172.7, 0.135687
11196.9, 0.138878
11221.1, 0.142176
11245.4, 0.145420
11269.9, 0.148080
11294.4, 0.149569
11319.1, 0.150367
11343.9, 0.151005
11368.8, 0.151324
11393.7, 0.151377
11418.8, 0.151537
11444.0, 0.152228
11469.4, 0.153133
11494.8, 0.153931
11520.3, 0.154516
11546.0, 0.154728
11571.8, 0.154728
11597.7, 0.154516
11623.7, 0.154409
11649.8, 0.154516
11676.0, 0.154462
11702.4, 0.154356
11728.9, 0.154516
11755.5, 0.154675
11782.2, 0.154569
11809.0, 0.154782
11836.0, 0.154728
11863.0, 0.154196
11890.3, 0.153026
11917.6, 0.151218
11945.0, 0.148931
11972.6, 0.146005
12000.4, 0.142495
12028.2, 0.138399
12056.2, 0.133665
12084.3, 0.128240
12112.5, 0.122442
12140.9, 0.116485
12169.4, 0.110794
12198.0, 0.105954
12226.8, 0.102230
12255.7, 0.0997840
12284.7, 0.0984010
12313.9, 0.0978690
12343.2, 0.0977620
12372.7, 0.0979750
12402.3, 0.0985070
12432.0, 0.0990390
12461.9, 0.0996240
12491.9, 0.100262
12522.1, 0.101007
12552.4, 0.101326
12582.9, 0.101379
12613.5, 0.101220
12644.3, 0.100635
12675.2, 0.0996770
12706.3, 0.0978690
12737.5, 0.0953160
12768.9, 0.0920710
12800.4, 0.0882950
12832.1, 0.0844120
12863.9, 0.0808480
12895.9, 0.0781350
12928.1, 0.0757950
12960.4, 0.0737740
12992.9, 0.0722310
13025.5, 0.0707950
13058.3, 0.0692530
13091.3, 0.0676570
13124.4, 0.0659550
13157.8, 0.0641470
13191.2, 0.0623380
13224.9, 0.0607420
13258.7, 0.0588280
13292.7, 0.0568060
13326.9, 0.0546790
13361.2, 0.0526580
13395.7, 0.0505830
13430.4, 0.0485090
13465.3, 0.0469660
13500.4, 0.0455830
13535.7, 0.0447860
13571.1, 0.0447320
13606.7, 0.0448390
13642.5, 0.0455300
13678.5, 0.0465940
13714.7, 0.0478170
13751.1, 0.0489880
13787.6, 0.0498920
13824.4, 0.0506360
13861.4, 0.0512220
13898.5, 0.0511150
13935.9, 0.0508490
13973.5, 0.0504770
14011.2, 0.0502640
14049.2, 0.0503170
14087.4, 0.0501050
14125.8, 0.0502110
14164.3, 0.0502640
14203.2, 0.0497320
14242.2, 0.0490410
14281.4, 0.0481900
14320.9, 0.0471790
14360.5, 0.0456370
14400.4, 0.0444130
14440.5, 0.0435620
14480.9, 0.0427110
14521.4, 0.0421790
14562.2, 0.0418070
14603.3, 0.0415410
14644.5, 0.0414880
14686.0, 0.0410620
14727.7, 0.0404240
14769.7, 0.0399990
14811.9, 0.0396260
14854.3, 0.0389350
14897.0, 0.0386690
14939.9, 0.0387750
14983.1, 0.0385620
15026.5, 0.0380310
15070.2, 0.0381900
15114.2, 0.0383500
15158.3, 0.0385620
15202.8, 0.0386690
15247.5, 0.0389350
15292.5, 0.0394670
15337.7, 0.0396260
15383.2, 0.0393070
15429.0, 0.0390940
15475.1, 0.0385090
15521.4, 0.0378710
15568.0, 0.0372330
15614.9, 0.0364350
15662.1, 0.0357430
15709.6, 0.0352110
15757.3, 0.0349460
15805.4, 0.0346260
15853.7, 0.0345200
15902.3, 0.0346260
15951.2, 0.0345200
16000.5, 0.0344670
16050.0, 0.0343600
16099.8, 0.0345200
16150.0, 0.0352110
16200.5, 0.0356370
16251.3, 0.0358500
16302.4, 0.0361690
16353.8, 0.0367010
16405.5, 0.0374450
16457.6, 0.0381900
16510.0, 0.0387220
16562.8, 0.0390940
16615.9, 0.0391470
16669.3, 0.0393070
16723.1, 0.0394670
16777.2, 0.0395730
16831.7, 0.0397860
16886.5, 0.0399990
16941.7, 0.0404770
16997.2, 0.0413280
17053.1, 0.0428180
17109.4, 0.0450520
17166.1, 0.0485620
17223.1, 0.0543070
17280.5, 0.0624980
17338.3, 0.0731890
17396.5, 0.0866460
17455.1, 0.103028
17514.0, 0.122176
17573.4, 0.143133
17633.2, 0.166005
17693.4, 0.189727
17754.0, 0.212226
17815.0, 0.233928
17876.4, 0.255523
17938.3, 0.275947
18000.5, 0.294617
18063.3, 0.311957
18126.4, 0.327435
18190.0, 0.340785
18254.1, 0.351902
18318.6, 0.361210
18383.5, 0.367806
18449.0, 0.372114
18514.9, 0.374135
18581.2, 0.375252
18648.0, 0.374348
18715.4, 0.371742
18783.2, 0.368284
18851.5, 0.364136
18920.3, 0.358923
18989.6, 0.353179
19059.4, 0.347487
19129.7, 0.341424
19200.6, 0.335041
19272.0, 0.331052
19343.9, 0.329030
19416.3, 0.327116
19489.3, 0.325839
19562.8, 0.324882
19637.0, 0.324190
19711.6, 0.324190
19786.8, 0.325360
19862.6, 0.327807
19939.0, 0.329137
20016.0, 0.328605
20093.6, 0.326637
20171.8, 0.321158
20250.6, 0.313712
20330.0, 0.308180
20410.0, 0.304404
20490.7, 0.301904
20572.0, 0.303021
20654.0, 0.306159
20736.6, 0.310255
20819.9, 0.315201
20903.8, 0.319350
20988.5, 0.321584
21073.8, 0.322701
21159.8, 0.323765
21246.5, 0.321478
21334.0, 0.316903
21422.1, 0.310361
21511.0, 0.302329
21600.7, 0.293872
21691.0, 0.286000
21782.1, 0.278979
21874.0, 0.272277
21966.7, 0.266320
22060.2, 0.261427
22154.5, 0.255150
22249.6, 0.249778
22345.5, 0.245523
22442.2, 0.241480
22539.8, 0.236906
22638.2, 0.231268
22737.5, 0.227119
22837.7, 0.224034
22938.7, 0.219620
23040.7, 0.214939
23143.5, 0.211535
23247.3, 0.208982
23352.1, 0.205684
23457.7, 0.203184
23564.4, 0.201801
23672.0, 0.199620
23780.5, 0.199354
23890.1, 0.198344
24000.7, 0.193184
24112.3, 0.191376
24225.0, 0.190046
24338.7, 0.188291
24453.5, 0.187174
24569.4, 0.186376
24686.4, 0.185366
24804.5, 0.184621
