Database of Origin, USGS Spectral Database
Sample Description, See USGS database for additional info
Date Added,2016-08-03 21:12:34.863197

Data ID,USGS_cha02          
Sample ID, chalcedony_cu91-6a.4514
Mineral Name, chalcedony
Material Class,Tectosilicate

Wavelength
1607.49, 0.439280
1607.99, 0.439367
1608.49, 0.439627
1608.99, 0.439584
1609.49, 0.439541
1609.99, 0.439801
1610.49, 0.439888
1610.99, 0.439931
1611.49, 0.440105
1611.99, 0.440322
1612.49, 0.440409
1612.99, 0.440322
1613.49, 0.440452
1614.0, 0.440496
1614.5, 0.440756
1615.0, 0.440930
1615.51, 0.441060
1616.01, 0.441017
1616.51, 0.441234
1617.02, 0.441234
1617.52, 0.441364
1618.03, 0.441668
1618.53, 0.441625
1619.04, 0.441712
1619.54, 0.441929
1620.05, 0.442016
1620.55, 0.442102
1621.06, 0.442059
1621.57, 0.442189
1622.08, 0.442363
1622.58, 0.442667
1623.09, 0.442884
1623.6, 0.442797
1624.11, 0.442667
1624.62, 0.442754
1625.13, 0.442971
1625.64, 0.443144
1626.15, 0.443275
1626.66, 0.443448
1627.17, 0.443752
1627.68, 0.443926
1628.19, 0.444100
1628.7, 0.444230
1629.21, 0.444143
1629.72, 0.444143
1630.24, 0.444404
1630.75, 0.444621
1631.26, 0.444838
1631.78, 0.445012
1632.29, 0.445098
1632.8, 0.445185
1633.32, 0.445229
1633.83, 0.445315
1634.35, 0.445359
1634.86, 0.445619
1635.38, 0.445750
1635.9, 0.446054
1636.41, 0.446140
1636.93, 0.446227
1637.45, 0.446358
1637.96, 0.446531
1638.48, 0.446661
1639.0, 0.446748
1639.52, 0.446835
1640.04, 0.447009
1640.56, 0.447183
1641.08, 0.447313
1641.59, 0.447313
1642.11, 0.447530
1642.63, 0.447660
1643.16, 0.447790
1643.68, 0.447921
1644.2, 0.448225
1644.72, 0.448442
1645.24, 0.448485
1645.76, 0.448485
1646.29, 0.448789
1646.81, 0.448876
1647.33, 0.449223
1647.86, 0.449267
1648.38, 0.449223
1648.9, 0.449310
1649.43, 0.449701
1649.95, 0.449701
1650.48, 0.449744
1651.0, 0.449831
1651.53, 0.450092
1652.06, 0.450135
1652.58, 0.450048
1653.11, 0.450352
1653.64, 0.450743
1654.17, 0.450700
1654.69, 0.450743
1655.22, 0.450743
1655.75, 0.450917
1656.28, 0.451177
1656.81, 0.451307
1657.34, 0.451394
1657.87, 0.451394
1658.4, 0.451394
1658.93, 0.451611
1659.46, 0.451785
1659.99, 0.451915
1660.52, 0.451785
1661.05, 0.451828
1661.59, 0.452089
1662.12, 0.452219
1662.65, 0.452350
1663.19, 0.452306
1663.72, 0.452436
1664.26, 0.452610
1664.79, 0.452740
1665.32, 0.452740
1665.86, 0.452871
1666.39, 0.453001
1666.93, 0.453001
1667.47, 0.453174
1668.0, 0.453218
1668.54, 0.453218
1669.08, 0.453174
1669.61, 0.453392
1670.15, 0.453435
1670.69, 0.453478
1671.23, 0.453435
1671.77, 0.453609
1672.31, 0.453739
1672.85, 0.453913
1673.39, 0.453999
1673.93, 0.454086
1674.47, 0.454043
1675.01, 0.454086
1675.55, 0.454086
1676.09, 0.454217
1676.64, 0.454347
1677.18, 0.454434
1677.72, 0.454434
1678.26, 0.454607
1678.81, 0.454738
1679.35, 0.454781
1679.89, 0.454781
1680.44, 0.454911
1680.98, 0.454781
1681.53, 0.454998
1682.07, 0.455085
1682.62, 0.455085
1683.17, 0.455259
1683.71, 0.455389
1684.26, 0.455476
1684.81, 0.455606
1685.36, 0.455606
1685.9, 0.455693
1686.45, 0.455736
1687.0, 0.455867
1687.55, 0.455736
1688.1, 0.455867
1688.65, 0.456084
1689.2, 0.456127
1689.75, 0.456170
1690.3, 0.456431
1690.85, 0.456561
1691.41, 0.456561
1691.96, 0.456778
1692.51, 0.456995
1693.06, 0.457039
1693.61, 0.457213
1694.17, 0.457169
1694.72, 0.457169
1695.28, 0.457343
1695.83, 0.457603
1696.39, 0.457777
1696.94, 0.457777
1697.5, 0.457777
1698.05, 0.457907
1698.61, 0.457994
1699.17, 0.458038
1699.72, 0.458081
1700.28, 0.458298
1700.84, 0.458341
1701.4, 0.458472
1701.95, 0.458689
1702.51, 0.458819
1703.07, 0.458819
1703.63, 0.458949
1704.19, 0.458949
1704.75, 0.459166
1705.31, 0.459384
1705.88, 0.459470
1706.44, 0.459470
1707.0, 0.459557
1707.56, 0.459774
1708.12, 0.459861
1708.69, 0.459948
1709.25, 0.460252
1709.81, 0.460339
1710.38, 0.460339
1710.94, 0.460426
1711.51, 0.460599
1712.07, 0.460643
1712.64, 0.460860
1713.2, 0.460990
1713.77, 0.461164
1714.34, 0.461251
1714.9, 0.461468
1715.47, 0.461555
1716.04, 0.461555
1716.61, 0.461685
1717.18, 0.461902
1717.74, 0.462076
1718.31, 0.462206
1718.88, 0.462119
1719.45, 0.462206
1720.02, 0.462249
1720.59, 0.462553
1721.17, 0.462683
1721.74, 0.462770
1722.31, 0.462901
1722.88, 0.463031
1723.45, 0.463161
1724.03, 0.463378
1724.6, 0.463422
1725.18, 0.463291
1725.75, 0.463422
1726.33, 0.463639
1726.9, 0.463639
1727.48, 0.463639
1728.05, 0.463943
1728.63, 0.464116
1729.2, 0.464116
1729.78, 0.464247
1730.36, 0.464290
1730.94, 0.464464
1731.51, 0.464550
1732.09, 0.464464
1732.67, 0.464507
1733.25, 0.464464
1733.83, 0.464550
1734.41, 0.464681
1734.99, 0.464854
1735.57, 0.464941
1736.15, 0.465028
1736.73, 0.465115
1737.32, 0.465115
1737.9, 0.465028
1738.48, 0.465245
1739.07, 0.465289
1739.65, 0.465245
1740.23, 0.465506
1740.82, 0.465549
1741.4, 0.465636
1741.99, 0.465723
1742.57, 0.465679
1743.16, 0.465766
1743.74, 0.465897
1744.33, 0.465810
1744.92, 0.465853
1745.51, 0.465983
1746.09, 0.466070
1746.68, 0.466114
1747.27, 0.466200
1747.86, 0.466287
1748.45, 0.466374
1749.04, 0.466244
1749.63, 0.466287
1750.22, 0.466374
1750.81, 0.466331
1751.4, 0.466374
1751.99, 0.466504
1752.59, 0.466722
1753.18, 0.466765
1753.77, 0.466591
1754.37, 0.466635
1754.96, 0.466722
1755.56, 0.466895
1756.15, 0.466852
1756.74, 0.466895
1757.34, 0.466982
1757.94, 0.467069
1758.53, 0.467156
1759.13, 0.467286
1759.73, 0.467286
1760.32, 0.467286
1760.92, 0.467373
1761.52, 0.467373
1762.12, 0.467416
1762.72, 0.467503
1763.32, 0.467590
1763.92, 0.467981
1764.52, 0.467981
1765.12, 0.467807
1765.72, 0.467850
1766.32, 0.467981
1766.92, 0.468111
1767.53, 0.468198
1768.13, 0.468285
1768.73, 0.468371
1769.34, 0.468328
1769.94, 0.468371
1770.55, 0.468328
1771.15, 0.468415
1771.76, 0.468545
1772.36, 0.468632
1772.97, 0.468719
1773.57, 0.468849
1774.18, 0.468849
1774.79, 0.468979
1775.4, 0.469066
1776.0, 0.469240
1776.61, 0.469283
1777.22, 0.469457
1777.83, 0.469674
1778.44, 0.469717
1779.05, 0.469674
1779.66, 0.469674
1780.27, 0.469848
1780.88, 0.470021
1781.5, 0.470152
1782.11, 0.470195
1782.72, 0.470325
1783.33, 0.470412
1783.95, 0.470412
1784.56, 0.470456
1785.18, 0.470586
1785.79, 0.470716
1786.41, 0.470846
1787.02, 0.470890
1787.64, 0.470846
1788.26, 0.470977
1788.87, 0.471237
1789.49, 0.471367
1790.11, 0.471367
1790.73, 0.471411
1791.35, 0.471411
1791.96, 0.471541
1792.58, 0.471671
1793.21, 0.471888
1793.83, 0.471932
1794.45, 0.472019
1795.07, 0.472106
1795.69, 0.472106
1796.31, 0.472192
1796.93, 0.472366
1797.56, 0.472496
1798.18, 0.472627
1798.8, 0.472540
1799.43, 0.472540
1800.05, 0.472627
1800.68, 0.472931
1801.3, 0.473061
1801.93, 0.472974
1802.56, 0.472974
1803.18, 0.473191
1803.81, 0.473408
1804.44, 0.473408
1805.07, 0.473365
1805.7, 0.473452
1806.33, 0.473582
1806.95, 0.473712
1807.58, 0.473712
1808.22, 0.473712
1808.85, 0.473712
1809.48, 0.473712
1810.11, 0.473842
1810.74, 0.474016
1811.38, 0.474059
1812.01, 0.474190
1812.64, 0.474233
1813.28, 0.474363
1813.91, 0.474407
1814.55, 0.474407
1815.18, 0.474450
1815.82, 0.474407
1816.45, 0.474363
1817.09, 0.474494
1817.73, 0.474581
1818.36, 0.474711
1819.0, 0.474841
1819.64, 0.474711
1820.28, 0.474624
1820.92, 0.474711
1821.56, 0.474624
1822.2, 0.474754
1822.84, 0.474971
1823.48, 0.474971
1824.12, 0.474971
1824.76, 0.475145
1825.41, 0.474971
1826.05, 0.474841
1826.69, 0.475015
1827.34, 0.475145
1827.98, 0.475188
1828.63, 0.475102
1829.27, 0.475058
1829.92, 0.475232
1830.56, 0.475232
1831.21, 0.475319
1831.86, 0.475232
1832.5, 0.475275
1833.15, 0.475275
1833.8, 0.475319
1834.45, 0.475275
1835.1, 0.475232
1835.75, 0.475102
1836.4, 0.475015
1837.05, 0.475145
1837.7, 0.475188
1838.35, 0.475319
1839.01, 0.475406
1839.66, 0.475145
1840.31, 0.475319
1840.96, 0.475492
1841.62, 0.475362
1842.27, 0.475492
1842.93, 0.475709
1843.58, 0.475840
1844.24, 0.475840
1844.9, 0.475840
1845.55, 0.475840
1846.21, 0.475623
1846.87, 0.475406
1847.53, 0.475623
1848.18, 0.475796
1848.84, 0.476013
1849.5, 0.476231
1850.16, 0.476187
1850.82, 0.476187
1851.48, 0.476317
1852.14, 0.476187
1852.81, 0.476144
1853.47, 0.476057
1854.13, 0.476100
1854.8, 0.476448
1855.46, 0.476621
1856.12, 0.476448
1856.79, 0.476404
1857.45, 0.476708
1858.12, 0.476925
1858.79, 0.476752
1859.45, 0.476404
1860.12, 0.476534
1860.79, 0.476838
1861.46, 0.476925
1862.12, 0.476882
1862.79, 0.476795
1863.46, 0.477012
1864.13, 0.477099
1864.8, 0.477229
1865.48, 0.477316
1866.15, 0.477446
1866.82, 0.477403
1867.49, 0.477186
1868.16, 0.477186
1868.84, 0.477316
1869.51, 0.477316
1870.19, 0.477142
1870.86, 0.476969
1871.54, 0.477316
1872.21, 0.477142
1872.89, 0.477012
1873.56, 0.477273
1874.24, 0.477490
1874.92, 0.477403
1875.6, 0.477490
1876.28, 0.477273
1876.96, 0.477186
1877.64, 0.477403
1878.32, 0.477620
1879.0, 0.477577
1879.68, 0.477577
1880.36, 0.477577
1881.04, 0.477490
1881.73, 0.477446
1882.41, 0.477316
1883.09, 0.477142
1883.78, 0.477012
1884.46, 0.476969
1885.15, 0.477012
1885.83, 0.476925
1886.52, 0.476665
1887.21, 0.476534
1887.89, 0.476404
1888.58, 0.476317
1889.27, 0.476013
1889.96, 0.475709
1890.65, 0.475753
1891.34, 0.475623
1892.03, 0.475449
1892.72, 0.475275
1893.41, 0.475102
1894.1, 0.475015
1894.79, 0.474798
1895.49, 0.474537
1896.18, 0.474233
1896.87, 0.474059
1897.57, 0.473929
1898.26, 0.473625
1898.96, 0.473104
1899.65, 0.472844
1900.35, 0.472844
1901.05, 0.472887
1901.74, 0.472670
1902.44, 0.472236
1903.14, 0.472106
1903.84, 0.472019
1904.54, 0.471715
1905.24, 0.471671
1905.94, 0.471541
1906.64, 0.471367
1907.34, 0.471411
1908.04, 0.471541
1908.75, 0.471454
1909.45, 0.471411
1910.15, 0.471454
1910.86, 0.471281
1911.56, 0.471281
1912.27, 0.471281
1912.97, 0.471064
1913.68, 0.470977
1914.39, 0.471150
1915.09, 0.471237
1915.8, 0.471150
1916.51, 0.471237
1917.22, 0.471324
1917.93, 0.471498
1918.64, 0.471498
1919.35, 0.471237
1920.06, 0.471020
1920.77, 0.471281
1921.48, 0.471671
1922.19, 0.471715
1922.91, 0.471758
1923.62, 0.471585
1924.33, 0.471541
1925.05, 0.471845
1925.76, 0.471932
1926.48, 0.471932
1927.19, 0.472019
1927.91, 0.472106
1928.63, 0.472149
1929.35, 0.472236
1930.07, 0.472062
1930.78, 0.472192
1931.5, 0.472366
1932.22, 0.472496
1932.94, 0.472583
1933.66, 0.472583
1934.39, 0.472670
1935.11, 0.472931
1935.83, 0.473017
1936.55, 0.472931
1937.28, 0.473104
1938.0, 0.473278
1938.73, 0.473321
1939.45, 0.473408
1940.18, 0.473495
1940.9, 0.473582
1941.63, 0.473538
1942.36, 0.473625
1943.09, 0.473842
1943.81, 0.474016
1944.54, 0.474146
1945.27, 0.474233
1946.0, 0.474277
1946.73, 0.474277
1947.47, 0.474320
1948.2, 0.474667
1948.93, 0.474841
1949.66, 0.474841
1950.4, 0.474971
1951.13, 0.475145
1951.86, 0.475188
1952.6, 0.475275
1953.34, 0.475362
1954.07, 0.475492
1954.81, 0.475666
1955.55, 0.475709
1956.29, 0.475840
1957.02, 0.476013
1957.76, 0.476100
1958.5, 0.476144
1959.24, 0.476274
1959.98, 0.476448
1960.72, 0.476534
1961.47, 0.476708
1962.21, 0.476882
1962.95, 0.477012
1963.7, 0.477012
1964.44, 0.477142
1965.18, 0.477273
1965.93, 0.477490
1966.67, 0.477490
1967.42, 0.477707
1968.17, 0.477924
1968.92, 0.478054
1969.66, 0.478054
1970.41, 0.478141
1971.16, 0.478271
1971.91, 0.478445
1972.66, 0.478705
1973.41, 0.478836
1974.16, 0.478923
1974.92, 0.479009
1975.67, 0.479140
1976.42, 0.479226
1977.18, 0.479226
1977.93, 0.479313
1978.69, 0.479357
1979.44, 0.479444
1980.2, 0.479661
1980.95, 0.479748
1981.71, 0.479791
1982.47, 0.479878
1983.23, 0.480008
1983.99, 0.480138
1984.74, 0.480182
1985.51, 0.480312
1986.27, 0.480399
1987.03, 0.480529
1987.79, 0.480616
1988.55, 0.480703
1989.32, 0.480703
1990.08, 0.480876
1990.84, 0.480833
1991.61, 0.480833
1992.37, 0.481007
1993.14, 0.481137
1993.9, 0.481311
1994.67, 0.481311
1995.44, 0.481267
1996.21, 0.481311
1996.98, 0.481484
1997.75, 0.481615
1998.52, 0.481701
1999.29, 0.481615
2000.06, 0.481615
2000.83, 0.481701
2001.6, 0.481788
2002.38, 0.481832
2003.15, 0.481788
2003.93, 0.481832
2004.7, 0.482005
2005.48, 0.481962
2006.25, 0.481875
2007.03, 0.481962
2007.81, 0.482092
2008.58, 0.482222
2009.36, 0.482092
2010.14, 0.481919
2010.92, 0.481919
2011.7, 0.482136
2012.48, 0.482266
2013.26, 0.482222
2014.05, 0.482266
2014.83, 0.482309
2015.61, 0.482309
2016.4, 0.482222
2017.18, 0.482179
2017.97, 0.482266
2018.75, 0.482396
2019.54, 0.482309
2020.32, 0.482266
2021.11, 0.482353
2021.9, 0.482222
2022.69, 0.482179
2023.48, 0.482092
2024.27, 0.482049
2025.06, 0.482179
2025.85, 0.482309
2026.64, 0.482179
2027.44, 0.482092
2028.23, 0.482136
2029.02, 0.482353
2029.82, 0.482222
2030.61, 0.482222
2031.41, 0.482440
2032.2, 0.482483
2033.0, 0.482396
2033.8, 0.482309
2034.6, 0.482309
2035.4, 0.482222
2036.2, 0.482309
2037.0, 0.482483
2037.8, 0.482526
2038.6, 0.482613
2039.4, 0.482483
2040.2, 0.482353
2041.01, 0.482353
2041.81, 0.482396
2042.61, 0.482483
2043.42, 0.482570
2044.22, 0.482570
2045.03, 0.482483
2045.84, 0.482570
2046.65, 0.482657
2047.46, 0.482830
2048.26, 0.482917
2049.07, 0.482917
2049.88, 0.482787
2050.69, 0.482700
2051.51, 0.482787
2052.32, 0.482917
2053.13, 0.483047
2053.94, 0.483134
2054.76, 0.483047
2055.57, 0.482917
2056.39, 0.482961
2057.2, 0.483091
2058.02, 0.483134
2058.84, 0.483134
2059.66, 0.483134
2060.48, 0.483134
2061.29, 0.483351
2062.11, 0.483308
2062.94, 0.483308
2063.76, 0.483395
2064.58, 0.483482
2065.4, 0.483438
2066.22, 0.483482
2067.05, 0.483482
2067.87, 0.483568
2068.7, 0.483699
2069.52, 0.483655
2070.35, 0.483655
2071.18, 0.483742
2072.0, 0.483786
2072.83, 0.483655
2073.66, 0.483742
2074.49, 0.483872
2075.32, 0.483872
2076.15, 0.484003
2076.98, 0.484133
2077.82, 0.484133
2078.65, 0.484176
2079.48, 0.484220
2080.32, 0.484220
2081.15, 0.484220
2081.99, 0.484176
2082.83, 0.484350
2083.66, 0.484480
2084.5, 0.484350
2085.34, 0.484307
2086.18, 0.484220
2087.02, 0.484133
2087.86, 0.484220
2088.7, 0.484263
2089.54, 0.484350
2090.39, 0.484437
2091.23, 0.484437
2092.07, 0.484307
2092.92, 0.484437
2093.76, 0.484480
2094.61, 0.484437
2095.45, 0.484524
2096.3, 0.484524
2097.15, 0.484480
2098.0, 0.484393
2098.85, 0.484393
2099.7, 0.484350
2100.55, 0.484393
2101.4, 0.484437
2102.25, 0.484524
2103.1, 0.484480
2103.96, 0.484350
2104.81, 0.484263
2105.67, 0.484350
2106.52, 0.484393
2107.38, 0.484350
2108.24, 0.484176
2109.09, 0.484220
2109.95, 0.484350
2110.81, 0.484220
2111.67, 0.484090
2112.53, 0.484046
2113.39, 0.484003
2114.25, 0.483872
2115.12, 0.483742
2115.98, 0.483742
2116.84, 0.483786
2117.71, 0.483872
2118.58, 0.483786
2119.44, 0.483612
2120.31, 0.483568
2121.18, 0.483699
2122.04, 0.483655
2122.91, 0.483525
2123.78, 0.483438
2124.65, 0.483351
2125.52, 0.483308
2126.4, 0.483351
2127.27, 0.483265
2128.14, 0.483134
2129.02, 0.483004
2129.89, 0.482961
2130.77, 0.482917
2131.64, 0.482744
2132.52, 0.482570
2133.4, 0.482570
2134.27, 0.482483
2135.15, 0.482396
2136.03, 0.482440
2136.91, 0.482266
2137.79, 0.482136
2138.68, 0.482049
2139.56, 0.481919
2140.44, 0.481745
2141.33, 0.481788
2142.21, 0.481658
2143.1, 0.481615
2143.99, 0.481484
2144.87, 0.481397
2145.76, 0.481311
2146.65, 0.481224
2147.54, 0.481094
2148.43, 0.481050
2149.32, 0.481050
2150.21, 0.480833
2151.1, 0.480572
2151.99, 0.480442
2152.89, 0.480312
2153.78, 0.480138
2154.68, 0.480051
2155.57, 0.480008
2156.47, 0.479878
2157.37, 0.479704
2158.27, 0.479487
2159.16, 0.479400
2160.06, 0.479357
2160.96, 0.479226
2161.86, 0.479053
2162.77, 0.478923
2163.67, 0.478792
2164.57, 0.478575
2165.48, 0.478402
2166.38, 0.478271
2167.29, 0.477967
2168.2, 0.477880
2169.1, 0.477794
2170.01, 0.477533
2170.92, 0.477186
2171.83, 0.476969
2172.74, 0.476708
2173.65, 0.476491
2174.56, 0.476274
2175.47, 0.476013
2176.39, 0.475709
2177.3, 0.475362
2178.22, 0.475058
2179.13, 0.474798
2180.05, 0.474450
2180.96, 0.474059
2181.88, 0.473669
2182.8, 0.473321
2183.72, 0.472931
2184.64, 0.472540
2185.56, 0.472192
2186.48, 0.471802
2187.41, 0.471367
2188.33, 0.470977
2189.25, 0.470673
2190.18, 0.470369
2191.1, 0.470021
2192.03, 0.469717
2192.96, 0.469370
2193.89, 0.469110
2194.82, 0.468936
2195.74, 0.468806
2196.68, 0.468632
2197.61, 0.468545
2198.54, 0.468545
2199.47, 0.468415
2200.4, 0.468328
2201.34, 0.468285
2202.28, 0.468285
2203.21, 0.468285
2204.15, 0.468198
2205.08, 0.468285
2206.02, 0.468285
2206.96, 0.468241
2207.9, 0.468415
2208.84, 0.468675
2209.78, 0.468675
2210.73, 0.468719
2211.67, 0.468849
2212.61, 0.469023
2213.56, 0.469023
2214.5, 0.469196
2215.45, 0.469240
2216.4, 0.469283
2217.35, 0.469457
2218.3, 0.469544
2219.24, 0.469631
2220.2, 0.469587
2221.15, 0.469631
2222.1, 0.469717
2223.05, 0.469717
2224.0, 0.469761
2224.96, 0.469804
2225.91, 0.469848
2226.87, 0.469848
2227.83, 0.469891
2228.79, 0.469848
2229.74, 0.469848
2230.7, 0.469935
2231.66, 0.470021
2232.63, 0.469935
2233.59, 0.469978
2234.55, 0.469804
2235.51, 0.469717
2236.48, 0.469717
2237.44, 0.469761
2238.41, 0.469674
2239.38, 0.469587
2240.34, 0.469631
2241.31, 0.469587
2242.28, 0.469544
2243.25, 0.469414
2244.22, 0.469283
2245.19, 0.469327
2246.17, 0.469240
2247.14, 0.469110
2248.12, 0.469023
2249.09, 0.469023
2250.07, 0.469023
2251.04, 0.468893
2252.02, 0.468849
2253.0, 0.468936
2253.98, 0.468979
2254.96, 0.468893
2255.94, 0.468806
2256.92, 0.468849
2257.91, 0.468979
2258.89, 0.468979
2259.88, 0.468936
2260.86, 0.468893
2261.85, 0.468979
2262.83, 0.469066
2263.82, 0.468979
2264.81, 0.468893
2265.8, 0.469023
2266.79, 0.468893
2267.78, 0.468806
2268.78, 0.468762
2269.77, 0.468849
2270.76, 0.468893
2271.76, 0.468893
2272.75, 0.468936
2273.75, 0.469023
2274.75, 0.469023
2275.75, 0.468893
2276.75, 0.468979
2277.75, 0.468936
2278.75, 0.468893
2279.75, 0.468979
2280.75, 0.469023
2281.76, 0.469066
2282.76, 0.468979
2283.77, 0.468893
2284.77, 0.468979
2285.78, 0.469110
2286.79, 0.469066
2287.8, 0.468979
2288.81, 0.469023
2289.82, 0.469110
2290.83, 0.469110
2291.84, 0.469153
2292.86, 0.469196
2293.87, 0.469153
2294.89, 0.469196
2295.91, 0.469283
2296.92, 0.469283
2297.94, 0.469283
2298.96, 0.469370
2299.98, 0.469370
2301.0, 0.469544
2302.02, 0.469587
2303.04, 0.469631
2304.07, 0.469804
2305.09, 0.469848
2306.12, 0.469978
2307.15, 0.470108
2308.17, 0.470152
2309.2, 0.470239
2310.23, 0.470195
2311.26, 0.470195
2312.29, 0.470239
2313.32, 0.470412
2314.35, 0.470499
2315.39, 0.470629
2316.42, 0.470760
2317.46, 0.470803
2318.5, 0.470933
2319.53, 0.471150
2320.57, 0.471150
2321.61, 0.471150
2322.65, 0.471107
2323.69, 0.471107
2324.73, 0.471194
2325.78, 0.471281
2326.82, 0.471367
2327.86, 0.471411
2328.91, 0.471498
2329.96, 0.471541
2331.01, 0.471671
2332.05, 0.471758
2333.1, 0.471758
2334.15, 0.471758
2335.21, 0.471845
2336.26, 0.471845
2337.31, 0.471758
2338.36, 0.471715
2339.42, 0.471802
2340.48, 0.471758
2341.53, 0.471671
2342.59, 0.471671
2343.65, 0.471715
2344.71, 0.471715
2345.77, 0.471715
2346.83, 0.471715
2347.9, 0.471671
2348.96, 0.471541
2350.02, 0.471541
2351.09, 0.471671
2352.16, 0.471715
2353.23, 0.471585
2354.29, 0.471628
2355.36, 0.471758
2356.43, 0.471758
2357.51, 0.471715
2358.58, 0.471715
2359.65, 0.471628
2360.73, 0.471628
2361.8, 0.471585
2362.88, 0.471498
2363.96, 0.471498
2365.03, 0.471454
2366.11, 0.471498
2367.19, 0.471454
2368.27, 0.471367
2369.36, 0.471281
2370.44, 0.471150
2371.53, 0.470977
2372.61, 0.470846
2373.7, 0.470890
2374.78, 0.470760
2375.87, 0.470586
2376.96, 0.470542
2378.05, 0.470412
2379.14, 0.470325
2380.24, 0.470108
2381.33, 0.470021
2382.42, 0.469978
2383.52, 0.470021
2384.61, 0.469891
2385.71, 0.469674
2386.81, 0.469500
2387.91, 0.469414
2389.01, 0.469370
2390.11, 0.469240
2391.22, 0.469153
2392.32, 0.468979
2393.42, 0.468893
2394.53, 0.468762
2395.64, 0.468545
2396.74, 0.468328
2397.85, 0.468241
2398.96, 0.468111
2400.07, 0.467894
2401.18, 0.467764
2402.3, 0.467720
2403.41, 0.467503
2404.52, 0.467416
2405.64, 0.467199
2406.76, 0.467069
2407.88, 0.466982
2408.99, 0.466765
2410.11, 0.466548
2411.23, 0.466331
2412.36, 0.466244
2413.48, 0.466070
2414.6, 0.465853
2415.73, 0.465679
2416.85, 0.465419
2417.98, 0.465158
2419.11, 0.465158
2420.24, 0.464985
2421.37, 0.464768
2422.5, 0.464507
2423.64, 0.464247
2424.77, 0.464029
2425.9, 0.463769
2427.04, 0.463508
2428.18, 0.463291
2429.31, 0.463074
2430.45, 0.462857
2431.59, 0.462640
2432.73, 0.462380
2433.88, 0.462249
2435.02, 0.462076
2436.16, 0.461772
2437.31, 0.461511
2438.45, 0.461337
2439.6, 0.461251
2440.75, 0.461033
2441.9, 0.460773
2443.05, 0.460556
2444.2, 0.460339
2445.35, 0.460165
2446.51, 0.460035
2447.67, 0.459731
2448.82, 0.459470
2449.98, 0.459340
2451.14, 0.459123
2452.3, 0.458993
2453.46, 0.458819
2454.62, 0.458472
2455.78, 0.458211
2456.94, 0.457994
2458.11, 0.457734
2459.28, 0.457560
2460.44, 0.457430
2461.61, 0.457256
2462.78, 0.457039
2463.95, 0.456865
2465.12, 0.456648
2466.3, 0.456474
2467.47, 0.456214
2468.65, 0.456040
2469.82, 0.455823
2471.0, 0.455693
2472.18, 0.455519
2473.36, 0.455389
2474.54, 0.455172
2475.72, 0.454998
2476.9, 0.454824
2478.08, 0.454607
2479.27, 0.454477
2480.46, 0.454303
2481.64, 0.454086
2482.83, 0.453869
2484.02, 0.453826
2485.21, 0.453739
2486.4, 0.453609
2487.6, 0.453435
2488.79, 0.453261
2489.99, 0.453131
2491.18, 0.452871
2492.38, 0.452653
2493.58, 0.452436
2494.78, 0.452350
2495.98, 0.452263
2497.18, 0.452132
2498.39, 0.452002
2499.59, 0.451959
2500.8, 0.451742
2502.01, 0.451438
2503.21, 0.451177
2504.42, 0.451047
2505.63, 0.450830
2506.84, 0.450700
2508.06, 0.450526
2509.27, 0.450352
2510.49, 0.450179
2511.7, 0.449918
2512.92, 0.449744
2514.14, 0.449657
2515.36, 0.449440
2516.58, 0.449223
2517.8, 0.449093
2519.03, 0.448919
2520.25, 0.448746
2521.48, 0.448529
2522.7, 0.448268
2523.93, 0.448007
2525.16, 0.447964
2526.39, 0.447790
2527.62, 0.447486
2528.86, 0.447313
2530.09, 0.447096
2531.33, 0.446792
2532.56, 0.446618
2533.8, 0.446531
2535.04, 0.446227
2536.28, 0.445967
2537.52, 0.445967
2538.76, 0.445837
2540.01, 0.445706
2541.25, 0.445315
2542.5, 0.444838
2543.75, 0.444838
2544.99, 0.444794
2546.24, 0.444577
2547.49, 0.444273
2548.75, 0.444230
2550.0, 0.444013
2551.26, 0.443579
2552.51, 0.443231
2553.77, 0.443448
2555.03, 0.443622
2556.29, 0.443579
2557.55, 0.443275
2558.81, 0.442841
2560.08, 0.441842
2561.34, 0.440973
2562.61, 0.440887
2563.88, 0.440930
2565.14, 0.441494
2566.41, 0.441929
2567.68, 0.441494
2568.96, 0.440539
2570.23, 0.440583
2571.51, 0.440800
2572.78, 0.439627
2574.06, 0.439888
2575.34, 0.440105
2576.62, 0.439627
2577.9, 0.440018
2579.18, 0.440192
2580.47, 0.439584
2581.75, 0.439280
2583.04, 0.438021
2584.32, 0.438021
2585.61, 0.438716
2586.9, 0.438195
2588.2, 0.438368
2589.49, 0.438759
2590.78, 0.439020
2592.08, 0.438455
2593.37, 0.435285
2594.67, 0.432984
2595.97, 0.435503
2597.27, 0.437977
2598.57, 0.438716
2599.88, 0.438325
2601.18, 0.437760
2602.49, 0.437283
2603.79, 0.436241
2605.1, 0.434938
2606.41, 0.435720
2607.72, 0.436501
2609.03, 0.436588
2610.35, 0.436892
2611.66, 0.437022
2612.98, 0.436718
2614.3, 0.436588
2615.62, 0.435112
2616.94, 0.434417
2618.26, 0.435155
2619.58, 0.433896
2620.91, 0.434157
2622.23, 0.435720
2623.56, 0.435806
2624.89, 0.434895
2626.22, 0.433418
2627.55, 0.433983
2628.88, 0.433245
2630.21, 0.431682
2631.55, 0.432854
2632.89, 0.433245
2634.22, 0.432984
2635.56, 0.433245
2636.9, 0.433071
2638.25, 0.432637
2639.59, 0.432116
2640.93, 0.431682
2642.28, 0.431117
2643.63, 0.430596
2644.98, 0.429728
2646.33, 0.429424
2647.68, 0.429207
2649.03, 0.428772
2650.39, 0.427774
2651.74, 0.426471
2653.1, 0.425733
2654.46, 0.425125
2655.82, 0.424300
2657.18, 0.423779
2658.54, 0.422303
2659.9, 0.421000
2661.27, 0.419958
2662.64, 0.418525
2664.01, 0.414921
2665.38, 0.411144
2666.74, 0.407714
2668.12, 0.403676
2669.49, 0.396989
2670.87, 0.393776
2672.24, 0.394427
2673.62, 0.393298
2675.0, 0.390780
2676.38, 0.388348
2677.76, 0.387046
2679.15, 0.385613
2680.54, 0.384875
2681.92, 0.383008
2683.31, 0.380663
2684.7, 0.378492
2686.09, 0.376104
2687.48, 0.373629
2688.88, 0.370937
2690.27, 0.367767
2691.67, 0.363686
2693.07, 0.358562
2694.47, 0.354394
2695.87, 0.350616
2697.27, 0.346492
2698.67, 0.342106
2700.08, 0.337851
2701.49, 0.334464
2702.9, 0.332120
2704.31, 0.329731
2705.72, 0.327257
2707.13, 0.324217
2708.54, 0.320353
2709.96, 0.315794
2711.38, 0.312103
2712.8, 0.309107
2714.22, 0.304895
2715.64, 0.300336
2717.06, 0.295777
2718.49, 0.290784
2719.91, 0.285313
2721.34, 0.281666
2722.77, 0.277801
2724.2, 0.273112
2725.63, 0.269855
2727.07, 0.266555
2728.5, 0.262691
2729.94, 0.258653
2731.38, 0.254485
2732.82, 0.249839
2734.26, 0.244802
2735.7, 0.240243
2737.15, 0.235640
2738.59, 0.230560
2740.04, 0.226435
2741.49, 0.223570
2742.94, 0.221051
2744.39, 0.218446
2745.84, 0.215797
2747.3, 0.213149
2748.76, 0.210717
2750.21, 0.208503
2751.67, 0.206419
2753.14, 0.204248
2754.6, 0.201512
2756.06, 0.199732
2757.53, 0.198560
2759.0, 0.196953
2760.46, 0.195173
2761.94, 0.193610
2763.41, 0.192785
2764.88, 0.192220
2766.36, 0.191482
2767.83, 0.190787
2769.31, 0.190136
2770.79, 0.189528
2772.27, 0.189398
2773.76, 0.189137
2775.24, 0.188660
2776.73, 0.188182
2778.22, 0.187791
2779.71, 0.187401
2781.2, 0.186966
2782.69, 0.186532
2784.18, 0.186011
2785.68, 0.185099
2787.18, 0.184405
2788.68, 0.184665
2790.18, 0.185707
2791.68, 0.187227
2793.19, 0.188877
2794.69, 0.190397
2796.2, 0.191699
2797.71, 0.192655
2799.22, 0.193393
2800.73, 0.193870
2802.24, 0.194087
2803.76, 0.194435
2805.28, 0.194956
2806.8, 0.195216
2808.32, 0.195303
2809.84, 0.195173
2811.36, 0.194999
2812.89, 0.194782
2814.42, 0.194478
2815.94, 0.194174
2817.48, 0.193914
2819.01, 0.193436
2820.54, 0.193045
2822.08, 0.192741
2823.61, 0.192264
2825.15, 0.191743
2826.69, 0.191178
2828.23, 0.190614
2829.78, 0.190049
2831.32, 0.189441
2832.87, 0.188703
2834.42, 0.188052
2835.97, 0.187357
2837.52, 0.186619
2839.08, 0.185968
2840.63, 0.185273
2842.19, 0.184448
2843.75, 0.183753
2845.31, 0.183102
2846.87, 0.182407
2848.44, 0.181843
2850.0, 0.181278
2851.57, 0.180584
2853.14, 0.179846
2854.71, 0.179194
2856.28, 0.178413
2857.86, 0.177761
2859.43, 0.177023
2861.01, 0.176198
2862.59, 0.175417
2864.17, 0.174679
2865.76, 0.173940
2867.34, 0.173376
2868.93, 0.172812
2870.52, 0.172334
2872.11, 0.171856
2873.7, 0.171466
2875.29, 0.171075
2876.89, 0.170641
2878.49, 0.170250
2880.08, 0.169946
2881.69, 0.169642
2883.29, 0.169251
2884.89, 0.168860
2886.5, 0.168643
2888.11, 0.168339
2889.72, 0.168122
2891.33, 0.167862
2892.94, 0.167688
2894.56, 0.167427
2896.17, 0.167254
2897.79, 0.167124
2899.42, 0.166906
2901.04, 0.166776
2902.66, 0.166603
2904.29, 0.166472
2905.92, 0.166385
2907.55, 0.166299
2909.18, 0.166168
2910.81, 0.166125
2912.45, 0.166125
2914.08, 0.166212
2915.72, 0.166255
2917.36, 0.166255
2919.01, 0.166212
2920.65, 0.166212
2922.3, 0.166212
2923.94, 0.166212
2925.59, 0.166342
2927.25, 0.166429
2928.9, 0.166472
2930.56, 0.166516
2932.21, 0.166603
2933.87, 0.166646
2935.53, 0.166733
2937.2, 0.166863
2938.86, 0.166993
2940.53, 0.167080
2942.2, 0.167210
2943.87, 0.167384
2945.54, 0.167384
2947.22, 0.167384
2948.89, 0.167601
2950.57, 0.167818
2952.25, 0.167949
2953.93, 0.168079
2955.62, 0.168296
2957.3, 0.168383
2958.99, 0.168643
2960.68, 0.168947
2962.37, 0.169208
2964.07, 0.169512
2965.76, 0.169772
2967.46, 0.170076
2969.16, 0.170467
2970.86, 0.170814
2972.56, 0.171248
2974.27, 0.171683
2975.98, 0.172204
2977.69, 0.172681
2979.4, 0.173159
2981.11, 0.173680
2982.83, 0.174201
2984.54, 0.174679
2986.26, 0.175330
2987.98, 0.175894
2989.71, 0.176415
2991.43, 0.176980
2993.16, 0.177544
2994.89, 0.178022
2996.62, 0.178500
2998.35, 0.178977
3000.09, 0.179542
3001.83, 0.179976
3003.57, 0.180540
3005.31, 0.181018
3007.05, 0.181409
3008.79, 0.181756
3010.54, 0.182277
3012.29, 0.182711
3014.04, 0.183102
3015.8, 0.183580
3017.55, 0.184144
3019.31, 0.184665
3021.07, 0.184969
3022.83, 0.185490
3024.59, 0.186055
3026.36, 0.186532
3028.13, 0.186966
3029.9, 0.187401
3031.67, 0.187835
3033.44, 0.188269
3035.22, 0.188877
3037.0, 0.189398
3038.78, 0.189919
3040.56, 0.190310
3042.34, 0.190787
3044.13, 0.191265
3045.92, 0.191830
3047.71, 0.192437
3049.5, 0.192958
3051.3, 0.193349
3053.09, 0.193827
3054.89, 0.194391
3056.69, 0.194956
3058.5, 0.195390
3060.3, 0.195954
3062.11, 0.196519
3063.92, 0.197127
3065.73, 0.197648
3067.55, 0.198169
3069.36, 0.198777
3071.18, 0.199341
3073.0, 0.199862
3074.82, 0.200340
3076.65, 0.200861
3078.48, 0.201469
3080.31, 0.202033
3082.14, 0.202641
3083.97, 0.203249
3085.8, 0.203900
3087.64, 0.204508
3089.48, 0.205116
3091.33, 0.205681
3093.17, 0.206288
3095.02, 0.206853
3096.87, 0.207504
3098.72, 0.208155
3100.57, 0.208763
3102.43, 0.209328
3104.28, 0.209979
3106.14, 0.210630
3108.01, 0.211325
3109.87, 0.211976
3111.74, 0.212671
3113.61, 0.213236
3115.48, 0.213843
3117.35, 0.214625
3119.23, 0.215276
3121.1, 0.215884
3122.98, 0.216536
3124.87, 0.217187
3126.75, 0.218012
3128.64, 0.218750
3130.53, 0.219445
3132.42, 0.220139
3134.31, 0.220877
3136.21, 0.221572
3138.11, 0.222310
3140.01, 0.223092
3141.91, 0.223873
3143.82, 0.224612
3145.73, 0.225350
3147.64, 0.226001
3149.55, 0.226783
3151.46, 0.227521
3153.38, 0.228302
3155.3, 0.229040
3157.22, 0.229779
3159.14, 0.230517
3161.07, 0.231255
3163.0, 0.231993
3164.93, 0.232861
3166.86, 0.233556
3168.8, 0.234251
3170.74, 0.235076
3172.68, 0.235857
3174.62, 0.236509
3176.56, 0.237290
3178.51, 0.237985
3180.46, 0.238723
3182.42, 0.239461
3184.37, 0.240243
3186.33, 0.241024
3188.29, 0.241763
3190.25, 0.242544
3192.21, 0.243239
3194.18, 0.244020
3196.15, 0.244759
3198.12, 0.245497
3200.09, 0.246235
3202.07, 0.247016
3204.05, 0.247754
3206.03, 0.248449
3208.02, 0.249187
3210.0, 0.249925
3211.99, 0.250664
3213.98, 0.251445
3215.98, 0.252183
3217.97, 0.252965
3219.97, 0.253703
3221.97, 0.254441
3223.98, 0.255179
3225.98, 0.255961
3227.99, 0.256699
3230.0, 0.257437
3232.02, 0.258175
3234.03, 0.258870
3236.05, 0.259608
3238.07, 0.260390
3240.1, 0.261171
3242.12, 0.261953
3244.15, 0.262604
3246.18, 0.263255
3248.22, 0.264037
3250.25, 0.264819
3252.29, 0.265644
3254.33, 0.266382
3256.38, 0.267120
3258.43, 0.267901
3260.47, 0.268596
3262.53, 0.269204
3264.58, 0.270029
3266.64, 0.270767
3268.7, 0.271549
3270.76, 0.272243
3272.82, 0.272938
3274.89, 0.273676
3276.96, 0.274458
3279.04, 0.275196
3281.11, 0.275977
3283.19, 0.276672
3285.27, 0.277410
3287.35, 0.278148
3289.44, 0.278887
3291.53, 0.279625
3293.62, 0.280406
3295.71, 0.281101
3297.81, 0.281883
3299.91, 0.282664
3302.01, 0.283446
3304.11, 0.284184
3306.22, 0.284965
3308.33, 0.285747
3310.44, 0.286485
3312.56, 0.287136
3314.68, 0.287831
3316.8, 0.288526
3318.92, 0.289221
3321.05, 0.289785
3323.18, 0.290480
3325.31, 0.291131
3327.44, 0.291826
3329.58, 0.292607
3331.72, 0.293259
3333.86, 0.293953
3336.01, 0.294605
3338.16, 0.295213
3340.31, 0.295864
3342.46, 0.296515
3344.61, 0.296993
3346.77, 0.297427
3348.94, 0.297861
3351.1, 0.298339
3353.27, 0.298860
3355.44, 0.299294
3357.61, 0.299685
3359.79, 0.299945
3361.97, 0.300206
3364.15, 0.300423
3366.33, 0.300770
3368.52, 0.301161
3370.71, 0.301335
3372.9, 0.301552
3375.1, 0.301856
3377.3, 0.302073
3379.5, 0.302551
3381.71, 0.303072
3383.91, 0.303593
3386.12, 0.304244
3388.34, 0.304895
3390.55, 0.305329
3392.77, 0.305720
3394.99, 0.306111
3397.22, 0.306371
3399.45, 0.306458
3401.68, 0.306415
3403.91, 0.306285
3406.15, 0.306111
3408.39, 0.306068
3410.63, 0.306111
3412.87, 0.306241
3415.12, 0.306545
3417.37, 0.307066
3419.63, 0.307848
3421.88, 0.308890
3424.14, 0.310279
3426.41, 0.311669
3428.67, 0.313102
3430.94, 0.314404
3433.21, 0.315663
3435.49, 0.316749
3437.77, 0.317791
3440.05, 0.318703
3442.33, 0.319615
3444.62, 0.320657
3446.91, 0.321612
3449.2, 0.322307
3451.5, 0.323001
3453.8, 0.323739
3456.1, 0.324608
3458.41, 0.325346
3460.72, 0.325954
3463.03, 0.326518
3465.34, 0.327083
3467.66, 0.327517
3469.98, 0.327995
3472.31, 0.328342
3474.63, 0.328646
3476.96, 0.328906
3479.3, 0.329297
3481.64, 0.329731
3483.97, 0.330209
3486.32, 0.330600
3488.66, 0.331077
3491.01, 0.331208
3493.36, 0.331295
3495.72, 0.331295
3498.08, 0.331295
3500.44, 0.331468
3502.81, 0.331859
3505.18, 0.332597
3507.55, 0.333683
3509.92, 0.334812
3512.3, 0.336158
3514.68, 0.337417
3517.06, 0.338633
3519.45, 0.339675
3521.84, 0.340586
3524.24, 0.341498
3526.64, 0.342280
3529.04, 0.342975
3531.44, 0.343713
3533.85, 0.344234
3536.26, 0.344798
3538.67, 0.345363
3541.09, 0.345927
3543.51, 0.346405
3545.93, 0.346926
3548.36, 0.347273
3550.79, 0.347664
3553.22, 0.348055
3555.66, 0.348532
3558.1, 0.348923
3560.54, 0.349357
3562.99, 0.349835
3565.44, 0.350182
3567.9, 0.350486
3570.35, 0.350834
3572.81, 0.351181
3575.28, 0.351572
3577.75, 0.351919
3580.22, 0.352310
3582.69, 0.352701
3585.17, 0.353048
3587.65, 0.353308
3590.14, 0.353699
3592.62, 0.354003
3595.11, 0.354437
3597.61, 0.354785
3600.11, 0.355089
3602.61, 0.355479
3605.11, 0.355957
3607.62, 0.356218
3610.14, 0.356652
3612.65, 0.356999
3615.17, 0.357303
3617.69, 0.357607
3620.22, 0.358041
3622.75, 0.358432
3625.28, 0.358779
3627.82, 0.358953
3630.36, 0.359257
3632.9, 0.359648
3635.45, 0.359995
3638.0, 0.360256
3640.56, 0.360603
3643.12, 0.360864
3645.68, 0.361124
3648.24, 0.361298
3650.81, 0.361602
3653.39, 0.361906
3655.96, 0.362079
3658.54, 0.362340
3661.13, 0.362644
3663.71, 0.362687
3666.3, 0.362774
3668.9, 0.362904
3671.5, 0.363121
3674.1, 0.363295
3676.7, 0.363469
3679.31, 0.363469
3681.93, 0.363556
3684.54, 0.363512
3687.17, 0.363469
3689.79, 0.363425
3692.42, 0.363599
3695.05, 0.363556
3697.69, 0.363512
3700.32, 0.363512
3702.97, 0.363599
3705.61, 0.363512
3708.27, 0.363512
3710.92, 0.363469
3713.58, 0.363469
3716.24, 0.363425
3718.91, 0.363512
3721.58, 0.363556
3724.25, 0.363642
3726.93, 0.363556
3729.61, 0.363642
3732.29, 0.363860
3734.98, 0.364077
3737.67, 0.364207
3740.37, 0.364337
3743.07, 0.364641
3745.78, 0.364858
3748.49, 0.365032
3751.2, 0.365379
3753.91, 0.365640
3756.63, 0.365900
3759.36, 0.366204
3762.09, 0.366682
3764.82, 0.366986
3767.55, 0.367420
3770.29, 0.367724
3773.04, 0.368028
3775.78, 0.368288
3778.54, 0.368592
3781.29, 0.368896
3784.05, 0.369244
3786.82, 0.369461
3789.59, 0.369678
3792.36, 0.369852
3795.13, 0.369982
3797.92, 0.370112
3800.7, 0.370329
3803.49, 0.370416
3806.28, 0.370329
3809.08, 0.370112
3811.88, 0.370155
3814.68, 0.370199
3817.49, 0.370112
3820.31, 0.369895
3823.12, 0.369852
3825.94, 0.369765
3828.77, 0.369678
3831.6, 0.369504
3834.43, 0.369330
3837.27, 0.369113
3840.11, 0.368940
3842.96, 0.368809
3845.81, 0.368853
3848.67, 0.368723
3851.53, 0.368853
3854.39, 0.368766
3857.26, 0.368723
3860.13, 0.368723
3863.01, 0.368766
3865.89, 0.368853
3868.77, 0.368983
3871.66, 0.369070
3874.55, 0.369330
3877.45, 0.369461
3880.35, 0.369634
3883.26, 0.369938
3886.17, 0.370242
3889.09, 0.370242
3892.01, 0.370416
3894.93, 0.370590
3897.86, 0.370807
3900.79, 0.370937
3903.73, 0.371067
3906.67, 0.371154
3909.62, 0.371241
3912.57, 0.371241
3915.52, 0.371154
3918.48, 0.371067
3921.45, 0.371067
3924.42, 0.370980
3927.39, 0.370850
3930.37, 0.370676
3933.35, 0.370503
3936.34, 0.370329
3939.33, 0.370025
3942.32, 0.369591
3945.32, 0.369113
3948.33, 0.368636
3951.34, 0.368202
3954.35, 0.367898
3957.37, 0.367507
3960.39, 0.366986
3963.42, 0.366682
3966.45, 0.366291
3969.49, 0.365987
3972.53, 0.365596
3975.58, 0.365466
3978.63, 0.365292
3981.68, 0.365075
3984.75, 0.364815
3987.81, 0.364858
3990.88, 0.364771
3993.95, 0.364858
3997.03, 0.364902
4000.12, 0.365075
4003.21, 0.365119
4006.3, 0.365206
4009.4, 0.365206
4012.5, 0.365379
4015.61, 0.365553
4018.72, 0.365683
4021.84, 0.365727
4024.96, 0.365857
4028.09, 0.365857
4031.22, 0.365944
4034.36, 0.366031
4037.5, 0.366204
4040.65, 0.366161
4043.8, 0.366204
4046.96, 0.366161
4050.12, 0.366248
4053.29, 0.366248
4056.46, 0.366117
4059.64, 0.365770
4062.82, 0.365640
4066.0, 0.365379
4069.19, 0.365206
4072.39, 0.364815
4075.59, 0.364598
4078.8, 0.364207
4082.01, 0.363816
4085.23, 0.363295
4088.45, 0.362948
4091.68, 0.362383
4094.91, 0.361862
4098.15, 0.361167
4101.39, 0.360646
4104.63, 0.360082
4107.89, 0.359604
4111.14, 0.358866
4114.41, 0.358302
4117.67, 0.357781
4120.95, 0.357129
4124.23, 0.356565
4127.51, 0.356087
4130.8, 0.355436
4134.09, 0.354915
4137.39, 0.354220
4140.7, 0.353743
4144.01, 0.353222
4147.32, 0.352787
4150.64, 0.352180
4153.97, 0.351745
4157.3, 0.351224
4160.64, 0.350790
4163.98, 0.350182
4167.33, 0.349705
4170.68, 0.349053
4174.04, 0.348532
4177.4, 0.347838
4180.77, 0.347230
4184.14, 0.346405
4187.52, 0.345753
4190.91, 0.345276
4194.3, 0.345015
4197.69, 0.344668
4201.1, 0.344451
4204.5, 0.344277
4207.92, 0.344103
4211.34, 0.343756
4214.76, 0.343365
4218.19, 0.342888
4221.62, 0.342454
4225.06, 0.342019
4228.51, 0.341629
4231.96, 0.341325
4235.42, 0.341411
4238.88, 0.341455
4242.35, 0.341629
4245.83, 0.341715
4249.31, 0.342106
4252.79, 0.342367
4256.28, 0.342236
4259.78, 0.341498
4263.29, 0.340760
4266.79, 0.339805
4270.31, 0.338806
4273.83, 0.337938
4277.35, 0.337243
4280.89, 0.336592
4284.42, 0.336201
4287.97, 0.335810
4291.52, 0.335637
4295.07, 0.335723
4298.63, 0.336114
4302.2, 0.336114
4305.78, 0.336331
4309.35, 0.336505
4312.94, 0.336722
4316.53, 0.336896
4320.13, 0.336939
4323.73, 0.336809
4327.34, 0.336592
4330.96, 0.336027
4334.58, 0.335419
4338.21, 0.334855
4341.84, 0.334160
4345.48, 0.332945
4349.12, 0.331859
4352.77, 0.330556
4356.43, 0.329124
4360.1, 0.327474
4363.76, 0.325824
4367.44, 0.324043
4371.12, 0.322524
4374.81, 0.320440
4378.51, 0.318138
4382.21, 0.316011
4385.92, 0.314187
4389.63, 0.312146
4393.35, 0.310192
4397.08, 0.308021
4400.81, 0.306068
4404.55, 0.304157
4408.29, 0.302420
4412.04, 0.300770
4415.8, 0.299294
4419.57, 0.297687
4423.34, 0.296081
4427.12, 0.294301
4430.9, 0.292998
4434.69, 0.291782
4438.49, 0.290697
4442.29, 0.289351
4446.1, 0.288048
4449.92, 0.286485
4453.74, 0.284879
4457.57, 0.283012
4461.41, 0.281405
4465.25, 0.280059
4469.1, 0.280059
4472.95, 0.280710
4476.82, 0.281405
4480.69, 0.282187
4484.56, 0.283489
4488.44, 0.284488
4492.33, 0.285877
4496.23, 0.287614
4500.13, 0.290132
4504.04, 0.292738
4507.96, 0.295951
4511.88, 0.299555
4515.81, 0.303115
4519.75, 0.306328
4523.69, 0.309541
4527.65, 0.312320
4531.6, 0.314882
4535.57, 0.317183
4539.54, 0.319224
4543.52, 0.320961
4547.5, 0.322914
4551.5, 0.324304
4555.5, 0.325607
4559.5, 0.326388
4563.52, 0.327126
4567.54, 0.327387
4571.56, 0.327821
4575.6, 0.327778
4579.64, 0.327908
4583.69, 0.327908
4587.75, 0.327691
4591.81, 0.327170
4595.88, 0.326692
4599.96, 0.325867
4604.04, 0.325346
4608.14, 0.324564
4612.24, 0.323739
4616.34, 0.322697
4620.46, 0.321655
4624.58, 0.320266
4628.71, 0.318746
4632.84, 0.316662
4636.99, 0.314795
4641.14, 0.312624
4645.3, 0.310583
4649.47, 0.308021
4653.64, 0.305633
4657.82, 0.303158
4662.01, 0.300727
4666.21, 0.297905
4670.41, 0.295169
4674.62, 0.292390
4678.84, 0.290784
4683.07, 0.290002
4687.3, 0.290610
4691.54, 0.291522
4695.79, 0.293823
4700.05, 0.295951
4704.31, 0.297861
4708.59, 0.299511
4712.87, 0.301031
4717.15, 0.301726
4721.45, 0.302333
4725.76, 0.302160
4730.07, 0.302247
4734.39, 0.301943
4738.72, 0.301682
4743.05, 0.301291
4747.39, 0.300683
4751.75, 0.299641
4756.1, 0.298860
4760.47, 0.297557
4764.85, 0.296602
4769.23, 0.295430
4773.62, 0.294518
4778.02, 0.293172
4782.43, 0.291826
4786.85, 0.290219
4791.27, 0.289003
4795.7, 0.287354
4800.14, 0.285443
4804.59, 0.283098
4809.05, 0.281622
4813.51, 0.279494
4817.99, 0.277193
4822.47, 0.274458
4826.96, 0.272243
4831.46, 0.269551
4835.96, 0.266642
4840.48, 0.263429
4845.0, 0.260650
4849.54, 0.256786
4854.08, 0.252965
4858.63, 0.248579
4863.18, 0.244194
4867.75, 0.238984
4872.33, 0.233209
4876.91, 0.226696
4881.5, 0.220009
4886.1, 0.212107
4890.71, 0.203727
4895.33, 0.194608
4899.96, 0.185273
4904.59, 0.175851
4909.24, 0.167558
4913.89, 0.159872
4918.55, 0.153359
4923.22, 0.147802
4927.9, 0.143981
4932.59, 0.140594
4937.29, 0.138206
4942.0, 0.135991
4946.71, 0.133820
4951.44, 0.130694
4956.17, 0.127134
4960.91, 0.122748
4965.67, 0.118493
4970.43, 0.113717
4975.2, 0.109201
4979.98, 0.105163
4984.76, 0.102124
4989.56, 0.0994320
4994.37, 0.0976520
4999.18, 0.0960450
5004.01, 0.0951770
5008.84, 0.0941780
5013.69, 0.0940040
5018.54, 0.0937000
5023.4, 0.0938740
5028.28, 0.0938310
5033.16, 0.0943080
5038.05, 0.0943950
5042.95, 0.0946120
5047.86, 0.0943520
5052.78, 0.0948730
5057.71, 0.0946560
5062.65, 0.0950030
5067.6, 0.0953070
5072.56, 0.0960450
5077.53, 0.0970870
5082.5, 0.0987370
5087.49, 0.100257
5092.49, 0.102037
5097.5, 0.103036
5102.51, 0.104859
5107.54, 0.105858
5112.58, 0.106075
5117.62, 0.105771
5122.68, 0.105988
5127.75, 0.106075
5132.82, 0.106292
5137.91, 0.106422
5143.01, 0.107030
5148.12, 0.107421
5153.23, 0.107942
5158.36, 0.108420
5163.5, 0.109245
5168.65, 0.109549
5173.81, 0.110157
5178.98, 0.110504
5184.15, 0.111025
5189.34, 0.110547
5194.54, 0.110417
5199.75, 0.109332
5204.98, 0.108116
5210.21, 0.105771
5215.45, 0.103036
5220.7, 0.0987370
5225.96, 0.0939610
5231.23, 0.0889680
5236.52, 0.0838870
5241.81, 0.0787640
5247.12, 0.0744220
5252.44, 0.0700360
5257.76, 0.0662590
5263.1, 0.0627420
5268.45, 0.0601370
5273.81, 0.0572710
5279.18, 0.0550570
5284.56, 0.0528860
5289.95, 0.0512360
5295.36, 0.0492380
5300.77, 0.0480230
5306.2, 0.0466760
5311.63, 0.0463730
5317.08, 0.0456780
5322.54, 0.0454170
5328.01, 0.0445490
5333.49, 0.0440710
5338.98, 0.0436370
5344.49, 0.0436810
5350.0, 0.0435940
5355.53, 0.0442020
5361.07, 0.0451130
5366.62, 0.0468500
5372.18, 0.0490210
5377.75, 0.0517570
5383.34, 0.0546220
5388.93, 0.0587040
5394.54, 0.0631330
5400.16, 0.0682560
5405.79, 0.0734230
5411.44, 0.0788070
5417.09, 0.0833230
5422.76, 0.0877520
5428.43, 0.0920940
5434.12, 0.0960450
5439.83, 0.0989980
5445.54, 0.101125
5451.26, 0.101950
5457.0, 0.102297
5462.75, 0.101473
5468.52, 0.100691
5474.29, 0.0991280
5480.08, 0.0972170
5485.88, 0.0948730
5491.69, 0.0928320
5497.51, 0.0906610
5503.35, 0.0887940
5509.2, 0.0858410
5515.06, 0.0831930
5520.93, 0.0808910
5526.82, 0.0788070
5532.71, 0.0761590
5538.63, 0.0742050
5544.55, 0.0721640
5550.49, 0.0706880
5556.44, 0.0692110
5562.4, 0.0685170
5568.37, 0.0676920
5574.36, 0.0671270
5580.36, 0.0666060
5586.37, 0.0669100
5592.4, 0.0673440
5598.44, 0.0682130
5604.49, 0.0692110
5610.56, 0.0707310
5616.63, 0.0721640
5622.73, 0.0744650
5628.83, 0.0770700
5634.95, 0.0802400
5641.08, 0.0835830
5647.23, 0.0882290
5653.39, 0.0927890
5659.56, 0.0979990
5665.74, 0.103122
5671.94, 0.107421
5678.15, 0.110678
5684.38, 0.114108
5690.62, 0.116930
5696.87, 0.118927
5703.14, 0.119492
5709.42, 0.120100
5715.72, 0.120317
5722.03, 0.120187
5728.35, 0.119014
5734.69, 0.117972
5741.03, 0.116409
5747.4, 0.114933
5753.78, 0.113326
5760.17, 0.111459
5766.58, 0.109158
5773.0, 0.108072
5779.44, 0.106162
5785.88, 0.103947
5792.35, 0.101603
5798.83, 0.0991710
5805.32, 0.0965230
5811.83, 0.0943080
5818.35, 0.0913990
5824.89, 0.0889240
5831.45, 0.0865790
5838.01, 0.0844520
5844.59, 0.0818470
5851.19, 0.0793280
5857.8, 0.0765490
5864.43, 0.0737270
5871.07, 0.0706440
5877.73, 0.0675620
5884.4, 0.0646090
5891.09, 0.0620470
5897.79, 0.0590510
5904.5, 0.0566200
5911.23, 0.0540580
5917.98, 0.0522340
5924.75, 0.0503240
5931.53, 0.0489780
5938.32, 0.0478490
5945.13, 0.0481960
5951.96, 0.0484130
5958.8, 0.0493690
5965.65, 0.0503240
5972.53, 0.0517130
5979.42, 0.0527550
5986.32, 0.0540580
5993.24, 0.0552740
6000.18, 0.0565330
6007.13, 0.0569240
6014.1, 0.0576180
6021.08, 0.0577920
6028.09, 0.0579220
6035.1, 0.0578790
6042.14, 0.0575310
6049.19, 0.0566630
6056.25, 0.0569670
6063.34, 0.0571410
6070.44, 0.0564460
6077.55, 0.0552300
6084.69, 0.0543180
6091.84, 0.0524080
6099.0, 0.0506280
6106.19, 0.0486300
6113.39, 0.0468940
6120.61, 0.0449830
6127.84, 0.0429860
6135.09, 0.0405540
6142.36, 0.0383830
6149.65, 0.0356480
6156.95, 0.0330430
6164.27, 0.0307410
6171.61, 0.0290910
6178.97, 0.0270070
6186.34, 0.0259650
6193.73, 0.0252700
6201.14, 0.0247490
6208.57, 0.0243150
6216.01, 0.0245320
6223.47, 0.0246190
6230.95, 0.0250530
6238.45, 0.0254010
6245.97, 0.0260090
6253.5, 0.0269200
6261.06, 0.0283530
6268.63, 0.0291350
6276.21, 0.0304370
6283.82, 0.0317830
6291.45, 0.0333900
6299.1, 0.0346060
6306.76, 0.0362120
6314.44, 0.0378190
6322.14, 0.0396420
6329.86, 0.0413790
6337.6, 0.0430730
6345.35, 0.0442020
6353.13, 0.0461550
6360.92, 0.0474580
6368.74, 0.0488470
6376.57, 0.0506710
6384.43, 0.0525380
6392.3, 0.0539280
6400.19, 0.0551870
6408.1, 0.0552740
6416.03, 0.0554040
6423.98, 0.0555780
6431.95, 0.0553600
6439.94, 0.0541450
6447.95, 0.0531030
6455.98, 0.0516700
6464.03, 0.0499760
6472.1, 0.0476750
6480.19, 0.0449400
6488.31, 0.0418130
6496.44, 0.0392080
6504.59, 0.0363860
6512.76, 0.0339110
6520.95, 0.0311760
6529.16, 0.0290910
6537.4, 0.0270510
6545.65, 0.0260950
6553.92, 0.0250970
6562.22, 0.0246190
6570.54, 0.0244020
6578.88, 0.0247490
6587.23, 0.0248360
6595.61, 0.0253570
6604.02, 0.0254440
6612.44, 0.0252270
6620.89, 0.0249230
6629.35, 0.0249660
6637.84, 0.0248360
6646.35, 0.0246630
6654.88, 0.0240550
6663.44, 0.0235770
6672.01, 0.0227950
6680.61, 0.0221010
6689.23, 0.0212760
6697.88, 0.0208850
6706.54, 0.0202770
6715.23, 0.0203640
6723.94, 0.0203640
6732.67, 0.0206240
6741.42, 0.0204940
6750.2, 0.0207550
6759.0, 0.0209280
6767.82, 0.0212320
6776.67, 0.0211020
6785.54, 0.0212320
6794.44, 0.0213630
6803.35, 0.0215800
6812.29, 0.0211890
6821.26, 0.0210590
6830.24, 0.0207980
6839.25, 0.0210150
6848.29, 0.0207980
6857.35, 0.0204510
6866.43, 0.0200170
6875.54, 0.0201900
6884.67, 0.0198860
6893.82, 0.0196690
6903.0, 0.0190610
6912.2, 0.0188010
6921.43, 0.0182360
6930.69, 0.0177590
6939.96, 0.0172380
6949.27, 0.0165860
6958.59, 0.0156310
6967.95, 0.0152400
6977.33, 0.0144150
6986.73, 0.0137640
6996.16, 0.0130690
7005.61, 0.0124620
7015.09, 0.0115500
7024.6, 0.0111590
7034.13, 0.0106380
7043.69, 0.00998700
7053.27, 0.00924800
7062.88, 0.00903100
7072.52, 0.00855400
7082.18, 0.00846700
7091.87, 0.00798900
7101.58, 0.00777200
7111.32, 0.00699100
7121.09, 0.00651300
7130.88, 0.00590500
7140.71, 0.00560100
7150.56, 0.00495000
7160.43, 0.00486300
7170.33, 0.00442900
7180.27, 0.00421200
7190.23, 0.00386400
7200.21, 0.00360400
7210.23, 0.00303900
7220.27, 0.00295300
7230.34, 0.00260500
7240.44, 0.00217100
7250.56, 0.00147600
7260.72, 0.00152000
7270.9, 0.00125900
7281.12, 0.000955000
7291.36, 0.000434000
7301.63, 0.000521000
7311.93, 0.000347000
7322.25, 0.000434000
7332.61, 0.000217000
7343.0, 8.70000e-005
7405.93, 0.000000
7502.39, 0.000000
7513.27, 0.000347000
7524.17, 0.000217000
7535.11, 0.000782000
7546.08, 0.00121600
7557.08, 0.00143300
7568.11, 0.00130300
7579.17, 0.00178000
7590.27, 0.00221400
7601.4, 0.00282200
7612.56, 0.00330000
7623.76, 0.00373400
7634.98, 0.00399500
7646.24, 0.00495000
7657.54, 0.00547100
7668.87, 0.00655600
7680.23, 0.00729500
7691.62, 0.00785900
7703.05, 0.00842300
7714.51, 0.00911800
7726.01, 0.00963900
7737.54, 0.0105940
7749.11, 0.0113760
7760.71, 0.0121140
7772.35, 0.0125920
7784.02, 0.0131130
7795.72, 0.0134600
7807.46, 0.0140250
7819.23, 0.0146330
7831.04, 0.0155010
7842.89, 0.0163690
7854.77, 0.0174980
7866.69, 0.0188440
7878.65, 0.0205810
7890.64, 0.0220140
7902.67, 0.0237070
7914.74, 0.0254440
7926.84, 0.0273980
7938.98, 0.0291350
7951.16, 0.0310890
7963.37, 0.0329560
7975.62, 0.0346060
7987.91, 0.0357780
8000.24, 0.0373850
8012.6, 0.0386000
8025.01, 0.0394250
8037.45, 0.0403370
8049.93, 0.0419870
8062.45, 0.0430730
8075.01, 0.0443750
8087.61, 0.0455480
8100.24, 0.0465460
8112.91, 0.0470670
8125.63, 0.0479360
8138.39, 0.0484570
8151.18, 0.0485440
8164.02, 0.0475450
8176.9, 0.0462860
8189.81, 0.0445050
8202.77, 0.0419870
8215.77, 0.0396420
8228.82, 0.0377320
8241.9, 0.0360820
8255.02, 0.0346490
8268.19, 0.0330860
8281.39, 0.0317830
8294.65, 0.0303940
8307.94, 0.0292220
8321.28, 0.0278760
8334.66, 0.0270070
8348.08, 0.0262260
8361.54, 0.0258350
8375.05, 0.0251840
8388.6, 0.0246190
8402.2, 0.0240110
8415.84, 0.0234030
8429.52, 0.0228390
8443.25, 0.0231430
8457.02, 0.0227950
8470.84, 0.0224920
8484.7, 0.0223610
8498.61, 0.0221880
8512.57, 0.0214930
8526.57, 0.0208420
8540.62, 0.0204510
8554.71, 0.0199300
8568.85, 0.0191050
8583.04, 0.0181930
8597.27, 0.0171510
8611.55, 0.0157610
8625.88, 0.0153710
8640.26, 0.0162390
8654.68, 0.0174980
8669.16, 0.0188440
8683.68, 0.0192350
8698.25, 0.0193650
8712.87, 0.0196260
8727.53, 0.0199300
8742.25, 0.0199730
8757.02, 0.0198860
8771.83, 0.0201030
8786.7, 0.0204940
8801.62, 0.0202340
8816.59, 0.0201030
8831.61, 0.0202340
8846.68, 0.0206680
8861.8, 0.0205810
8876.97, 0.0204940
8892.2, 0.0205380
8907.48, 0.0211460
8922.81, 0.0214930
8938.2, 0.0214490
8953.63, 0.0214060
8969.13, 0.0216670
8984.67, 0.0219270
9000.27, 0.0223610
9015.92, 0.0224050
9031.63, 0.0225350
9047.39, 0.0234900
9063.21, 0.0240110
9079.08, 0.0237940
9095.01, 0.0237940
9111.0, 0.0246190
9127.04, 0.0252270
9143.13, 0.0257480
9159.28, 0.0262260
9175.49, 0.0269200
9191.76, 0.0271810
9208.09, 0.0270940
9224.47, 0.0274410
9240.92, 0.0277450
9257.42, 0.0280490
9273.98, 0.0282230
9290.6, 0.0288310
9307.28, 0.0296560
9324.02, 0.0292650
9340.82, 0.0287870
9357.68, 0.0283530
9374.6, 0.0278320
9391.58, 0.0278760
9408.62, 0.0279190
9425.73, 0.0277890
9442.9, 0.0277450
9460.13, 0.0277020
9477.42, 0.0280930
9494.78, 0.0285270
9512.2, 0.0288310
9529.69, 0.0290480
9547.24, 0.0287870
9564.86, 0.0290480
9582.54, 0.0296120
9600.28, 0.0295690
9618.1, 0.0302640
9635.97, 0.0316970
9653.92, 0.0329560
9671.93, 0.0341280
9690.01, 0.0348660
9708.16, 0.0353870
9726.37, 0.0363860
9744.65, 0.0376890
9763.0, 0.0385140
9781.43, 0.0393390
9799.92, 0.0402500
9818.48, 0.0408150
9837.1, 0.0412490
9855.8, 0.0420310
9874.58, 0.0427250
9893.42, 0.0431590
9912.34, 0.0430290
9931.33, 0.0432900
9950.39, 0.0438980
9969.52, 0.0441580
9988.74, 0.0438540
10008.0, 0.0436810
10027.4, 0.0439410
10046.8, 0.0447660
10066.3, 0.0454170
10085.9, 0.0460250
10105.6, 0.0471110
10125.3, 0.0480660
10145.1, 0.0488470
10165.0, 0.0493250
10185.0, 0.0498460
10205.0, 0.0500630
10225.2, 0.0499760
10245.4, 0.0498460
10265.7, 0.0504970
10286.0, 0.0511490
10306.5, 0.0517570
10327.0, 0.0522780
10347.6, 0.0525380
10368.3, 0.0524950
10389.1, 0.0528420
10409.9, 0.0533200
10430.9, 0.0540140
10451.9, 0.0543180
10473.0, 0.0543180
10494.2, 0.0544490
10515.5, 0.0547530
10536.9, 0.0547960
10558.4, 0.0547960
10579.9, 0.0550130
10601.5, 0.0557080
10623.3, 0.0561850
10645.1, 0.0564030
10667.0, 0.0564890
10689.0, 0.0563590
10711.1, 0.0563590
10733.2, 0.0574010
10755.5, 0.0577920
10777.9, 0.0578790
10800.3, 0.0577050
10822.9, 0.0577490
10845.5, 0.0579220
10868.2, 0.0582700
10891.1, 0.0580530
10914.0, 0.0575750
10937.0, 0.0570970
10960.2, 0.0574880
10983.4, 0.0577050
11006.7, 0.0574880
11030.1, 0.0570540
11053.6, 0.0570970
11077.3, 0.0576620
11101.0, 0.0578350
11124.8, 0.0572280
11148.7, 0.0571410
11172.7, 0.0571840
11196.9, 0.0572280
11221.1, 0.0572710
11245.4, 0.0574880
11269.9, 0.0573580
11294.4, 0.0573580
11319.1, 0.0572280
11343.9, 0.0574450
11368.8, 0.0572710
11393.7, 0.0572710
11418.8, 0.0569670
11444.0, 0.0564890
11469.4, 0.0562720
11494.8, 0.0566630
11520.3, 0.0561420
11546.0, 0.0553600
11571.8, 0.0546220
11597.7, 0.0546220
11623.7, 0.0544050
11649.8, 0.0540140
11676.0, 0.0532330
11702.4, 0.0527120
11728.9, 0.0518430
11755.5, 0.0509320
11782.2, 0.0495860
11809.0, 0.0481530
11836.0, 0.0467630
11863.0, 0.0459380
11890.3, 0.0444190
11917.6, 0.0425520
11945.0, 0.0409880
11972.6, 0.0392520
12000.4, 0.0374280
12028.2, 0.0359520
12056.2, 0.0339110
12084.3, 0.0321740
12112.5, 0.0301330
12140.9, 0.0284400
12169.4, 0.0263990
12198.0, 0.0253570
12226.8, 0.0245760
12255.7, 0.0241420
12284.7, 0.0234470
12313.9, 0.0231860
12343.2, 0.0231430
12372.7, 0.0246630
12402.3, 0.0262260
12432.0, 0.0275720
12461.9, 0.0279190
12491.9, 0.0288310
12522.1, 0.0293950
12552.4, 0.0305240
12582.9, 0.0310450
12613.5, 0.0317400
12644.3, 0.0315230
12675.2, 0.0320440
12706.3, 0.0323910
12737.5, 0.0327390
12768.9, 0.0333900
12800.4, 0.0343450
12832.1, 0.0346060
12863.9, 0.0356040
12895.9, 0.0364730
12928.1, 0.0380790
12960.4, 0.0395120
12992.9, 0.0415530
13025.5, 0.0424650
13058.3, 0.0442880
13091.3, 0.0459820
13124.4, 0.0482830
13157.8, 0.0499330
13191.2, 0.0514530
13224.9, 0.0528420
13258.7, 0.0551000
13292.7, 0.0558820
13326.9, 0.0570100
13361.2, 0.0576180
13395.7, 0.0584870
13430.4, 0.0584000
13465.3, 0.0589210
13500.4, 0.0593120
13535.7, 0.0601370
13571.1, 0.0602670
13606.7, 0.0606580
13642.5, 0.0605710
13678.5, 0.0612220
13714.7, 0.0608310
13751.1, 0.0607010
13787.6, 0.0597020
13824.4, 0.0598330
13861.4, 0.0594420
13898.5, 0.0594420
13935.9, 0.0583560
13973.5, 0.0570100
14011.2, 0.0548390
14049.2, 0.0537540
14087.4, 0.0521910
14125.8, 0.0504970
14164.3, 0.0477620
14203.2, 0.0459380
14242.2, 0.0438110
14281.4, 0.0419440
14320.9, 0.0399900
14360.5, 0.0408580
14400.4, 0.0416830
14440.5, 0.0432900
14480.9, 0.0452870
14521.4, 0.0484570
14562.2, 0.0506280
14603.3, 0.0532760
14644.5, 0.0545790
14686.0, 0.0564460
14727.7, 0.0584870
14769.7, 0.0608750
14811.9, 0.0617000
14854.3, 0.0630460
14897.0, 0.0630890
14939.9, 0.0642620
14983.1, 0.0646520
15026.5, 0.0656080
15070.2, 0.0662590
15114.2, 0.0668670
15158.3, 0.0661720
15202.8, 0.0669540
15247.5, 0.0676480
15292.5, 0.0683860
15337.7, 0.0683430
15383.2, 0.0689510
15429.0, 0.0693850
15475.1, 0.0694720
15521.4, 0.0686900
15568.0, 0.0689940
15614.9, 0.0684300
15662.1, 0.0692110
15709.6, 0.0686040
15757.3, 0.0691680
15805.4, 0.0691680
15853.7, 0.0696890
15902.3, 0.0695590
15951.2, 0.0703840
16000.5, 0.0696460
16050.0, 0.0698190
16099.8, 0.0696460
16150.0, 0.0703400
16200.5, 0.0696020
16251.3, 0.0697330
16302.4, 0.0700360
16353.8, 0.0712520
16405.5, 0.0708180
16457.6, 0.0714690
16510.0, 0.0713390
16562.8, 0.0726850
16615.9, 0.0722510
16669.3, 0.0730760
16723.1, 0.0722940
16777.2, 0.0731190
16831.7, 0.0720770
16886.5, 0.0721210
16941.7, 0.0719040
16997.2, 0.0719470
17053.1, 0.0707750
17109.4, 0.0713820
17166.1, 0.0712090
17223.1, 0.0721640
17280.5, 0.0707310
17338.3, 0.0710350
17396.5, 0.0707750
17455.1, 0.0712960
17514.0, 0.0708180
17573.4, 0.0722070
17633.2, 0.0725980
17693.4, 0.0736400
17754.0, 0.0733360
17815.0, 0.0736840
17876.4, 0.0739010
17938.3, 0.0752470
18000.5, 0.0749430
18063.3, 0.0765490
18126.4, 0.0764630
18190.0, 0.0777650
18254.1, 0.0785900
18318.6, 0.0815430
18383.5, 0.0826720
18449.0, 0.0843650
18514.9, 0.0836700
18581.2, 0.0850160
18648.0, 0.0854510
18715.4, 0.0870570
18783.2, 0.0877950
18851.5, 0.0907910
18920.3, 0.0905310
18989.6, 0.0922240
19059.4, 0.0934400
19129.7, 0.0958710
19200.6, 0.0953500
19272.0, 0.0965230
19343.9, 0.0963490
19416.3, 0.0981290
19489.3, 0.0984770
19562.8, 0.0999090
19637.0, 0.0988240
19711.6, 0.100865
19786.8, 0.100691
19862.6, 0.102428
19939.0, 0.104555
20016.0, 0.107595
20093.6, 0.108289
20171.8, 0.111503
20250.6, 0.111850
20330.0, 0.114238
20410.0, 0.115758
20490.7, 0.118276
20572.0, 0.118102
20654.0, 0.120100
20736.6, 0.120534
20819.9, 0.123834
20903.8, 0.125788
20988.5, 0.128393
21073.8, 0.128002
21159.8, 0.129131
21246.5, 0.128697
21334.0, 0.130607
21422.1, 0.128784
21511.0, 0.130955
21600.7, 0.132909
21691.0, 0.134776
21782.1, 0.134472
21874.0, 0.138336
21966.7, 0.137034
22060.2, 0.137077
22154.5, 0.136382
22249.6, 0.139291
22345.5, 0.138162
22442.2, 0.140594
22539.8, 0.141072
22638.2, 0.143633
22737.5, 0.142461
22837.7, 0.143503
22938.7, 0.141289
23040.7, 0.140681
23143.5, 0.139465
23247.3, 0.144632
23352.1, 0.144328
23457.7, 0.146716
23564.4, 0.149321
23672.0, 0.152578
23780.5, 0.153620
23890.1, 0.155140
24000.7, 0.153186
24112.3, 0.154575
24225.0, 0.155444
24338.7, 0.157007
24453.5, 0.155140
24569.4, 0.156225
24686.4, 0.155965
24804.5, 0.157701
24923.8, 0.156920
