Database of Origin, USGS Spectral Database
Sample Description, See USGS database for additional info
Date Added,2016-08-03 21:30:32.920858

Data ID,USGS_dio05          
Sample ID, diopside_nmnh18685.7035
Mineral Name, diopside
Material Class,Inosilicate

Wavelength
242.1, 0.0351180
248.1, 0.0356070
253.6, 0.0352430
258.6, 0.0342410
263.6, 0.0354110
268.6, 0.0351460
273.1, 0.0350560
277.1, 0.0351750
281.1, 0.0356270
285.1, 0.0362760
289.1, 0.0372960
293.1, 0.0389040
297.1, 0.0416330
301.1, 0.0457280
305.1, 0.0507490
309.1, 0.0596620
313.1, 0.0721860
317.1, 0.0891860
321.1, 0.112016
325.1, 0.142073
329.1, 0.176088
333.1, 0.213075
337.1, 0.248443
341.1, 0.280740
345.1, 0.309056
349.1, 0.329942
353.1, 0.343284
357.1, 0.357509
360.6, 0.368280
363.6, 0.375865
366.6, 0.382072
369.6, 0.386968
372.6, 0.390031
375.6, 0.391847
378.6, 0.395022
381.1, 0.398267
383.1, 0.401193
385.1, 0.404755
387.1, 0.408674
389.1, 0.412339
391.1, 0.415323
393.1, 0.418962
395.1, 0.422531
397.1, 0.425551
399.1, 0.427867
401.1, 0.430825
403.1, 0.432046
405.1, 0.434971
407.1, 0.437698
409.1, 0.438889
411.1, 0.441737
412.8, 0.444483
415.8, 0.448679
418.8, 0.452042
421.8, 0.454573
424.8, 0.456658
427.8, 0.457173
430.8, 0.459289
433.8, 0.462500
436.8, 0.459464
439.8, 0.469957
442.8, 0.473303
445.8, 0.477724
448.8, 0.481381
451.3, 0.483007
453.3, 0.486303
455.3, 0.488405
457.3, 0.490474
459.3, 0.491304
461.3, 0.492966
463.3, 0.494639
465.3, 0.497717
467.3, 0.499466
469.3, 0.501154
471.3, 0.503663
473.3, 0.505862
475.3, 0.507821
477.3, 0.509839
479.3, 0.511824
481.3, 0.513934
483.3, 0.514942
485.3, 0.518502
487.3, 0.520730
489.3, 0.521427
491.3, 0.521620
493.3, 0.524760
495.3, 0.527404
497.3, 0.529793
499.3, 0.531492
501.3, 0.534442
503.3, 0.535401
505.3, 0.535709
507.3, 0.537639
509.3, 0.540589
511.3, 0.542847
513.3, 0.543631
515.3, 0.545500
517.3, 0.546808
519.3, 0.546712
521.3, 0.548555
523.3, 0.550231
525.3, 0.551615
527.3, 0.552882
529.3, 0.553585
531.3, 0.554175
533.3, 0.555741
535.3, 0.557119
537.3, 0.557774
539.3, 0.557012
541.3, 0.557283
543.3, 0.558636
545.3, 0.559368
547.3, 0.559801
549.3, 0.559416
551.3, 0.560327
553.3, 0.561549
555.3, 0.562237
557.3, 0.562115
559.3, 0.563233
561.3, 0.564222
563.3, 0.563199
565.3, 0.564120
567.3, 0.563817
569.3, 0.563914
571.3, 0.564848
573.3, 0.564251
575.3, 0.565074
577.3, 0.565325
579.3, 0.564676
581.3, 0.566288
583.3, 0.566035
585.3, 0.566073
587.3, 0.565271
589.3, 0.565567
591.3, 0.564328
593.3, 0.564638
595.3, 0.564311
597.3, 0.563187
599.3, 0.562961
601.1, 0.561081
602.7, 0.561771
604.3, 0.561604
605.9, 0.560945
607.5, 0.560154
609.1, 0.560641
610.7, 0.559754
612.3, 0.559367
613.9, 0.559284
615.5, 0.559646
617.1, 0.557631
618.7, 0.557359
620.3, 0.557666
621.9, 0.557983
623.5, 0.556927
625.1, 0.555550
626.7, 0.555924
628.3, 0.555737
629.9, 0.554648
631.7, 0.554875
633.7, 0.552072
635.7, 0.553899
637.7, 0.553313
639.7, 0.552208
641.7, 0.551458
643.7, 0.551252
645.7, 0.551219
647.7, 0.550631
649.7, 0.549803
651.7, 0.549027
653.7, 0.547278
655.7, 0.547475
657.7, 0.546313
659.7, 0.545821
661.7, 0.544903
663.7, 0.544657
665.7, 0.543366
667.7, 0.542375
670.2, 0.540235
673.2, 0.538625
676.2, 0.538543
679.2, 0.537398
682.2, 0.535752
685.2, 0.534498
688.2, 0.532144
691.2, 0.530886
694.2, 0.529348
697.2, 0.528626
700.2, 0.527628
702.0, 0.527143
704.0, 0.525703
706.0, 0.523516
708.0, 0.523401
710.0, 0.523231
712.0, 0.520924
714.0, 0.519772
716.0, 0.518826
718.0, 0.516873
720.0, 0.515849
722.0, 0.516400
724.0, 0.514371
726.0, 0.514259
728.0, 0.512885
730.0, 0.511335
732.0, 0.510060
734.0, 0.508702
736.0, 0.507737
738.0, 0.505422
740.0, 0.504963
742.0, 0.503256
744.0, 0.502580
746.0, 0.503051
748.0, 0.501750
750.5, 0.498306
753.5, 0.498158
756.5, 0.495244
759.5, 0.494313
762.5, 0.492329
765.5, 0.490225
768.5, 0.488899
771.5, 0.486625
774.5, 0.485776
777.5, 0.484393
781.0, 0.481434
785.0, 0.479924
789.0, 0.477526
793.0, 0.475905
797.0, 0.474756
801.5, 0.471859
806.5, 0.471831
811.5, 0.470356
816.5, 0.469407
822.0, 0.467889
828.0, 0.465966
835.0, 0.465481
843.0, 0.464253
851.0, 0.465565
859.0, 0.462352
871.0, 0.459797
883.0, 0.457873
894.0, 0.453333
904.0, 0.442594
914.0, 0.435244
924.0, 0.427537
933.0, 0.419365
941.0, 0.412665
949.0, 0.406122
957.0, 0.398553
964.0, 0.392860
970.0, 0.389698
976.0, 0.383895
982.0, 0.379841
988.0, 0.374682
994.0, 0.372065
1000.0, 0.366892
1006.0, 0.362323
1012.0, 0.358249
1018.0, 0.353766
1023.5, 0.350557
1028.5, 0.346523
1033.5, 0.346762
1038.5, 0.341875
1043.5, 0.342138
1048.5, 0.340101
1053.5, 0.338807
1058.5, 0.339536
1063.5, 0.341172
1068.5, 0.339815
1073.5, 0.342334
1078.5, 0.345111
1083.5, 0.347195
1088.5, 0.352321
1093.5, 0.354172
1098.5, 0.358966
1103.5, 0.362788
1108.5, 0.369266
1113.5, 0.373678
1118.5, 0.378988
1123.5, 0.382083
1128.5, 0.386432
1133.5, 0.391865
1138.5, 0.395241
1143.5, 0.398744
1148.5, 0.401776
1153.5, 0.406629
1158.5, 0.408281
1163.5, 0.413080
1168.5, 0.415890
1173.5, 0.417319
1178.5, 0.420941
1183.5, 0.425380
1188.5, 0.427025
1193.5, 0.429406
1198.5, 0.433804
1203.5, 0.434526
1208.5, 0.439113
1213.5, 0.439757
1218.5, 0.443774
1223.5, 0.447453
1228.5, 0.449125
1233.5, 0.452877
1238.5, 0.454787
1243.5, 0.456983
1248.5, 0.461013
1253.5, 0.464493
1258.5, 0.468686
1263.5, 0.470804
1268.5, 0.474298
1273.5, 0.477875
1278.5, 0.480120
1283.5, 0.484701
1288.5, 0.486229
1293.5, 0.490854
1298.5, 0.492630
1303.5, 0.496538
1308.5, 0.498469
1313.5, 0.501417
1318.5, 0.504307
1323.5, 0.506974
1328.5, 0.510883
1333.5, 0.514662
1338.5, 0.514991
1343.5, 0.518745
1348.5, 0.520687
1353.5, 0.524369
1358.5, 0.525382
1363.5, 0.528993
1368.5, 0.530936
1373.5, 0.534864
1378.5, 0.536264
1383.5, 0.539698
1388.5, 0.538703
1393.5, 0.534913
1398.5, 0.544027
1403.5, 0.547760
1408.5, 0.549964
1413.5, 0.552616
1418.5, 0.554614
1423.5, 0.556979
1428.5, 0.559431
1433.5, 0.559159
1438.5, 0.559567
1443.5, 0.561615
1448.5, 0.566689
1453.5, 0.565992
1458.5, 0.568994
1463.5, 0.571818
1468.5, 0.571750
1473.5, 0.574656
1478.5, 0.575637
1483.5, 0.579518
1488.5, 0.580987
1493.5, 0.582423
1498.5, 0.584663
1503.5, 0.585986
1508.5, 0.585048
1513.5, 0.586073
1518.5, 0.587395
1523.5, 0.594279
1528.5, 0.591886
1534.0, 0.591686
1540.0, 0.594173
1546.0, 0.597466
1552.0, 0.598469
1558.0, 0.600506
1564.0, 0.601987
1570.5, 0.603167
1577.5, 0.606483
1584.5, 0.607436
1591.5, 0.609032
1598.5, 0.611911
1605.5, 0.611123
1612.5, 0.612523
1619.5, 0.615604
1626.5, 0.616037
1633.5, 0.617510
1640.5, 0.618812
1647.5, 0.621775
1654.5, 0.624471
1661.5, 0.623361
1668.5, 0.625057
1676.0, 0.627072
1684.0, 0.626885
1692.0, 0.632118
1700.0, 0.634365
1708.0, 0.635304
1716.0, 0.634650
1724.0, 0.633710
1732.0, 0.635992
1740.0, 0.637782
1748.0, 0.644715
1756.0, 0.640701
1764.0, 0.641771
1772.0, 0.642505
1780.0, 0.643083
1788.0, 0.647037
1796.0, 0.646598
1805.0, 0.644794
1815.0, 0.646777
1825.0, 0.646052
1835.0, 0.647760
1845.0, 0.648874
1855.0, 0.648413
1865.0, 0.648075
1875.0, 0.646276
1885.0, 0.646730
1895.0, 0.644157
1905.0, 0.642530
1915.0, 0.642112
1925.0, 0.637443
1935.0, 0.639892
1945.0, 0.637344
1955.0, 0.636277
1965.0, 0.637524
1975.0, 0.638274
1985.0, 0.635895
1995.0, 0.636795
2005.0, 0.637016
2015.0, 0.636280
2025.0, 0.634727
2035.0, 0.634075
2045.0, 0.631883
2055.0, 0.629113
2065.0, 0.629213
2075.0, 0.625464
2085.0, 0.621790
2095.0, 0.620805
2105.0, 0.620515
2115.0, 0.618606
2125.0, 0.618370
2135.0, 0.612542
2145.0, 0.609308
2155.0, 0.609500
2165.0, 0.603468
2175.0, 0.599810
2185.0, 0.596912
2195.0, 0.591783
2205.0, 0.590191
2215.0, 0.587740
2225.0, 0.585266
2235.0, 0.583263
2245.0, 0.581066
2255.0, 0.581428
2265.0, 0.575356
2275.0, 0.578831
2285.0, 0.571645
2295.0, 0.571275
2305.0, 0.568517
2315.0, 0.563073
2325.0, 0.572395
2335.0, 0.574862
2345.0, 0.574108
2355.0, 0.574494
2365.0, 0.575354
2375.0, 0.577434
2386.0, 0.574564
2400.0, 0.577903
2418.0, 0.584316
2440.0, 0.588859
2466.0, 0.599247
2496.0, 0.616160
2528.0, 0.629904
2560.0, 0.640267
2592.0, 0.653313
2624.0, 0.672029
2656.0, 0.682660
2688.0, 0.649512
2720.0, 0.531454
2752.0, 0.472311
2784.0, 0.459036
2816.0, 0.464601
2848.0, 0.445033
2880.0, 0.442834
2912.0, 0.433644
2944.0, 0.434218
2976.0, 0.453900
