Database of Origin, USGS Spectral Database
Sample Description, See USGS database for additional info
Date Added,2016-08-03 21:29:19.255208

Data ID,USGS_dat02          
Sample ID, datolite_hs442.6709
Mineral Name, datolite
Material Class,Nesosilicate

Wavelength
1404.54, 0.435754
1404.92, 0.434300
1405.3, 0.432846
1405.68, 0.433261
1406.06, 0.432499
1406.44, 0.431115
1406.83, 0.428829
1407.21, 0.428068
1407.59, 0.428968
1407.97, 0.428691
1408.35, 0.426960
1408.74, 0.426752
1409.12, 0.426060
1409.5, 0.424744
1409.89, 0.424536
1410.27, 0.424606
1410.65, 0.424398
1411.04, 0.424398
1411.42, 0.423982
1411.81, 0.423498
1412.19, 0.422320
1412.58, 0.421905
1412.96, 0.420936
1413.35, 0.420797
1413.73, 0.421213
1414.12, 0.419828
1414.5, 0.417681
1414.89, 0.416989
1415.28, 0.417404
1415.66, 0.417473
1416.05, 0.416573
1416.44, 0.415673
1416.82, 0.414911
1417.21, 0.414150
1417.6, 0.412349
1417.98, 0.411103
1418.37, 0.410757
1418.76, 0.410272
1419.15, 0.410341
1419.54, 0.410826
1419.93, 0.410341
1420.32, 0.408818
1420.71, 0.408402
1421.09, 0.409649
1421.48, 0.408264
1421.88, 0.405771
1422.27, 0.405079
1422.66, 0.405217
1423.05, 0.403486
1423.44, 0.401893
1423.83, 0.402032
1424.22, 0.401963
1424.61, 0.400716
1425.0, 0.400716
1425.39, 0.399955
1425.78, 0.398708
1426.18, 0.397808
1426.57, 0.397600
1426.96, 0.396769
1427.36, 0.396423
1427.75, 0.396423
1428.14, 0.396215
1428.54, 0.395454
1428.93, 0.392961
1429.32, 0.390745
1429.72, 0.390330
1430.11, 0.389845
1430.51, 0.389430
1430.9, 0.388252
1431.3, 0.387144
1431.69, 0.386452
1432.09, 0.386660
1432.48, 0.386660
1432.88, 0.385413
1433.28, 0.385136
1433.67, 0.386383
1434.07, 0.384721
1434.46, 0.383267
1434.86, 0.383821
1435.26, 0.384652
1435.66, 0.384513
1436.05, 0.383544
1436.45, 0.383267
1436.85, 0.382921
1437.25, 0.381051
1437.65, 0.380220
1438.05, 0.380843
1438.44, 0.380982
1438.84, 0.380843
1439.24, 0.381120
1439.64, 0.379112
1440.04, 0.378073
1440.44, 0.377450
1440.84, 0.377312
1441.24, 0.377381
1441.65, 0.375650
1442.05, 0.374819
1442.45, 0.374680
1442.85, 0.374334
1443.25, 0.372880
1443.65, 0.373157
1444.05, 0.373573
1444.46, 0.371841
1444.86, 0.371495
1445.26, 0.371149
1445.67, 0.369695
1446.07, 0.368518
1446.47, 0.368725
1446.88, 0.368033
1447.28, 0.367825
1447.68, 0.366371
1448.09, 0.365125
1448.49, 0.364571
1448.9, 0.364432
1449.3, 0.363394
1449.71, 0.362355
1450.11, 0.362355
1450.52, 0.362563
1450.93, 0.361316
1451.33, 0.360762
1451.74, 0.360693
1452.14, 0.359931
1452.55, 0.358616
1452.96, 0.357993
1453.36, 0.358408
1453.77, 0.358339
1454.18, 0.358339
1454.59, 0.357854
1455.0, 0.356538
1455.41, 0.355084
1455.81, 0.354461
1456.22, 0.354046
1456.63, 0.353146
1457.04, 0.351761
1457.45, 0.350237
1457.86, 0.348437
1458.27, 0.347398
1458.68, 0.346983
1459.09, 0.345736
1459.5, 0.344628
1459.91, 0.343036
1460.32, 0.341651
1460.74, 0.341236
1461.15, 0.340197
1461.56, 0.337704
1461.97, 0.335142
1462.39, 0.332580
1462.8, 0.331611
1463.21, 0.329118
1463.62, 0.325379
1464.04, 0.323301
1464.45, 0.321224
1464.86, 0.318039
1465.28, 0.313399
1465.69, 0.309799
1466.11, 0.306613
1466.52, 0.301905
1466.94, 0.296781
1467.35, 0.292072
1467.77, 0.287087
1468.18, 0.282032
1468.6, 0.277669
1469.02, 0.272615
1469.43, 0.267352
1469.85, 0.261051
1470.27, 0.256896
1470.68, 0.254265
1471.1, 0.250249
1471.52, 0.247687
1471.94, 0.247687
1472.35, 0.248310
1472.77, 0.248587
1473.19, 0.249972
1473.61, 0.253226
1474.03, 0.258489
1474.45, 0.262920
1474.87, 0.266106
1475.29, 0.269706
1475.71, 0.272753
1476.13, 0.276769
1476.55, 0.281339
1476.97, 0.285771
1477.39, 0.289718
1477.81, 0.293249
1478.23, 0.296504
1478.65, 0.299481
1479.07, 0.303567
1479.5, 0.306267
1479.92, 0.309245
1480.34, 0.312984
1480.76, 0.314784
1481.19, 0.317208
1481.61, 0.318177
1482.03, 0.319770
1482.46, 0.322540
1482.88, 0.325656
1483.31, 0.326833
1483.73, 0.327664
1484.16, 0.328287
1484.58, 0.330364
1485.01, 0.332718
1485.43, 0.334450
1485.86, 0.335765
1486.28, 0.337427
1486.71, 0.339089
1487.14, 0.339504
1487.56, 0.339920
1487.99, 0.341305
1488.42, 0.341997
1488.84, 0.341997
1489.27, 0.341997
1489.7, 0.343105
1490.13, 0.342828
1490.56, 0.343036
1490.98, 0.344490
1491.41, 0.345736
1491.84, 0.345667
1492.27, 0.346498
1492.7, 0.346983
1493.13, 0.347744
1493.56, 0.347744
1493.99, 0.348298
1494.42, 0.348368
1494.85, 0.348852
1495.29, 0.349753
1495.72, 0.350583
1496.15, 0.350168
1496.58, 0.350722
1497.01, 0.351899
1497.44, 0.352592
1497.88, 0.352592
1498.31, 0.353215
1498.74, 0.354323
1499.18, 0.354946
1499.61, 0.354946
1500.04, 0.354530
1500.48, 0.355154
1500.91, 0.356262
1501.35, 0.356677
1501.78, 0.357577
1502.22, 0.358962
1502.65, 0.360485
1503.09, 0.360278
1503.53, 0.360693
1503.96, 0.360624
1504.4, 0.361524
1504.83, 0.362009
1505.27, 0.361455
1505.71, 0.362563
1506.15, 0.364017
1506.58, 0.364225
1507.02, 0.365263
1507.46, 0.364917
1507.9, 0.364709
1508.34, 0.365540
1508.78, 0.366233
1509.21, 0.366787
1509.66, 0.368587
1510.09, 0.369903
1510.53, 0.370664
1510.97, 0.370387
1511.42, 0.370457
1511.86, 0.371080
1512.3, 0.371703
1512.74, 0.371980
1513.18, 0.372257
1513.62, 0.372326
1514.06, 0.372742
1514.51, 0.373088
1514.95, 0.373850
1515.39, 0.374265
1515.83, 0.374957
1516.28, 0.375511
1516.72, 0.376550
1517.16, 0.376827
1517.61, 0.377589
1518.05, 0.378489
1518.5, 0.379320
1518.94, 0.380566
1519.39, 0.381120
1519.83, 0.381397
1520.28, 0.382020
1520.73, 0.382713
1521.17, 0.383128
1521.62, 0.383821
1522.07, 0.385483
1522.51, 0.386521
1522.96, 0.386867
1523.41, 0.387075
1523.85, 0.388114
1524.3, 0.389637
1524.75, 0.390607
1525.2, 0.391230
1525.65, 0.391645
1526.1, 0.391784
1526.55, 0.392753
1527.0, 0.393723
1527.45, 0.393723
1527.9, 0.393861
1528.35, 0.395384
1528.8, 0.395800
1529.25, 0.396492
1529.7, 0.397393
1530.15, 0.397808
1530.6, 0.398293
1531.05, 0.399193
1531.51, 0.399678
1531.96, 0.399539
1532.41, 0.399885
1532.87, 0.400786
1533.32, 0.402170
1533.77, 0.403625
1534.23, 0.403832
1534.68, 0.403140
1535.14, 0.403140
1535.59, 0.404594
1536.05, 0.405840
1536.5, 0.407502
1536.96, 0.407848
1537.41, 0.407987
1537.87, 0.408818
1538.32, 0.409787
1538.78, 0.410203
1539.24, 0.411172
1539.7, 0.411726
1540.15, 0.412488
1540.61, 0.412003
1541.07, 0.412488
1541.53, 0.412765
1541.98, 0.413526
1542.44, 0.414080
1542.9, 0.414565
1543.36, 0.415396
1543.82, 0.416504
1544.28, 0.416712
1544.74, 0.416919
1545.2, 0.417404
1545.66, 0.418235
1546.12, 0.418651
1546.59, 0.419482
1547.05, 0.419343
1547.51, 0.419274
1547.97, 0.419551
1548.43, 0.420105
1548.9, 0.420312
1549.36, 0.420866
1549.82, 0.421697
1550.29, 0.422528
1550.75, 0.422113
1551.21, 0.422182
1551.68, 0.422874
1552.14, 0.423636
1552.61, 0.423567
1553.07, 0.424190
1553.54, 0.425367
1554.0, 0.425713
1554.47, 0.425852
1554.93, 0.426475
1555.4, 0.426614
1555.87, 0.426683
1556.34, 0.427514
1556.8, 0.428206
1557.27, 0.428553
1557.74, 0.428968
1558.21, 0.428760
1558.68, 0.428691
1559.14, 0.429314
1559.61, 0.430284
1560.08, 0.430630
1560.55, 0.431045
1561.02, 0.431876
1561.49, 0.432430
1561.96, 0.431807
1562.43, 0.431668
1562.9, 0.432084
1563.38, 0.432707
1563.85, 0.432915
1564.32, 0.433677
1564.79, 0.434369
1565.26, 0.434784
1565.74, 0.435200
1566.21, 0.435754
1566.68, 0.435477
1567.16, 0.435615
1567.63, 0.436169
1568.1, 0.436862
1568.58, 0.437277
1569.05, 0.437623
1569.53, 0.437554
1570.0, 0.438593
1570.48, 0.438593
1570.96, 0.438247
1571.43, 0.438939
1571.91, 0.439770
1572.39, 0.439770
1572.86, 0.439285
1573.34, 0.439285
1573.82, 0.439978
1574.3, 0.440324
1574.77, 0.440462
1575.25, 0.440462
1575.73, 0.440878
1576.21, 0.441293
1576.69, 0.442055
1577.17, 0.442678
1577.65, 0.442609
1578.13, 0.442263
1578.61, 0.443232
1579.09, 0.443994
1579.57, 0.443925
1580.05, 0.443648
1580.54, 0.443717
1581.02, 0.444202
1581.5, 0.444894
1581.98, 0.445240
1582.47, 0.444894
1582.95, 0.445102
1583.43, 0.445310
1583.92, 0.445794
1584.4, 0.446348
1584.88, 0.446348
1585.37, 0.446625
1585.85, 0.447041
1586.34, 0.447248
1586.82, 0.447248
1587.31, 0.447456
1587.8, 0.447941
1588.28, 0.448218
1588.77, 0.447733
1589.26, 0.447802
1589.74, 0.448633
1590.23, 0.448979
1590.72, 0.448564
1591.21, 0.448910
1591.7, 0.449533
1592.19, 0.449810
1592.67, 0.450572
1593.16, 0.450918
1593.65, 0.451195
1594.14, 0.451195
1594.63, 0.451542
1595.12, 0.451334
1595.61, 0.451403
1596.11, 0.451472
1596.6, 0.451888
1597.09, 0.452442
1597.58, 0.452580
1598.08, 0.453273
1598.57, 0.453965
1599.06, 0.453688
1599.55, 0.453550
1600.05, 0.453827
1600.54, 0.453619
1601.04, 0.453619
1601.53, 0.454104
1602.03, 0.454173
1602.52, 0.454311
1603.02, 0.455350
1603.51, 0.455419
1604.01, 0.454588
1604.5, 0.454450
1605.0, 0.454935
1605.5, 0.455558
1606.0, 0.455627
1606.49, 0.455765
1606.99, 0.456389
1607.49, 0.456596
1607.99, 0.456596
1608.49, 0.456250
1608.99, 0.456389
1609.49, 0.457012
1609.99, 0.457427
1610.49, 0.457566
1610.99, 0.457566
1611.49, 0.457843
1611.99, 0.458189
1612.49, 0.458189
1612.99, 0.458258
1613.49, 0.458120
1614.0, 0.458189
1614.5, 0.458951
1615.0, 0.459297
1615.51, 0.459020
1616.01, 0.458604
1616.51, 0.458881
1617.02, 0.459228
1617.52, 0.458951
1618.03, 0.459089
1618.53, 0.459228
1619.04, 0.459920
1619.54, 0.460474
1620.05, 0.460682
1620.55, 0.460613
1621.06, 0.460820
1621.57, 0.460474
1622.08, 0.460128
1622.58, 0.460613
1623.09, 0.460682
1623.6, 0.460751
1624.11, 0.461513
1624.62, 0.461720
1625.13, 0.461167
1625.64, 0.460890
1626.15, 0.460890
1626.66, 0.460959
1627.17, 0.461790
1627.68, 0.462136
1628.19, 0.461997
1628.7, 0.461859
1629.21, 0.462067
1629.72, 0.462205
1630.24, 0.462690
1630.75, 0.462690
1631.26, 0.462136
1631.78, 0.462274
1632.29, 0.462690
1632.8, 0.462967
1633.32, 0.462967
1633.83, 0.462482
1634.35, 0.462413
1634.86, 0.462551
1635.38, 0.463105
1635.9, 0.463175
1636.41, 0.462828
1636.93, 0.462759
1637.45, 0.463313
1637.96, 0.463590
1638.48, 0.463244
1639.0, 0.463175
1639.52, 0.464006
1640.04, 0.464213
1640.56, 0.463729
1641.08, 0.463452
1641.59, 0.463867
1642.11, 0.464075
1642.63, 0.463590
1643.16, 0.463452
1643.68, 0.463521
1644.2, 0.464075
1644.72, 0.464975
1645.24, 0.465183
1645.76, 0.464490
1646.29, 0.464075
1646.81, 0.464629
1647.33, 0.464906
1647.86, 0.464767
1648.38, 0.464421
1648.9, 0.464490
1649.43, 0.464352
1649.95, 0.464767
1650.48, 0.465044
1651.0, 0.464629
1651.53, 0.464352
1652.06, 0.464352
1652.58, 0.464282
1653.11, 0.464629
1653.64, 0.465113
1654.17, 0.465044
1654.69, 0.464906
1655.22, 0.465183
1655.75, 0.465321
1656.28, 0.465044
1656.81, 0.464767
1657.34, 0.464906
1657.87, 0.464629
1658.4, 0.464559
1658.93, 0.464767
1659.46, 0.464836
1659.99, 0.464767
1660.52, 0.464767
1661.05, 0.464767
1661.59, 0.464836
1662.12, 0.465044
1662.65, 0.465390
1663.19, 0.465529
1663.72, 0.465390
1664.26, 0.464906
1664.79, 0.464698
1665.32, 0.464975
1665.86, 0.465252
1666.39, 0.465321
1666.93, 0.465529
1667.47, 0.465044
1668.0, 0.464906
1668.54, 0.464836
1669.08, 0.464906
1669.61, 0.464906
1670.15, 0.464767
1670.69, 0.464975
1671.23, 0.465321
1671.77, 0.464906
1672.31, 0.464698
1672.85, 0.464421
1673.39, 0.464421
1673.93, 0.464421
1674.47, 0.464075
1675.01, 0.464006
1675.55, 0.464213
1676.09, 0.463798
1676.64, 0.463313
1677.18, 0.462967
1677.72, 0.462482
1678.26, 0.462344
1678.81, 0.462482
1679.35, 0.462274
1679.89, 0.462067
1680.44, 0.461790
1680.98, 0.461443
1681.53, 0.461374
1682.07, 0.461097
1682.62, 0.460543
1683.17, 0.459989
1683.71, 0.459574
1684.26, 0.459089
1684.81, 0.458466
1685.36, 0.457843
1685.9, 0.457427
1686.45, 0.457012
1687.0, 0.456596
1687.55, 0.456527
1688.1, 0.456181
1688.65, 0.455696
1689.2, 0.455281
1689.75, 0.455004
1690.3, 0.454519
1690.85, 0.453896
1691.41, 0.453273
1691.96, 0.453065
1692.51, 0.452857
1693.06, 0.452372
1693.61, 0.452165
1694.17, 0.451957
1694.72, 0.451680
1695.28, 0.451265
1695.83, 0.450918
1696.39, 0.450641
1696.94, 0.450572
1697.5, 0.450918
1698.05, 0.450849
1698.61, 0.450018
1699.17, 0.449672
1699.72, 0.449533
1700.28, 0.449395
1700.84, 0.448841
1701.4, 0.448149
1701.95, 0.447664
1702.51, 0.447525
1703.07, 0.447041
1703.63, 0.446279
1704.19, 0.446140
1704.75, 0.445794
1705.31, 0.445033
1705.88, 0.443994
1706.44, 0.443232
1707.0, 0.442678
1707.56, 0.442401
1708.12, 0.441709
1708.69, 0.441086
1709.25, 0.440532
1709.81, 0.439493
1710.38, 0.438593
1710.94, 0.438177
1711.51, 0.437831
1712.07, 0.437346
1712.64, 0.436654
1713.2, 0.435962
1713.77, 0.435546
1714.34, 0.435061
1714.9, 0.434646
1715.47, 0.434161
1716.04, 0.433538
1716.61, 0.433330
1717.18, 0.433123
1717.74, 0.432707
1718.31, 0.432776
1718.88, 0.432776
1719.45, 0.432084
1720.02, 0.431738
1720.59, 0.431668
1721.17, 0.431738
1721.74, 0.431184
1722.31, 0.430630
1722.88, 0.430561
1723.45, 0.430284
1724.03, 0.429660
1724.6, 0.429591
1725.18, 0.429660
1725.75, 0.429314
1726.33, 0.429245
1726.9, 0.429106
1727.48, 0.428760
1728.05, 0.428829
1728.63, 0.429383
1729.2, 0.429730
1729.78, 0.429660
1730.36, 0.429660
1730.94, 0.429937
1731.51, 0.430284
1732.09, 0.430699
1732.67, 0.430976
1733.25, 0.431599
1733.83, 0.431876
1734.41, 0.432430
1734.99, 0.432707
1735.57, 0.432846
1736.15, 0.433330
1736.73, 0.433884
1737.32, 0.434300
1737.9, 0.434577
1738.48, 0.435200
1739.07, 0.435892
1739.65, 0.436169
1740.23, 0.436239
1740.82, 0.436446
1741.4, 0.436793
1741.99, 0.437277
1742.57, 0.437554
1743.16, 0.438177
1743.74, 0.438662
1744.33, 0.438801
1744.92, 0.439285
1745.51, 0.439770
1746.09, 0.439839
1746.68, 0.440047
1747.27, 0.440878
1747.86, 0.441432
1748.45, 0.441432
1749.04, 0.441501
1749.63, 0.441847
1750.22, 0.442332
1750.81, 0.442748
1751.4, 0.442886
1751.99, 0.443024
1752.59, 0.443509
1753.18, 0.443371
1753.77, 0.443302
1754.37, 0.443302
1754.96, 0.443648
1755.56, 0.443994
1756.15, 0.444063
1756.74, 0.444132
1757.34, 0.444686
1757.94, 0.445033
1758.53, 0.445033
1759.13, 0.444963
1759.73, 0.445240
1760.32, 0.445794
1760.92, 0.446002
1761.52, 0.446071
1762.12, 0.446002
1762.72, 0.446071
1763.32, 0.446348
1763.92, 0.445933
1764.52, 0.445725
1765.12, 0.445864
1765.72, 0.445725
1766.32, 0.445310
1766.92, 0.445517
1767.53, 0.445310
1768.13, 0.445033
1768.73, 0.444686
1769.34, 0.444271
1769.94, 0.443925
1770.55, 0.443786
1771.15, 0.443717
1771.76, 0.443440
1772.36, 0.443302
1772.97, 0.443024
1773.57, 0.442678
1774.18, 0.442609
1774.79, 0.442401
1775.4, 0.442401
1776.0, 0.442194
1776.61, 0.441917
1777.22, 0.441778
1777.83, 0.441778
1778.44, 0.441709
1779.05, 0.441640
1779.66, 0.441432
1780.27, 0.441501
1780.88, 0.441778
1781.5, 0.441709
1782.11, 0.441224
1782.72, 0.441016
1783.33, 0.441086
1783.95, 0.441432
1784.56, 0.441293
1785.18, 0.441086
1785.79, 0.440670
1786.41, 0.440670
1787.02, 0.441016
1787.64, 0.440809
1788.26, 0.440255
1788.87, 0.440116
1789.49, 0.440047
1790.11, 0.440047
1790.73, 0.439839
1791.35, 0.439424
1791.96, 0.439147
1792.58, 0.439285
1793.21, 0.439424
1793.83, 0.439216
1794.45, 0.439078
1795.07, 0.439216
1795.69, 0.439285
1796.31, 0.439008
1796.93, 0.439078
1797.56, 0.439632
1798.18, 0.439909
1798.8, 0.440393
1799.43, 0.440809
1800.05, 0.440809
1800.68, 0.440947
1801.3, 0.441432
1801.93, 0.441847
1802.56, 0.441917
1803.18, 0.442332
1803.81, 0.442678
1804.44, 0.442886
1805.07, 0.443371
1805.7, 0.443371
1806.33, 0.443302
1806.95, 0.443925
1807.58, 0.444271
1808.22, 0.444479
1808.85, 0.445033
1809.48, 0.445310
1810.11, 0.445379
1810.74, 0.445587
1811.38, 0.445933
1812.01, 0.446279
1812.64, 0.446625
1813.28, 0.446971
1813.91, 0.447248
1814.55, 0.447595
1815.18, 0.447872
1815.82, 0.448426
1816.45, 0.449257
1817.09, 0.450157
1817.73, 0.450503
1818.36, 0.450434
1819.0, 0.450988
1819.64, 0.451472
1820.28, 0.451334
1820.92, 0.451888
1821.56, 0.452442
1822.2, 0.453065
1822.84, 0.454173
1823.48, 0.455073
1824.12, 0.455142
1824.76, 0.455211
1825.41, 0.455350
1826.05, 0.454519
1826.69, 0.455211
1827.34, 0.456527
1827.98, 0.457012
1828.63, 0.457150
1829.27, 0.457220
1829.92, 0.457150
1830.56, 0.456943
1831.21, 0.457150
1831.86, 0.458050
1832.5, 0.458535
1833.15, 0.458881
1833.8, 0.458881
1834.45, 0.458604
1835.1, 0.458604
1835.75, 0.458397
1836.4, 0.458674
1837.05, 0.459366
1837.7, 0.459366
1838.35, 0.460197
1839.01, 0.460405
1839.66, 0.459712
1840.31, 0.460197
1840.96, 0.460543
1841.62, 0.459712
1842.27, 0.460336
1842.93, 0.461582
1843.58, 0.461928
1844.24, 0.462067
1844.9, 0.462274
1845.55, 0.462274
1846.21, 0.461167
1846.87, 0.459643
1847.53, 0.459851
1848.18, 0.460543
1848.84, 0.461582
1849.5, 0.462344
1850.16, 0.462551
1850.82, 0.462759
1851.48, 0.463105
1852.14, 0.462898
1852.81, 0.462205
1853.47, 0.461236
1854.13, 0.461443
1854.8, 0.462828
1855.46, 0.463382
1856.12, 0.462413
1856.79, 0.462067
1857.45, 0.463175
1858.12, 0.463867
1858.79, 0.463521
1859.45, 0.462205
1860.12, 0.461997
1860.79, 0.463036
1861.46, 0.464075
1862.12, 0.464213
1862.79, 0.464006
1863.46, 0.464075
1864.13, 0.463867
1864.8, 0.464144
1865.48, 0.464490
1866.15, 0.464490
1866.82, 0.463867
1867.49, 0.462759
1868.16, 0.462898
1868.84, 0.463867
1869.51, 0.463798
1870.19, 0.462828
1870.86, 0.461859
1871.54, 0.463105
1872.21, 0.463382
1872.89, 0.461790
1873.56, 0.462136
1874.24, 0.463521
1874.92, 0.463729
1875.6, 0.463798
1876.28, 0.463521
1876.96, 0.462621
1877.64, 0.463313
1878.32, 0.464075
1879.0, 0.464075
1879.68, 0.463729
1880.36, 0.463452
1881.04, 0.463382
1881.73, 0.463452
1882.41, 0.463521
1883.09, 0.463244
1883.78, 0.462551
1884.46, 0.462898
1885.15, 0.463313
1885.83, 0.463105
1886.52, 0.463105
1887.21, 0.463382
1887.89, 0.463659
1888.58, 0.463798
1889.27, 0.463244
1889.96, 0.462344
1890.65, 0.462967
1891.34, 0.463452
1892.03, 0.463382
1892.72, 0.463521
1893.41, 0.463590
1894.1, 0.464213
1894.79, 0.464490
1895.49, 0.464490
1896.18, 0.464698
1896.87, 0.464559
1897.57, 0.464490
1898.26, 0.464629
1898.96, 0.463867
1899.65, 0.462967
1900.35, 0.463590
1901.05, 0.464559
1901.74, 0.464629
1902.44, 0.463798
1903.14, 0.463729
1903.84, 0.464559
1904.54, 0.464352
1905.24, 0.463313
1905.94, 0.463590
1906.64, 0.464006
1907.34, 0.464698
1908.04, 0.465598
1908.75, 0.465737
1909.45, 0.465737
1910.15, 0.465460
1910.86, 0.465252
1911.56, 0.465390
1912.27, 0.465737
1912.97, 0.465044
1913.68, 0.464559
1914.39, 0.465460
1915.09, 0.466014
1915.8, 0.465875
1916.51, 0.465944
1917.22, 0.466429
1917.93, 0.466568
1918.64, 0.466498
1919.35, 0.465806
1920.06, 0.464836
1920.77, 0.465113
1921.48, 0.466291
1922.19, 0.466775
1922.91, 0.466914
1923.62, 0.466498
1924.33, 0.466498
1925.05, 0.466706
1925.76, 0.466498
1926.48, 0.466291
1927.19, 0.466360
1927.91, 0.466152
1928.63, 0.465875
1929.35, 0.466221
1930.07, 0.466360
1930.78, 0.466083
1931.5, 0.465944
1932.22, 0.466152
1932.94, 0.466152
1933.66, 0.465737
1934.39, 0.465806
1935.11, 0.465944
1935.83, 0.465598
1936.55, 0.465321
1937.28, 0.465183
1938.0, 0.465321
1938.73, 0.465321
1939.45, 0.465252
1940.18, 0.465390
1940.9, 0.465321
1941.63, 0.465390
1942.36, 0.465321
1943.09, 0.465252
1943.81, 0.465044
1944.54, 0.464906
1945.27, 0.464975
1946.0, 0.465044
1946.73, 0.465044
1947.47, 0.465252
1948.2, 0.465390
1948.93, 0.465183
1949.66, 0.465044
1950.4, 0.464906
1951.13, 0.464906
1951.86, 0.465113
1952.6, 0.464975
1953.34, 0.464906
1954.07, 0.464975
1954.81, 0.464767
1955.55, 0.464490
1956.29, 0.464629
1957.02, 0.464490
1957.76, 0.464352
1958.5, 0.464213
1959.24, 0.463936
1959.98, 0.463798
1960.72, 0.463729
1961.47, 0.463590
1962.21, 0.463313
1962.95, 0.462967
1963.7, 0.462759
1964.44, 0.462690
1965.18, 0.462621
1965.93, 0.462274
1966.67, 0.462136
1967.42, 0.461928
1968.17, 0.461513
1968.92, 0.461167
1969.66, 0.461097
1970.41, 0.460959
1971.16, 0.460751
1971.91, 0.460266
1972.66, 0.460197
1973.41, 0.460059
1974.16, 0.459851
1974.92, 0.459643
1975.67, 0.459782
1976.42, 0.460059
1977.18, 0.460197
1977.93, 0.460197
1978.69, 0.460405
1979.44, 0.460474
1980.2, 0.460405
1980.95, 0.460336
1981.71, 0.460474
1982.47, 0.460543
1983.23, 0.460405
1983.99, 0.460336
1984.74, 0.460543
1985.51, 0.460474
1986.27, 0.460474
1987.03, 0.460613
1987.79, 0.460820
1988.55, 0.461305
1989.32, 0.461443
1990.08, 0.461443
1990.84, 0.461513
1991.61, 0.461859
1992.37, 0.462067
1993.14, 0.462482
1993.9, 0.462690
1994.67, 0.462551
1995.44, 0.462482
1996.21, 0.462621
1996.98, 0.462690
1997.75, 0.462759
1998.52, 0.462690
1999.29, 0.462690
2000.06, 0.462898
2000.83, 0.463244
2001.6, 0.463313
2002.38, 0.463036
2003.15, 0.462828
2003.93, 0.462690
2004.7, 0.462898
2005.48, 0.462967
2006.25, 0.462898
2007.03, 0.462759
2007.81, 0.462690
2008.58, 0.462759
2009.36, 0.462690
2010.14, 0.462690
2010.92, 0.462551
2011.7, 0.462205
2012.48, 0.461928
2013.26, 0.461651
2014.05, 0.461790
2014.83, 0.461790
2015.61, 0.461582
2016.4, 0.461374
2017.18, 0.461097
2017.97, 0.460890
2018.75, 0.460613
2019.54, 0.460405
2020.32, 0.460128
2021.11, 0.459851
2021.9, 0.459989
2022.69, 0.460128
2023.48, 0.459989
2024.27, 0.459712
2025.06, 0.459782
2025.85, 0.459643
2026.64, 0.459435
2027.44, 0.459505
2028.23, 0.459505
2029.02, 0.459435
2029.82, 0.459297
2030.61, 0.459089
2031.41, 0.458951
2032.2, 0.458466
2033.0, 0.458189
2033.8, 0.458189
2034.6, 0.458120
2035.4, 0.457981
2036.2, 0.457774
2037.0, 0.457843
2037.8, 0.457912
2038.6, 0.457704
2039.4, 0.457566
2040.2, 0.457497
2041.01, 0.457497
2041.81, 0.456873
2042.61, 0.456250
2043.42, 0.455765
2044.22, 0.454727
2045.03, 0.453203
2045.84, 0.452096
2046.65, 0.450918
2047.46, 0.449464
2048.26, 0.447664
2049.07, 0.446071
2049.88, 0.444202
2050.69, 0.442194
2051.51, 0.440116
2052.32, 0.438108
2053.13, 0.435962
2053.94, 0.433815
2054.76, 0.431876
2055.57, 0.429868
2056.39, 0.427652
2057.2, 0.425229
2058.02, 0.423082
2058.84, 0.420728
2059.66, 0.418166
2060.48, 0.415881
2061.29, 0.414011
2062.11, 0.412072
2062.94, 0.410134
2063.76, 0.408610
2064.58, 0.407571
2065.4, 0.406879
2066.22, 0.406533
2067.05, 0.406256
2067.87, 0.405910
2068.7, 0.405840
2069.52, 0.405840
2070.35, 0.405771
2071.18, 0.405771
2072.0, 0.405702
2072.83, 0.405494
2073.66, 0.405356
2074.49, 0.404594
2075.32, 0.403348
2076.15, 0.401755
2076.98, 0.400162
2077.82, 0.398224
2078.65, 0.396354
2079.48, 0.395246
2080.32, 0.394969
2081.15, 0.395177
2081.99, 0.396354
2082.83, 0.398293
2083.66, 0.400993
2084.5, 0.403832
2085.34, 0.406602
2086.18, 0.409164
2087.02, 0.411449
2087.86, 0.413250
2088.7, 0.414427
2089.54, 0.415050
2090.39, 0.415119
2091.23, 0.414704
2092.07, 0.413596
2092.92, 0.412072
2093.76, 0.410480
2094.61, 0.408679
2095.45, 0.406464
2096.3, 0.403902
2097.15, 0.401063
2098.0, 0.398016
2098.85, 0.394415
2099.7, 0.390122
2100.55, 0.385967
2101.4, 0.381536
2102.25, 0.376689
2103.1, 0.371288
2103.96, 0.365540
2104.81, 0.359447
2105.67, 0.352868
2106.52, 0.345598
2107.38, 0.337773
2108.24, 0.329187
2109.09, 0.319839
2109.95, 0.309729
2110.81, 0.299274
2111.67, 0.288402
2112.53, 0.277946
2113.39, 0.267767
2114.25, 0.258281
2115.12, 0.249625
2115.98, 0.241939
2116.84, 0.234807
2117.71, 0.228506
2118.58, 0.223036
2119.44, 0.218673
2120.31, 0.214588
2121.18, 0.210918
2122.04, 0.208217
2122.91, 0.206763
2123.78, 0.205586
2124.65, 0.205032
2125.52, 0.204824
2126.4, 0.205171
2127.27, 0.206071
2128.14, 0.207109
2129.02, 0.207940
2129.89, 0.209118
2130.77, 0.210364
2131.64, 0.212095
2132.52, 0.214034
2133.4, 0.216457
2134.27, 0.219227
2135.15, 0.222274
2136.03, 0.225459
2136.91, 0.228714
2137.79, 0.231622
2138.68, 0.233907
2139.56, 0.235292
2140.44, 0.235430
2141.33, 0.233492
2142.21, 0.230237
2143.1, 0.226013
2143.99, 0.220889
2144.87, 0.215142
2145.76, 0.209187
2146.65, 0.203509
2147.54, 0.198454
2148.43, 0.193745
2149.32, 0.189452
2150.21, 0.185575
2151.1, 0.181974
2151.99, 0.178512
2152.89, 0.175396
2153.78, 0.172141
2154.68, 0.169094
2155.57, 0.166394
2156.47, 0.163763
2157.37, 0.161616
2158.27, 0.159954
2159.16, 0.158708
2160.06, 0.158223
2160.96, 0.158915
2161.86, 0.160647
2162.77, 0.163139
2163.67, 0.166532
2164.57, 0.170549
2165.48, 0.174911
2166.38, 0.179412
2167.29, 0.183843
2168.2, 0.188206
2169.1, 0.192153
2170.01, 0.195546
2170.92, 0.198385
2171.83, 0.200531
2172.74, 0.202055
2173.65, 0.203301
2174.56, 0.204547
2175.47, 0.205448
2176.39, 0.206071
2177.3, 0.206902
2178.22, 0.208010
2179.13, 0.209533
2180.05, 0.211818
2180.96, 0.214726
2181.88, 0.218396
2182.8, 0.222620
2183.72, 0.227467
2184.64, 0.232453
2185.56, 0.237023
2186.48, 0.240416
2187.41, 0.242216
2188.33, 0.242909
2189.25, 0.243116
2190.18, 0.242909
2191.1, 0.242632
2192.03, 0.242216
2192.96, 0.242078
2193.89, 0.242286
2194.82, 0.243047
2195.74, 0.244432
2196.68, 0.246994
2197.61, 0.249902
2198.54, 0.252949
2199.47, 0.256342
2200.4, 0.259458
2201.34, 0.262297
2202.28, 0.264998
2203.21, 0.267283
2204.15, 0.269083
2205.08, 0.269914
2206.02, 0.269775
2206.96, 0.268737
2207.9, 0.266659
2208.84, 0.263197
2209.78, 0.259181
2210.73, 0.254888
2211.67, 0.250733
2212.61, 0.246786
2213.56, 0.243324
2214.5, 0.239654
2215.45, 0.235777
2216.4, 0.231206
2217.35, 0.225736
2218.3, 0.220197
2219.24, 0.214796
2220.2, 0.209879
2221.15, 0.206279
2222.1, 0.203855
2223.05, 0.202539
2224.0, 0.202124
2224.96, 0.202332
2225.91, 0.202816
2226.87, 0.203232
2227.83, 0.203716
2228.79, 0.204686
2229.74, 0.205794
2230.7, 0.207386
2231.66, 0.209533
2232.63, 0.212026
2233.59, 0.214311
2234.55, 0.216596
2235.51, 0.218950
2236.48, 0.221651
2237.44, 0.224559
2238.41, 0.227813
2239.38, 0.230999
2240.34, 0.233838
2241.31, 0.236123
2242.28, 0.237854
2243.25, 0.238754
2244.22, 0.238481
2245.19, 0.237456
2246.17, 0.235747
2247.14, 0.233287
2248.12, 0.229871
2249.09, 0.226249
2250.07, 0.222764
2251.04, 0.219758
2252.02, 0.217161
2253.0, 0.214838
2253.98, 0.213266
2254.96, 0.211831
2255.94, 0.210328
2256.92, 0.208551
2257.91, 0.206979
2258.89, 0.205886
2259.88, 0.205203
2260.86, 0.204861
2261.85, 0.204998
2262.83, 0.205271
2263.82, 0.206091
2264.81, 0.207048
2265.8, 0.208073
2266.79, 0.209508
2267.78, 0.211011
2268.78, 0.211831
2269.77, 0.212309
2270.76, 0.212583
2271.76, 0.212924
2272.75, 0.212514
2273.75, 0.211284
2274.75, 0.209713
2275.75, 0.208004
2276.75, 0.205749
2277.75, 0.202879
2278.75, 0.199668
2279.75, 0.197071
2280.75, 0.194680
2281.76, 0.192766
2282.76, 0.192015
2283.77, 0.193450
2284.77, 0.197481
2285.78, 0.203973
2286.79, 0.212651
2287.8, 0.222491
2288.81, 0.232604
2289.82, 0.242717
2290.83, 0.252147
2291.84, 0.261030
2292.86, 0.269299
2293.87, 0.277020
2294.89, 0.283580
2295.91, 0.288295
2296.92, 0.291507
2297.94, 0.293762
2298.96, 0.295333
2299.98, 0.296290
2301.0, 0.297793
2302.02, 0.301278
2303.04, 0.305583
2304.07, 0.310572
2305.09, 0.315218
2306.12, 0.318088
2307.15, 0.317883
2308.17, 0.314672
2309.2, 0.308658
2310.23, 0.300800
2311.26, 0.293420
2312.29, 0.288159
2313.32, 0.285425
2314.35, 0.284879
2315.39, 0.285767
2316.42, 0.287749
2317.46, 0.289662
2318.5, 0.291097
2319.53, 0.291643
2320.57, 0.291712
2321.61, 0.291165
2322.65, 0.290345
2323.69, 0.289047
2324.73, 0.287339
2325.78, 0.285562
2326.82, 0.283922
2327.86, 0.283717
2328.91, 0.285562
2329.96, 0.289183
2331.01, 0.293898
2332.05, 0.298135
2333.1, 0.300732
2334.15, 0.301278
2335.21, 0.299365
2336.26, 0.295880
2337.31, 0.290960
2338.36, 0.285220
2339.42, 0.279070
2340.48, 0.272647
2341.53, 0.265745
2342.59, 0.258707
2343.65, 0.252147
2344.71, 0.247159
2345.77, 0.245246
2346.83, 0.248047
2347.9, 0.255837
2348.96, 0.266839
2350.02, 0.280232
2351.09, 0.293967
2352.16, 0.306745
2353.23, 0.318157
2354.29, 0.328475
2355.36, 0.336880
2356.43, 0.343235
2357.51, 0.348564
2358.58, 0.352733
2359.65, 0.355261
2360.73, 0.356559
2361.8, 0.356491
2362.88, 0.355466
2363.96, 0.353621
2365.03, 0.351229
2366.11, 0.347608
2367.19, 0.343303
2368.27, 0.338110
2369.36, 0.331686
2370.44, 0.324443
2371.53, 0.316243
2372.61, 0.306403
2373.7, 0.294855
2374.78, 0.281394
2375.87, 0.265882
2376.96, 0.248184
2378.05, 0.228162
2379.14, 0.206911
2380.24, 0.185455
2381.33, 0.164887
2382.42, 0.147052
2383.52, 0.132907
2384.61, 0.122315
2385.71, 0.115140
2386.81, 0.110835
2387.91, 0.107350
2389.01, 0.103251
2390.11, 0.0994240
2391.22, 0.0975110
2392.32, 0.0973060
2393.42, 0.0986040
2394.53, 0.101337
2395.64, 0.104891
2396.74, 0.108649
2397.85, 0.112407
2398.96, 0.114799
2400.07, 0.116507
2401.18, 0.117122
2402.3, 0.115687
2403.41, 0.112612
2404.52, 0.108375
2405.64, 0.103524
2406.76, 0.0981940
2407.88, 0.0923170
2408.99, 0.0863040
2410.11, 0.0804960
2411.23, 0.0757130
2412.36, 0.0729110
2413.48, 0.0731160
2414.6, 0.0766690
2415.73, 0.0841170
2416.85, 0.0958020
2417.98, 0.110767
2419.11, 0.127440
2420.24, 0.144318
2421.37, 0.160445
2422.5, 0.174931
2423.64, 0.186070
2424.77, 0.193313
2425.9, 0.196798
2427.04, 0.196798
2428.18, 0.194201
2429.31, 0.189965
2430.45, 0.183746
2431.59, 0.175888
2432.73, 0.166458
2433.88, 0.156003
2435.02, 0.145138
2436.16, 0.135435
2437.31, 0.127509
2438.45, 0.122315
2439.6, 0.119514
2440.75, 0.119104
2441.9, 0.120539
2443.05, 0.122315
2444.2, 0.124434
2445.35, 0.127372
2446.51, 0.130994
2447.67, 0.134615
2448.82, 0.137963
2449.98, 0.141107
2451.14, 0.144045
2452.3, 0.146437
2453.46, 0.148555
2454.62, 0.150742
2455.78, 0.152723
2456.94, 0.153748
2458.11, 0.154022
2459.28, 0.153953
2460.44, 0.152997
2461.61, 0.150742
2462.78, 0.147257
2463.95, 0.142405
2465.12, 0.136734
2466.3, 0.130994
2467.47, 0.125595
2468.65, 0.120539
2469.82, 0.116439
2471.0, 0.114457
2472.18, 0.114252
2473.36, 0.116029
2474.54, 0.119650
2475.72, 0.124365
2476.9, 0.129490
2478.08, 0.134684
2479.27, 0.139603
2480.46, 0.144387
2481.64, 0.148965
2482.83, 0.153475
2484.02, 0.157302
2485.21, 0.160787
2486.4, 0.163725
2487.6, 0.165228
2488.79, 0.165092
2489.99, 0.164135
2491.18, 0.163725
2492.38, 0.164818
2493.58, 0.167825
2494.78, 0.173565
2495.98, 0.180740
2497.18, 0.188051
2498.39, 0.194748
2499.59, 0.199531
2500.8, 0.202333
2502.01, 0.203836
2503.21, 0.204998
2504.42, 0.205749
2505.63, 0.205954
2506.84, 0.205476
2508.06, 0.204041
2509.27, 0.202196
2510.49, 0.199736
2511.7, 0.196798
2512.92, 0.193791
2514.14, 0.190990
2515.36, 0.188256
2516.58, 0.185660
2517.8, 0.183541
2519.03, 0.182311
2520.25, 0.182175
2521.48, 0.183405
2522.7, 0.186548
2523.93, 0.191878
2525.16, 0.198438
2526.39, 0.205749
2527.62, 0.212788
2528.86, 0.218664
2530.09, 0.223379
2531.33, 0.227206
2532.56, 0.230281
2533.8, 0.233082
2535.04, 0.234654
2536.28, 0.234449
2537.52, 0.233356
2538.76, 0.231579
2540.01, 0.229256
2541.25, 0.227001
2542.5, 0.224541
2543.75, 0.222423
2544.99, 0.219553
2546.24, 0.215316
2547.49, 0.209644
2548.75, 0.204109
2550.0, 0.198779
2551.26, 0.194611
2552.51, 0.192766
2553.77, 0.193860
2555.03, 0.195773
2556.29, 0.196729
2557.55, 0.196525
2558.81, 0.194611
2560.08, 0.191605
2561.34, 0.190443
2562.61, 0.193791
2563.88, 0.200214
2565.14, 0.208619
2566.41, 0.217298
2567.68, 0.223243
2568.96, 0.225839
2570.23, 0.228914
2571.51, 0.231306
2572.78, 0.228504
2574.06, 0.226796
2575.34, 0.226249
2576.62, 0.224131
2577.9, 0.224199
2579.18, 0.224063
2580.47, 0.220988
2581.75, 0.217161
2583.04, 0.210054
2584.32, 0.203426
2585.61, 0.198574
2586.9, 0.190853
2588.2, 0.183405
2589.49, 0.176230
2590.78, 0.169943
2592.08, 0.163998
2593.37, 0.156482
2594.67, 0.150810
2595.97, 0.152860
2597.27, 0.156345
2598.57, 0.157370
2599.88, 0.156823
2601.18, 0.155867
2602.49, 0.154432
2603.79, 0.151630
2605.1, 0.147325
2606.41, 0.145685
2607.72, 0.145753
2609.03, 0.145890
2610.35, 0.147052
2611.66, 0.148760
2612.98, 0.150537
2614.3, 0.153202
2615.62, 0.154090
2616.94, 0.154432
2618.26, 0.156003
2619.58, 0.153475
2620.91, 0.150673
2622.23, 0.150058
2623.56, 0.147872
2624.89, 0.144865
2626.22, 0.140765
2627.55, 0.137895
2628.88, 0.133659
2630.21, 0.127987
2631.55, 0.126279
2632.89, 0.125869
2634.22, 0.125322
2635.56, 0.127030
2636.9, 0.129695
2638.25, 0.134342
2639.59, 0.140628
2640.93, 0.147598
2642.28, 0.154432
2643.63, 0.161060
2644.98, 0.165638
2646.33, 0.169465
2647.68, 0.172471
2649.03, 0.173770
2650.39, 0.173155
2651.74, 0.171310
2653.1, 0.171105
2654.46, 0.172608
2655.82, 0.174590
2657.18, 0.177596
2658.54, 0.178416
2659.9, 0.178143
2661.27, 0.178211
2662.64, 0.178348
2664.01, 0.175341
2665.38, 0.172950
2666.74, 0.174385
2668.12, 0.178075
2669.49, 0.176571
2670.87, 0.175888
2672.24, 0.179920
2673.62, 0.179305
2675.0, 0.175068
2676.38, 0.170626
2677.76, 0.168918
2679.15, 0.167756
2680.54, 0.167961
2681.92, 0.166185
2683.31, 0.162700
2684.7, 0.159147
2686.09, 0.155047
2687.48, 0.150605
2688.88, 0.146642
2690.27, 0.143225
2691.67, 0.140355
2693.07, 0.137553
2694.47, 0.136802
2695.87, 0.138100
2697.27, 0.140697
2698.67, 0.143772
2700.08, 0.145822
2701.49, 0.148008
2702.9, 0.151493
2704.31, 0.154295
2705.72, 0.156072
2707.13, 0.156823
2708.54, 0.156003
2709.96, 0.154295
2711.38, 0.154363
2712.8, 0.157233
2714.22, 0.158873
2715.64, 0.159283
2717.06, 0.158463
2718.49, 0.156003
2719.91, 0.151493
2721.34, 0.150537
2722.77, 0.150263
2724.2, 0.147188
2725.63, 0.146163
2727.07, 0.145207
2728.5, 0.142473
2729.94, 0.138920
2731.38, 0.135367
2732.82, 0.132087
2734.26, 0.128534
2735.7, 0.126347
2737.15, 0.124502
2738.59, 0.120334
2740.04, 0.116234
2741.49, 0.113637
2742.94, 0.111177
2744.39, 0.107965
2745.84, 0.104959
2747.3, 0.102977
2748.76, 0.102362
2750.21, 0.102567
2751.67, 0.102909
2753.14, 0.102636
2754.6, 0.100381
2756.06, 0.0985360
2757.53, 0.0984670
2759.0, 0.0977160
2760.46, 0.0964170
2761.94, 0.0946410
2763.41, 0.0938210
2764.88, 0.0943670
2766.36, 0.0951870
2767.83, 0.0964860
2769.31, 0.0981260
2770.79, 0.0996970
2772.27, 0.101952
2773.76, 0.103797
2775.24, 0.104344
2776.73, 0.103797
2778.22, 0.103661
2779.71, 0.104071
2781.2, 0.105301
2782.69, 0.107555
2784.18, 0.110425
2785.68, 0.112339
2787.18, 0.113774
2788.68, 0.115687
2790.18, 0.116985
2791.68, 0.117190
2793.19, 0.116644
2794.69, 0.115755
2796.2, 0.115140
2797.71, 0.114525
2799.22, 0.113842
2800.73, 0.112270
2802.24, 0.110220
2803.76, 0.108375
2805.28, 0.106599
2806.8, 0.103046
2808.32, 0.0992190
2809.84, 0.0980570
2811.36, 0.0974420
2812.89, 0.0955290
2814.42, 0.0929320
2815.94, 0.0901990
2817.48, 0.0872610
2819.01, 0.0838440
2820.54, 0.0807690
2822.08, 0.0780360
2823.61, 0.0751660
2825.15, 0.0720910
2826.69, 0.0688110
2828.23, 0.0654630
2829.78, 0.0622510
2831.32, 0.0591080
2832.87, 0.0559640
2834.42, 0.0528210
2835.97, 0.0497460
2837.52, 0.0469440
2839.08, 0.0445530
2840.63, 0.0418880
2842.19, 0.0392230
2843.75, 0.0366950
2845.31, 0.0342350
2846.87, 0.0316380
2848.44, 0.0289050
2850.0, 0.0263080
2851.57, 0.0237800
2853.14, 0.0213880
2854.71, 0.0194060
2856.28, 0.0186550
2857.86, 0.0223450
2859.43, 0.0332780
2861.01, 0.0489260
2862.59, 0.0606790
2864.17, 0.0632080
2865.76, 0.0591080
2867.34, 0.0537780
2868.93, 0.0500190
2870.52, 0.0480380
2872.11, 0.0472860
2873.7, 0.0472860
2875.29, 0.0478330
2876.89, 0.0485160
2878.49, 0.0494040
2880.08, 0.0504980
2881.69, 0.0513180
2883.29, 0.0522060
2884.89, 0.0532310
2886.5, 0.0544610
2888.11, 0.0557590
2889.72, 0.0568530
2891.33, 0.0580140
2892.94, 0.0593130
2894.56, 0.0605430
2896.17, 0.0614990
2897.79, 0.0625930
2899.42, 0.0639590
2901.04, 0.0653260
2902.66, 0.0666240
2904.29, 0.0677860
2905.92, 0.0685380
2907.55, 0.0690840
2909.18, 0.0693580
2910.81, 0.0695630
2912.45, 0.0702460
2914.08, 0.0714760
2915.72, 0.0732530
2917.36, 0.0752340
2919.01, 0.0772840
2920.65, 0.0790610
2922.3, 0.0803590
2923.94, 0.0813840
2925.59, 0.0825460
2927.25, 0.0830920
2928.9, 0.0833660
2930.56, 0.0836390
2932.21, 0.0837760
2933.87, 0.0837760
2935.53, 0.0832970
2937.2, 0.0825460
2938.86, 0.0815210
2940.53, 0.0804960
2942.2, 0.0800170
2943.87, 0.0798120
2945.54, 0.0803590
2947.22, 0.0810420
2948.89, 0.0816570
2950.57, 0.0821360
2952.25, 0.0824090
2953.93, 0.0827510
2955.62, 0.0830920
2957.3, 0.0827510
2958.99, 0.0820670
2960.68, 0.0816570
2962.37, 0.0817940
2964.07, 0.0822720
2965.76, 0.0830920
2967.46, 0.0838440
2969.16, 0.0843910
2970.86, 0.0845270
2972.56, 0.0844590
2974.27, 0.0842540
2975.98, 0.0842540
2977.69, 0.0845270
2979.4, 0.0852790
2981.11, 0.0863040
2982.83, 0.0876020
2984.54, 0.0889010
2986.26, 0.0899940
2987.98, 0.0907460
2989.71, 0.0915660
2991.43, 0.0926590
2993.16, 0.0936840
2994.89, 0.0947770
2996.62, 0.0962120
2998.35, 0.0975110
3000.09, 0.0988090
3001.83, 0.0999020
3003.57, 0.100927
3005.31, 0.101747
3007.05, 0.102294
3008.79, 0.102567
3010.54, 0.102226
3012.29, 0.101337
3014.04, 0.100039
3015.8, 0.0986040
3017.55, 0.0971690
3019.31, 0.0959390
3021.07, 0.0949820
3022.83, 0.0942990
3024.59, 0.0936840
3026.36, 0.0929320
3028.13, 0.0925220
3029.9, 0.0923170
3031.67, 0.0923170
3033.44, 0.0923860
3035.22, 0.0929320
3037.0, 0.0943670
3038.78, 0.0962120
3040.56, 0.0977840
3042.34, 0.0991510
3044.13, 0.100517
3045.92, 0.101679
3047.71, 0.102977
3049.5, 0.104481
3051.3, 0.106667
3053.09, 0.109400
3054.89, 0.112065
3056.69, 0.114730
3058.5, 0.117669
3060.3, 0.120812
3062.11, 0.123477
3063.92, 0.125595
3065.73, 0.127167
3067.55, 0.128192
3069.36, 0.128875
3071.18, 0.129764
3073.0, 0.131404
3074.82, 0.133590
3076.65, 0.135640
3078.48, 0.136938
3080.31, 0.137827
3082.14, 0.138852
3083.97, 0.139740
3085.8, 0.140560
3087.64, 0.141653
3089.48, 0.142952
3091.33, 0.144113
3093.17, 0.145412
3095.02, 0.147393
3096.87, 0.150058
3098.72, 0.152313
3100.57, 0.154227
3102.43, 0.155320
3104.28, 0.156072
3106.14, 0.156960
3108.01, 0.158122
3109.87, 0.159352
3111.74, 0.160513
3113.61, 0.161607
3115.48, 0.162085
3117.35, 0.161948
3119.23, 0.161265
3121.1, 0.160992
3122.98, 0.161470
3124.87, 0.162153
3126.75, 0.163315
3128.64, 0.164955
3130.53, 0.166663
3132.42, 0.168166
3134.31, 0.169396
3136.21, 0.170353
3138.11, 0.170831
3140.01, 0.170626
3141.91, 0.169533
3143.82, 0.167483
3145.73, 0.165297
3147.64, 0.163588
3149.55, 0.162495
3151.46, 0.161948
3153.38, 0.161812
3155.3, 0.162085
3157.22, 0.162973
3159.14, 0.164203
3161.07, 0.165297
3163.0, 0.166185
3164.93, 0.167005
3166.86, 0.167620
3168.8, 0.168303
3170.74, 0.168781
3172.68, 0.168850
3174.62, 0.168508
3176.56, 0.168030
3178.51, 0.167483
3180.46, 0.166800
3182.42, 0.166117
3184.37, 0.166185
3186.33, 0.166458
3188.29, 0.166937
3190.25, 0.167346
3192.21, 0.167825
3194.18, 0.168303
3196.15, 0.168645
3198.12, 0.168781
3200.09, 0.169123
3202.07, 0.169465
3204.05, 0.170011
3206.03, 0.170900
3208.02, 0.172403
3210.0, 0.174521
3211.99, 0.177186
3213.98, 0.180056
3215.98, 0.182721
3217.97, 0.184976
3219.97, 0.186685
3221.97, 0.187915
3223.98, 0.188803
3225.98, 0.189145
3227.99, 0.188940
3230.0, 0.188393
3232.02, 0.187505
3234.03, 0.186548
3236.05, 0.185455
3238.07, 0.184498
3240.1, 0.184088
3242.12, 0.184703
3244.15, 0.186343
3246.18, 0.188461
3248.22, 0.190716
3250.25, 0.192698
3252.29, 0.194475
3254.33, 0.195978
3256.38, 0.197276
3258.43, 0.198369
3260.47, 0.199736
3262.53, 0.201308
3264.58, 0.202879
3266.64, 0.204519
3268.7, 0.206159
3270.76, 0.207458
3272.82, 0.208756
3274.89, 0.210191
3276.96, 0.211694
3279.04, 0.213334
3281.11, 0.214974
3283.19, 0.216614
3285.27, 0.218459
3287.35, 0.220578
3289.44, 0.222354
3291.53, 0.223721
3293.62, 0.225156
3295.71, 0.226659
3297.81, 0.227753
3299.91, 0.228436
3302.01, 0.228982
3304.11, 0.228982
3306.22, 0.228709
3308.33, 0.228572
3310.44, 0.228436
3312.56, 0.228367
3314.68, 0.228436
3316.8, 0.228504
3318.92, 0.228982
3321.05, 0.230007
3323.18, 0.231511
3325.31, 0.233219
3327.44, 0.235406
3329.58, 0.238207
3331.72, 0.241282
3333.86, 0.244152
3336.01, 0.246681
3338.16, 0.248799
3340.31, 0.250576
3342.46, 0.252079
3344.61, 0.253377
3346.77, 0.254197
3348.94, 0.254812
3351.1, 0.255017
3353.27, 0.254744
3355.44, 0.254197
3357.61, 0.253787
3359.79, 0.253992
3361.97, 0.254539
3364.15, 0.255085
3366.33, 0.255222
3368.52, 0.254539
3370.71, 0.252967
3372.9, 0.250439
3375.1, 0.246886
3377.3, 0.243127
3379.5, 0.239779
3381.71, 0.237114
3383.91, 0.235747
3386.12, 0.235542
3388.34, 0.236294
3390.55, 0.237387
3392.77, 0.238617
3394.99, 0.239711
3397.22, 0.240599
3399.45, 0.241077
3401.68, 0.241556
3403.91, 0.241897
3406.15, 0.242376
3408.39, 0.242854
3410.63, 0.242922
3412.87, 0.242512
3415.12, 0.242034
3417.37, 0.241761
3419.63, 0.242102
3421.88, 0.243059
3424.14, 0.244357
3426.41, 0.245382
3428.67, 0.245724
3430.94, 0.245314
3433.21, 0.244426
3435.49, 0.242991
3437.77, 0.241146
3440.05, 0.239096
3442.33, 0.236977
3444.62, 0.235132
3446.91, 0.234381
3449.2, 0.234722
3451.5, 0.235884
3453.8, 0.237797
3456.1, 0.240121
3458.41, 0.242786
3460.72, 0.245997
3463.03, 0.249414
3465.34, 0.252967
3467.66, 0.256452
3469.98, 0.259732
3472.31, 0.262807
3474.63, 0.265677
3476.96, 0.268274
3479.3, 0.270392
3481.64, 0.272100
3483.97, 0.273535
3486.32, 0.274970
3488.66, 0.276542
3491.01, 0.278045
3493.36, 0.279002
3495.72, 0.279344
3498.08, 0.278660
3500.44, 0.277089
3502.81, 0.274765
3505.18, 0.271554
3507.55, 0.267249
3509.92, 0.262124
3512.3, 0.255769
3514.68, 0.248389
3517.06, 0.240121
3519.45, 0.231306
3521.84, 0.222149
3524.24, 0.212856
3526.64, 0.203973
3529.04, 0.196320
3531.44, 0.190375
3533.85, 0.186343
3536.26, 0.184840
3538.67, 0.186206
3541.09, 0.189555
3543.51, 0.193928
3545.93, 0.198096
3548.36, 0.201103
3550.79, 0.202469
3553.22, 0.202333
3555.66, 0.201513
3558.1, 0.200693
3560.54, 0.200898
3562.99, 0.202196
3565.44, 0.205681
3567.9, 0.211694
3570.35, 0.220236
3572.81, 0.230212
3575.28, 0.240531
3577.75, 0.250302
3580.22, 0.259117
3582.69, 0.266634
3585.17, 0.273262
3587.65, 0.279070
3590.14, 0.283717
3592.62, 0.287475
3595.11, 0.290892
3597.61, 0.293898
3600.11, 0.296563
3602.61, 0.298682
3605.11, 0.300390
3607.62, 0.301962
3610.14, 0.303328
3612.65, 0.304422
3615.17, 0.305310
3617.69, 0.306130
3620.22, 0.306813
3622.75, 0.307223
3625.28, 0.307633
3627.82, 0.307770
3630.36, 0.307633
3632.9, 0.307360
3635.45, 0.306608
3638.0, 0.305583
3640.56, 0.304353
3643.12, 0.302713
3645.68, 0.301005
3648.24, 0.299638
3650.81, 0.298887
3653.39, 0.298135
3655.96, 0.297452
3658.54, 0.297178
3661.13, 0.297042
3663.71, 0.296905
3666.3, 0.296768
3668.9, 0.296768
3671.5, 0.296837
3674.1, 0.296905
3676.7, 0.296973
3679.31, 0.296768
3681.93, 0.296358
3684.54, 0.295743
3687.17, 0.294787
3689.79, 0.293830
3692.42, 0.292873
3695.05, 0.291917
3697.69, 0.290823
3700.32, 0.289593
3702.97, 0.288363
3705.61, 0.286997
3708.27, 0.285630
3710.92, 0.284195
3713.58, 0.282624
3716.24, 0.281052
3718.91, 0.279685
3721.58, 0.278592
3724.25, 0.277362
3726.93, 0.276132
3729.61, 0.275654
3732.29, 0.275517
3734.98, 0.275859
3737.67, 0.276747
3740.37, 0.278182
3743.07, 0.280095
3745.78, 0.282214
3748.49, 0.284400
3751.2, 0.286450
3753.91, 0.288432
3756.63, 0.290345
3759.36, 0.292122
3762.09, 0.293693
3764.82, 0.295470
3767.55, 0.297110
3770.29, 0.298272
3773.04, 0.299365
3775.78, 0.300322
3778.54, 0.301142
3781.29, 0.301620
3784.05, 0.302030
3786.82, 0.302440
3789.59, 0.302918
3792.36, 0.303055
3795.13, 0.302987
3797.92, 0.302782
3800.7, 0.302303
3803.49, 0.301688
3806.28, 0.300800
3809.08, 0.300048
3811.88, 0.299365
3814.68, 0.298750
3817.49, 0.298340
3820.31, 0.297862
3823.12, 0.297588
3825.94, 0.297178
3828.77, 0.296768
3831.6, 0.296358
3834.43, 0.295948
3837.27, 0.295538
3840.11, 0.295060
3842.96, 0.294787
3845.81, 0.294308
3848.67, 0.293625
3851.53, 0.292873
3854.39, 0.291985
3857.26, 0.290892
3860.13, 0.289115
3863.01, 0.285972
3865.89, 0.277772
3868.77, 0.257341
3871.66, 0.239506
3874.55, 0.251601
3877.45, 0.272715
3880.35, 0.282145
3883.26, 0.284742
3886.17, 0.285494
3889.09, 0.285835
3892.01, 0.285767
3894.93, 0.285630
3897.86, 0.285494
3900.79, 0.285494
3903.73, 0.285357
3906.67, 0.285289
3909.62, 0.285152
3912.57, 0.285152
3915.52, 0.285084
3918.48, 0.284947
3921.45, 0.284742
3924.42, 0.284605
3927.39, 0.284400
3930.37, 0.284127
3933.35, 0.284059
3936.34, 0.283922
3939.33, 0.283580
3942.32, 0.283102
3945.32, 0.282487
3948.33, 0.281872
3951.34, 0.280984
3954.35, 0.280095
3957.37, 0.279344
3960.39, 0.278592
3963.42, 0.277909
3966.45, 0.277362
3969.49, 0.276815
3972.53, 0.276269
3975.58, 0.275654
3978.63, 0.275175
3981.68, 0.274902
3984.75, 0.274560
3987.81, 0.274082
3990.88, 0.273740
3993.95, 0.273535
3997.03, 0.273399
4000.12, 0.273330
4003.21, 0.273399
4006.3, 0.273467
4009.4, 0.273535
4012.5, 0.273467
4015.61, 0.273330
4018.72, 0.273262
4021.84, 0.273330
4024.96, 0.273467
4028.09, 0.273672
4031.22, 0.273945
4034.36, 0.274355
4037.5, 0.274629
4040.65, 0.274834
4043.8, 0.275175
4046.96, 0.275517
4050.12, 0.275790
4053.29, 0.276064
4056.46, 0.276132
4059.64, 0.276132
4062.82, 0.276064
4066.0, 0.275995
4069.19, 0.275654
4072.39, 0.275380
4075.59, 0.275039
4078.8, 0.274492
4082.01, 0.273945
4085.23, 0.273330
4088.45, 0.272510
4091.68, 0.271690
4094.91, 0.270802
4098.15, 0.269709
4101.39, 0.268479
4104.63, 0.267317
4107.89, 0.266087
4111.14, 0.264720
4114.41, 0.263354
4117.67, 0.262055
4120.95, 0.260620
4124.23, 0.258981
4127.51, 0.257341
4130.8, 0.255632
4134.09, 0.253992
4137.39, 0.252284
4140.7, 0.250302
4144.01, 0.248389
4147.32, 0.246202
4150.64, 0.243947
4153.97, 0.241624
4157.3, 0.238959
4160.64, 0.236089
4163.98, 0.233151
4167.33, 0.229939
4170.68, 0.226523
4174.04, 0.223106
4177.4, 0.219621
4180.77, 0.215863
4184.14, 0.211831
4187.52, 0.207594
4190.91, 0.203221
4194.3, 0.198643
4197.69, 0.193860
4201.1, 0.188940
4204.5, 0.184020
4207.92, 0.179031
4211.34, 0.173770
4214.76, 0.168440
4218.19, 0.163178
4221.62, 0.157985
4225.06, 0.153202
4228.51, 0.148760
4231.96, 0.144455
4235.42, 0.140560
4238.88, 0.137212
4242.35, 0.134410
4245.83, 0.131882
4249.31, 0.129764
4252.79, 0.128124
4256.28, 0.126757
4259.78, 0.125390
4263.29, 0.124365
4266.79, 0.123750
4270.31, 0.123887
4273.83, 0.124570
4277.35, 0.125664
4280.89, 0.127304
4284.42, 0.129354
4287.97, 0.131540
4291.52, 0.134000
4295.07, 0.136529
4298.63, 0.139057
4302.2, 0.141653
4305.78, 0.144318
4309.35, 0.146710
4312.94, 0.148965
4316.53, 0.151152
4320.13, 0.153133
4323.73, 0.154978
4327.34, 0.156618
4330.96, 0.158122
4334.58, 0.159557
4338.21, 0.160855
4341.84, 0.162222
4345.48, 0.163315
4349.12, 0.164408
4352.77, 0.165502
4356.43, 0.166595
4360.1, 0.167688
4363.76, 0.168645
4367.44, 0.169670
4371.12, 0.170695
4374.81, 0.171583
4378.51, 0.172540
4382.21, 0.173428
4385.92, 0.174385
4389.63, 0.175410
4393.35, 0.176298
4397.08, 0.177118
4400.81, 0.178075
4404.55, 0.179031
4408.29, 0.180056
4412.04, 0.181081
4415.8, 0.182175
4419.57, 0.183131
4423.34, 0.184088
4427.12, 0.184908
4430.9, 0.185591
4434.69, 0.186070
4438.49, 0.186343
4442.29, 0.186411
4446.1, 0.186548
4449.92, 0.186821
4453.74, 0.186958
4457.57, 0.186958
4461.41, 0.186890
4465.25, 0.186685
4469.1, 0.186480
4472.95, 0.186070
4476.82, 0.185386
4480.69, 0.184566
4484.56, 0.183610
4488.44, 0.182311
4492.33, 0.180808
4496.23, 0.179236
4500.13, 0.177801
4504.04, 0.176366
4507.96, 0.175068
4511.88, 0.173906
4515.81, 0.172881
4519.75, 0.171788
4523.69, 0.170626
4527.65, 0.169533
4531.6, 0.168440
4535.57, 0.167346
4539.54, 0.165980
4543.52, 0.164477
4547.5, 0.162905
4551.5, 0.161197
4555.5, 0.159283
4559.5, 0.157302
4563.52, 0.155252
4567.54, 0.153065
4571.56, 0.150673
4575.6, 0.148282
4579.64, 0.145822
4583.69, 0.143157
4587.75, 0.140355
4591.81, 0.137485
4595.88, 0.134752
4599.96, 0.132087
4604.04, 0.129422
4608.14, 0.126825
4612.24, 0.124297
4616.34, 0.121905
4620.46, 0.119514
4624.58, 0.117122
4628.71, 0.114730
4632.84, 0.112544
4636.99, 0.110630
4641.14, 0.109059
4645.3, 0.107624
4649.47, 0.106394
4653.64, 0.105369
4657.82, 0.104344
4662.01, 0.103251
4666.21, 0.102021
4670.41, 0.100791
4674.62, 0.0996290
4678.84, 0.0984670
4683.07, 0.0973740
4687.3, 0.0962810
4691.54, 0.0953240
4695.79, 0.0943670
4700.05, 0.0934790
4704.31, 0.0927960
4708.59, 0.0920440
4712.87, 0.0913610
4717.15, 0.0908140
4721.45, 0.0901310
4725.76, 0.0894470
4730.07, 0.0888320
4734.39, 0.0883540
4738.72, 0.0878070
4743.05, 0.0872610
4747.39, 0.0867820
4751.75, 0.0863040
4756.1, 0.0858260
4760.47, 0.0854160
4764.85, 0.0848010
4769.23, 0.0841170
4773.62, 0.0835020
4778.02, 0.0826820
4782.43, 0.0818620
4786.85, 0.0809740
4791.27, 0.0800170
4795.7, 0.0791290
4800.14, 0.0781040
4804.59, 0.0770790
4809.05, 0.0759860
4813.51, 0.0748930
4817.99, 0.0740040
4822.47, 0.0729790
4826.96, 0.0718860
4831.46, 0.0709290
4835.96, 0.0700410
4840.48, 0.0691530
4845.0, 0.0684010
4849.54, 0.0678540
4854.08, 0.0671710
4858.63, 0.0665560
4863.18, 0.0659410
4867.75, 0.0652580
4872.33, 0.0646430
4876.91, 0.0640280
4881.5, 0.0634130
4886.1, 0.0626610
4890.71, 0.0621140
4895.33, 0.0614990
4899.96, 0.0608160
4904.59, 0.0602010
4909.24, 0.0595860
4913.89, 0.0589030
4918.55, 0.0581510
4923.22, 0.0573310
4927.9, 0.0566480
4932.59, 0.0558960
4937.29, 0.0550760
4942.0, 0.0541880
4946.71, 0.0534360
4951.44, 0.0527530
4956.17, 0.0521380
4960.91, 0.0515910
4965.67, 0.0511810
4970.43, 0.0507710
4975.2, 0.0502930
4979.98, 0.0498830
4984.76, 0.0494730
4989.56, 0.0490630
4994.37, 0.0485840
4999.18, 0.0481060
5004.01, 0.0477640
5008.84, 0.0475590
5013.69, 0.0471490
5018.54, 0.0466710
5023.4, 0.0463290
5028.28, 0.0460560
5033.16, 0.0458510
5038.05, 0.0455780
5042.95, 0.0454410
5047.86, 0.0452360
5052.78, 0.0450310
5057.71, 0.0447580
5062.65, 0.0445530
5067.6, 0.0443480
5072.56, 0.0442800
5077.53, 0.0440750
5082.5, 0.0436650
5087.49, 0.0434600
5092.49, 0.0432550
5097.5, 0.0429130
5102.51, 0.0425710
5107.54, 0.0422980
5112.58, 0.0420930
5117.62, 0.0418880
5122.68, 0.0416830
5127.75, 0.0415460
5132.82, 0.0413410
5137.91, 0.0411360
5143.01, 0.0408630
5148.12, 0.0405210
5153.23, 0.0403160
5158.36, 0.0401110
5163.5, 0.0399750
5168.65, 0.0397700
5173.81, 0.0394280
5178.98, 0.0390860
5184.15, 0.0388130
5189.34, 0.0385400
5194.54, 0.0382660
5199.75, 0.0379250
5204.98, 0.0377880
5210.21, 0.0373780
5215.45, 0.0371050
5220.7, 0.0370360
5225.96, 0.0369000
5231.23, 0.0366260
5236.52, 0.0362160
5241.81, 0.0358060
5247.12, 0.0354650
5252.44, 0.0351230
5257.76, 0.0347810
5263.1, 0.0344400
5268.45, 0.0341660
5273.81, 0.0339610
5279.18, 0.0338250
5284.56, 0.0335510
5289.95, 0.0333460
5295.36, 0.0332780
5300.77, 0.0331410
5306.2, 0.0328680
5311.63, 0.0327310
5317.08, 0.0325950
5322.54, 0.0323900
5328.01, 0.0321850
5333.49, 0.0319110
5338.98, 0.0317750
5344.49, 0.0315700
5350.0, 0.0312960
5355.53, 0.0312960
5361.07, 0.0312960
5366.62, 0.0312960
5372.18, 0.0313650
5377.75, 0.0313650
5383.34, 0.0314330
5388.93, 0.0316380
5394.54, 0.0317060
5400.16, 0.0318430
5405.79, 0.0319110
5411.44, 0.0319800
5417.09, 0.0319110
5422.76, 0.0317750
5428.43, 0.0321850
5434.12, 0.0324580
5439.83, 0.0324580
5445.54, 0.0325950
5451.26, 0.0327310
5457.0, 0.0328000
5462.75, 0.0326630
5468.52, 0.0328680
5474.29, 0.0330730
5480.08, 0.0330730
5485.88, 0.0334150
5491.69, 0.0337560
5497.51, 0.0340300
5503.35, 0.0342350
5509.2, 0.0345080
5515.06, 0.0346450
5520.93, 0.0348500
5526.82, 0.0350550
5532.71, 0.0353960
5538.63, 0.0357380
5544.55, 0.0358750
5550.49, 0.0359430
5556.44, 0.0361480
5562.4, 0.0366260
5568.37, 0.0368310
5574.36, 0.0367630
5580.36, 0.0369000
5586.37, 0.0375830
5592.4, 0.0381300
5598.44, 0.0385400
5604.49, 0.0388810
5610.56, 0.0394280
5616.63, 0.0398380
5622.73, 0.0404530
5628.83, 0.0408630
5634.95, 0.0409310
5641.08, 0.0408630
5647.23, 0.0414780
5653.39, 0.0420250
5659.56, 0.0423660
5665.74, 0.0426400
5671.94, 0.0422980
5678.15, 0.0422300
5684.38, 0.0422980
5690.62, 0.0419560
5696.87, 0.0418880
5703.14, 0.0417510
5709.42, 0.0411360
5715.72, 0.0410680
5722.03, 0.0412050
5728.35, 0.0411360
5734.69, 0.0410000
5741.03, 0.0405210
5747.4, 0.0399060
5753.78, 0.0396330
5760.17, 0.0386080
5766.58, 0.0370360
5773.0, 0.0366950
5779.44, 0.0362850
5785.88, 0.0355330
5792.35, 0.0349860
5798.83, 0.0344400
5805.32, 0.0339610
5811.83, 0.0332100
5818.35, 0.0321850
5824.89, 0.0318430
5831.45, 0.0319800
5838.01, 0.0321160
5844.59, 0.0321850
5851.19, 0.0321850
5857.8, 0.0319800
5864.43, 0.0317750
5871.07, 0.0317750
5877.73, 0.0310230
5884.4, 0.0309550
5891.09, 0.0313650
5897.79, 0.0310910
5904.5, 0.0315700
5911.23, 0.0317060
5917.98, 0.0314330
5924.75, 0.0310910
5931.53, 0.0301350
5938.32, 0.0294510
5945.13, 0.0299980
5951.96, 0.0300660
5958.8, 0.0298610
5965.65, 0.0292460
5972.53, 0.0290410
5979.42, 0.0290410
5986.32, 0.0286310
5993.24, 0.0284260
6000.18, 0.0284950
6007.13, 0.0281530
6014.1, 0.0277430
6021.08, 0.0277430
6028.09, 0.0277430
6035.1, 0.0275380
6042.14, 0.0265130
6049.19, 0.0254200
6056.25, 0.0261030
6063.34, 0.0265810
6070.44, 0.0261710
6077.55, 0.0262400
6084.69, 0.0266500
6091.84, 0.0266500
6099.0, 0.0264450
6106.19, 0.0261030
6113.39, 0.0256930
6120.61, 0.0261030
6127.84, 0.0264450
6135.09, 0.0262400
6142.36, 0.0260350
6149.65, 0.0259660
6156.95, 0.0257610
6164.27, 0.0256930
6171.61, 0.0258300
6178.97, 0.0254200
6186.34, 0.0251460
6193.73, 0.0255560
6201.14, 0.0257610
6208.57, 0.0256250
6216.01, 0.0254200
6223.47, 0.0252830
6230.95, 0.0251460
6238.45, 0.0249410
6245.97, 0.0248730
6253.5, 0.0248730
6261.06, 0.0247360
6268.63, 0.0246680
6276.21, 0.0246000
6283.82, 0.0245310
6291.45, 0.0245310
6299.1, 0.0244630
6306.76, 0.0243260
6314.44, 0.0241900
6322.14, 0.0241900
6329.86, 0.0241900
6337.6, 0.0237110
6345.35, 0.0233010
6353.13, 0.0237110
6360.92, 0.0237110
6368.74, 0.0234380
6376.57, 0.0233700
6384.43, 0.0233010
6392.3, 0.0230960
6400.19, 0.0227550
6408.1, 0.0218660
6416.03, 0.0213880
6423.98, 0.0219350
6431.95, 0.0220710
6439.94, 0.0220710
6447.95, 0.0221400
6455.98, 0.0221400
6464.03, 0.0220710
6472.1, 0.0218660
6480.19, 0.0216610
6488.31, 0.0213200
6496.44, 0.0213880
6504.59, 0.0222080
6512.76, 0.0226860
6520.95, 0.0226180
6529.16, 0.0228910
6537.4, 0.0230280
6545.65, 0.0230960
6553.92, 0.0230960
6562.22, 0.0230960
6570.54, 0.0226860
6578.88, 0.0228910
6587.23, 0.0230960
6595.61, 0.0230280
6604.02, 0.0230280
6612.44, 0.0227550
6620.89, 0.0226180
6629.35, 0.0220030
6637.84, 0.0215250
6646.35, 0.0219350
6654.88, 0.0222760
6663.44, 0.0222760
6672.01, 0.0220710
6680.61, 0.0220030
6689.23, 0.0222080
6697.88, 0.0224130
6706.54, 0.0222760
6715.23, 0.0222080
6723.94, 0.0222760
6732.67, 0.0223450
6741.42, 0.0223450
6750.2, 0.0222760
6759.0, 0.0222760
6767.82, 0.0220710
6776.67, 0.0217300
6785.54, 0.0214560
6794.44, 0.0214560
6803.35, 0.0215930
6812.29, 0.0214560
6821.26, 0.0211830
6830.24, 0.0209780
6839.25, 0.0208410
6848.29, 0.0203630
6857.35, 0.0198160
6866.43, 0.0195430
6875.54, 0.0198850
6884.67, 0.0199530
6893.82, 0.0198850
6903.0, 0.0196800
6912.2, 0.0195430
6921.43, 0.0194060
6930.69, 0.0192700
6939.96, 0.0191330
6949.27, 0.0187230
6958.59, 0.0181760
6967.95, 0.0181080
6977.33, 0.0181760
6986.73, 0.0179710
6996.16, 0.0176980
7005.61, 0.0176300
7015.09, 0.0174930
7024.6, 0.0174250
7034.13, 0.0172200
7043.69, 0.0169460
7053.27, 0.0170830
7062.88, 0.0171510
7072.52, 0.0170830
7082.18, 0.0169460
7091.87, 0.0166730
7101.58, 0.0162630
7111.32, 0.0159210
7121.09, 0.0157160
7130.88, 0.0155110
7140.71, 0.0151700
7150.56, 0.0148280
7160.43, 0.0145550
7170.33, 0.0142130
7180.27, 0.0139400
7190.23, 0.0135980
7200.21, 0.0131880
7210.23, 0.0127100
7220.27, 0.0124370
7230.34, 0.0121630
7240.44, 0.0120270
7250.56, 0.0118900
7260.72, 0.0116850
7270.9, 0.0113430
7281.12, 0.0110700
7291.36, 0.0109330
7301.63, 0.0107970
7311.93, 0.0105230
7322.25, 0.0103870
7332.61, 0.0101820
7343.0, 0.0100450
7353.41, 0.00990800
7363.86, 0.00970300
7374.33, 0.00956700
7384.83, 0.00936200
7395.37, 0.00915700
7405.93, 0.00908800
7416.53, 0.00895200
7427.15, 0.00881500
7437.81, 0.00867800
7448.5, 0.00847300
7459.22, 0.00833700
7469.96, 0.00826800
7480.74, 0.00813200
7491.55, 0.00792700
7502.39, 0.00779000
7513.27, 0.00772200
7524.17, 0.00758500
7535.11, 0.00738000
7546.08, 0.00717500
7557.08, 0.00717500
7568.11, 0.00710700
7579.17, 0.00676500
7590.27, 0.00649200
7601.4, 0.00649200
7612.56, 0.00628700
7623.76, 0.00601300
7634.98, 0.00580800
7646.24, 0.00560300
7657.54, 0.00546700
7668.87, 0.00539800
7680.23, 0.00519300
7691.62, 0.00492000
7703.05, 0.00471500
7714.51, 0.00457800
7726.01, 0.00437300
7737.54, 0.00423700
7749.11, 0.00416800
7760.71, 0.00403200
7772.35, 0.00382700
7784.02, 0.00375800
7795.72, 0.00369000
7807.46, 0.00362200
7819.23, 0.00341700
7831.04, 0.00334800
7842.89, 0.00328000
7854.77, 0.00328000
7866.69, 0.00321200
7878.65, 0.00314300
7890.64, 0.00314300
7902.67, 0.00307500
7914.74, 0.00314300
7926.84, 0.00334800
7938.98, 0.00341700
7951.16, 0.00355300
7963.37, 0.00375800
7975.62, 0.00396300
7987.91, 0.00451000
8000.24, 0.00505700
8012.6, 0.00560300
8025.01, 0.00635500
8037.45, 0.00724300
8049.93, 0.00820000
8062.45, 0.00929300
8075.01, 0.0106600
8087.61, 0.0123000
8100.24, 0.0140080
8112.91, 0.0157160
8125.63, 0.0178350
8138.39, 0.0202260
8151.18, 0.0228910
8164.02, 0.0259660
8176.9, 0.0293830
8189.81, 0.0330730
8202.77, 0.0371730
8215.77, 0.0418200
8228.82, 0.0470130
8241.9, 0.0525480
8255.02, 0.0587660
8268.19, 0.0657360
8281.39, 0.0731840
8294.65, 0.0813160
8307.94, 0.0899260
8321.28, 0.0992190
8334.66, 0.108854
8348.08, 0.118420
8361.54, 0.127782
8375.05, 0.136665
8388.6, 0.144182
8402.2, 0.150195
8415.84, 0.154910
8429.52, 0.158190
8443.25, 0.160103
8457.02, 0.160992
8470.84, 0.160923
8484.7, 0.160308
8498.61, 0.159420
8512.57, 0.158600
8526.57, 0.157848
8540.62, 0.157438
8554.71, 0.157438
8568.85, 0.158122
8583.04, 0.159420
8597.27, 0.161333
8611.55, 0.163178
8625.88, 0.164340
8640.26, 0.164955
8654.68, 0.166253
8669.16, 0.169601
8683.68, 0.175956
8698.25, 0.185045
8712.87, 0.195363
8727.53, 0.205681
8742.25, 0.215248
8757.02, 0.223311
8771.83, 0.229802
8786.7, 0.234927
8801.62, 0.238412
8816.59, 0.240121
8831.61, 0.240736
8846.68, 0.240462
8861.8, 0.239574
8876.97, 0.238139
8892.2, 0.236499
8907.48, 0.234654
8922.81, 0.232399
8938.2, 0.229871
8953.63, 0.227138
8969.13, 0.223926
8984.67, 0.220646
9000.27, 0.217708
9015.92, 0.214701
9031.63, 0.211558
9047.39, 0.208414
9063.21, 0.205271
9079.08, 0.201923
9095.01, 0.198574
9111.0, 0.195295
9127.04, 0.192015
9143.13, 0.188666
9159.28, 0.185455
9175.49, 0.182175
9191.76, 0.178553
9208.09, 0.175000
9224.47, 0.171651
9240.92, 0.168918
9257.42, 0.167210
9273.98, 0.166185
9290.6, 0.165092
9307.28, 0.163588
9324.02, 0.161538
9340.82, 0.159078
9357.68, 0.158122
9374.6, 0.160650
9391.58, 0.166595
9408.62, 0.173155
9425.73, 0.177733
9442.9, 0.179920
9460.13, 0.180603
9477.42, 0.180330
9494.78, 0.179510
9512.2, 0.178416
9529.69, 0.176845
9547.24, 0.174931
9564.86, 0.172881
9582.54, 0.170558
9600.28, 0.167893
9618.1, 0.164340
9635.97, 0.159488
9653.92, 0.152518
9671.93, 0.143362
9690.01, 0.133932
9708.16, 0.127372
9726.37, 0.128329
9744.65, 0.141175
9763.0, 0.165638
9781.43, 0.193791
9799.92, 0.217093
9818.48, 0.233561
9837.1, 0.244289
9855.8, 0.250507
9874.58, 0.253787
9893.42, 0.254676
9912.34, 0.253651
9931.33, 0.250917
9950.39, 0.247227
9969.52, 0.243059
9988.74, 0.238412
10008.0, 0.233697
10027.4, 0.229666
10046.8, 0.227684
10066.3, 0.229119
10085.9, 0.233082
10105.6, 0.235747
10125.3, 0.234244
10145.1, 0.229187
10165.0, 0.221671
10185.0, 0.212309
10205.0, 0.202401
10225.2, 0.192288
10245.4, 0.181218
10265.7, 0.169055
10286.0, 0.156208
10306.5, 0.142815
10327.0, 0.129695
10347.6, 0.118899
10368.3, 0.113500
10389.1, 0.116029
10409.9, 0.125800
10430.9, 0.141038
10451.9, 0.160445
10473.0, 0.181491
10494.2, 0.200488
10515.5, 0.215043
10536.9, 0.224814
10558.4, 0.230896
10579.9, 0.233697
10601.5, 0.233082
10623.3, 0.229256
10645.1, 0.223448
10667.0, 0.216068
10689.0, 0.208414
10711.1, 0.201103
10733.2, 0.194201
10755.5, 0.188393
10777.9, 0.184840
10800.3, 0.184225
10822.9, 0.186821
10845.5, 0.191810
10868.2, 0.196525
10891.1, 0.198574
10914.0, 0.196661
10937.0, 0.190648
10960.2, 0.181013
10983.4, 0.169465
11006.7, 0.157097
11030.1, 0.144660
11053.6, 0.133112
11077.3, 0.122930
11101.0, 0.115140
11124.8, 0.112339
11148.7, 0.118694
11172.7, 0.135230
11196.9, 0.156345
11221.1, 0.173975
11245.4, 0.184635
11269.9, 0.189350
11294.4, 0.190101
11319.1, 0.188325
11343.9, 0.184840
11368.8, 0.180125
11393.7, 0.174521
11418.8, 0.168030
11444.0, 0.160855
11469.4, 0.152792
11494.8, 0.143908
11520.3, 0.134410
11546.0, 0.125117
11571.8, 0.116712
11597.7, 0.109605
11623.7, 0.105847
11649.8, 0.108785
11676.0, 0.120060
11702.4, 0.134547
11728.9, 0.145343
11755.5, 0.148760
11782.2, 0.145138
11809.0, 0.138032
11836.0, 0.130652
11863.0, 0.124297
11890.3, 0.119377
11917.6, 0.115277
11945.0, 0.111519
11972.6, 0.108034
12000.4, 0.104754
12028.2, 0.101747
12056.2, 0.0988090
12084.3, 0.0962810
12112.5, 0.0937520
12140.9, 0.0912240
12169.4, 0.0886960
12198.0, 0.0863040
12226.8, 0.0837760
12255.7, 0.0810420
12284.7, 0.0783090
12313.9, 0.0756440
12343.2, 0.0729110
12372.7, 0.0699040
12402.3, 0.0666240
12432.0, 0.0627980
12461.9, 0.0586980
12491.9, 0.0544610
12522.1, 0.0507710
12552.4, 0.0508390
12582.9, 0.0604740
12613.5, 0.0823410
12644.3, 0.109400
12675.2, 0.130447
12706.3, 0.141107
12737.5, 0.143020
12768.9, 0.138715
12800.4, 0.130447
12832.1, 0.121359
12863.9, 0.113705
12895.9, 0.107760
12928.1, 0.102977
12960.4, 0.0992190
12992.9, 0.0962810
13025.5, 0.0938210
13058.3, 0.0914290
13091.3, 0.0890370
13124.4, 0.0871240
13157.8, 0.0856890
13191.2, 0.0841860
13224.9, 0.0826140
13258.7, 0.0812470
13292.7, 0.0800170
13326.9, 0.0785140
13361.2, 0.0770790
13395.7, 0.0759170
13430.4, 0.0747560
13465.3, 0.0733890
13500.4, 0.0718860
13535.7, 0.0710660
13571.1, 0.0703830
13606.7, 0.0692890
13642.5, 0.0681960
13678.5, 0.0672390
13714.7, 0.0662140
13751.1, 0.0653260
13787.6, 0.0641640
13824.4, 0.0630030
13861.4, 0.0620460
13898.5, 0.0606790
13935.9, 0.0592440
13973.5, 0.0576730
14011.2, 0.0558280
14049.2, 0.0541190
14087.4, 0.0523430
14125.8, 0.0505660
14164.3, 0.0485160
14203.2, 0.0459880
14242.2, 0.0435280
14281.4, 0.0433230
14320.9, 0.0490630
14360.5, 0.0584240
14400.4, 0.0637540
14440.5, 0.0655310
14480.9, 0.0685380
14521.4, 0.0722960
14562.2, 0.0740040
14603.3, 0.0729790
14644.5, 0.0707930
14686.0, 0.0686060
14727.7, 0.0662830
14769.7, 0.0646430
14811.9, 0.0636180
14854.3, 0.0624560
14897.0, 0.0613630
14939.9, 0.0599280
14983.1, 0.0586980
15026.5, 0.0579460
15070.2, 0.0570580
15114.2, 0.0558960
15158.3, 0.0550760
15202.8, 0.0543240
15247.5, 0.0534360
15292.5, 0.0523430
15337.7, 0.0517960
15383.2, 0.0510440
15429.0, 0.0504290
15475.1, 0.0500190
15521.4, 0.0493360
15568.0, 0.0484480
15614.9, 0.0479010
15662.1, 0.0468080
15709.6, 0.0457830
15757.3, 0.0450310
15805.4, 0.0443480
15853.7, 0.0435280
15902.3, 0.0422980
15951.2, 0.0409310
16000.5, 0.0397700
16050.0, 0.0386080
16099.8, 0.0371730
16150.0, 0.0364900
16200.5, 0.0359430
16251.3, 0.0348500
16302.4, 0.0338930
16353.8, 0.0330730
16405.5, 0.0321850
16457.6, 0.0310230
16510.0, 0.0297250
16562.8, 0.0284950
16615.9, 0.0271960
16669.3, 0.0258980
16723.1, 0.0247360
16777.2, 0.0231650
16831.7, 0.0220710
16886.5, 0.0217300
16941.7, 0.0218660
16997.2, 0.0237800
17053.1, 0.0289050
17109.4, 0.0372410
17166.1, 0.0478330
17223.1, 0.0586290
17280.5, 0.0664190
17338.3, 0.0703140
17396.5, 0.0705190
17455.1, 0.0667610
17514.0, 0.0582190
17573.4, 0.0471490
17633.2, 0.0371050
17693.4, 0.0289050
17754.0, 0.0222760
17815.0, 0.0179030
17876.4, 0.0162630
17938.3, 0.0197480
18000.5, 0.0323900
18063.3, 0.0526840
18126.4, 0.0724330
18190.0, 0.0889010
18254.1, 0.106804
18318.6, 0.125390
18383.5, 0.141448
18449.0, 0.155183
18514.9, 0.168645
18581.2, 0.184498
18648.0, 0.202674
18715.4, 0.223174
18783.2, 0.246066
18851.5, 0.264720
18920.3, 0.275449
18989.6, 0.281940
19059.4, 0.287134
19129.7, 0.289252
19200.6, 0.288363
19272.0, 0.286997
19343.9, 0.283854
19416.3, 0.280437
19489.3, 0.277704
19562.8, 0.272784
19637.0, 0.265950
19711.6, 0.258912
19786.8, 0.252147
19862.6, 0.244699
19939.0, 0.238686
20016.0, 0.234312
20093.6, 0.228299
20171.8, 0.221329
20250.6, 0.211899
20330.0, 0.202059
20410.0, 0.190990
20490.7, 0.177460
20572.0, 0.162632
20654.0, 0.147393
20736.6, 0.134752
20819.9, 0.131874
20903.8, 0.148097
20988.5, 0.167832
21073.8, 0.180090
21159.8, 0.178122
21246.5, 0.164109
21334.0, 0.148733
21422.1, 0.138836
21511.0, 0.132177
21600.7, 0.122340
21691.0, 0.115348
21782.1, 0.112200
21874.0, 0.104876
21966.7, 0.0975510
22060.2, 0.0965830
22154.5, 0.100275
22249.6, 0.104301
22345.5, 0.102364
22442.2, 0.0987620
22539.8, 0.0970670
22638.2, 0.0945550
22737.5, 0.0898330
22837.7, 0.0850510
22938.7, 0.0817820
23040.7, 0.0786040
23143.5, 0.0743060
23247.3, 0.0699170
23352.1, 0.0679800
23457.7, 0.0744880
23564.4, 0.0927990
23672.0, 0.108508
23780.5, 0.111989
23890.1, 0.107963
24000.7, 0.101668
24112.3, 0.0953110
24225.0, 0.0899540
24338.7, 0.0862620
24453.5, 0.0846270
24569.4, 0.0825690
24686.4, 0.0813280
24804.5, 0.0795720
24923.8, 0.0761520
25044.2, 0.0733980
25165.8, 0.0738520
25288.6, 0.0733070
25412.5, 0.0707040
25537.7, 0.0700990
25664.1, 0.0679500
25791.8, 0.0648020
25920.8, 0.0603530
26051.1, 0.0550260
26182.6, 0.0530280
26315.5, 0.0516660
26449.8, 0.0467930
26585.4, 0.0423740
26722.5, 0.0389240
26860.9, 0.0362900
27000.8, 0.0428890
27142.1, 0.0691300
27285.0, 0.109628
27429.4, 0.144405
27575.3, 0.161385
27722.7, 0.165895
27871.8, 0.162111
28022.4, 0.155543
28174.7, 0.146554
28328.7, 0.133055
28484.4, 0.120040
28641.7, 0.110021
28800.9, 0.0998820
28961.8, 0.0933140
29124.5, 0.0926480
29289.0, 0.0969760
29455.4, 0.101274
29623.8, 0.106329
29794.0, 0.111777
29966.3, 0.118405
30140.5, 0.129907
30316.7, 0.148551
30495.1, 0.172584
30675.5, 0.197645
30858.1, 0.216138
31042.8, 0.226035
31229.8, 0.228578
31419.1, 0.234450
31610.7, 0.243469
31804.6, 0.253397
32000.9, 0.262810
32199.7, 0.267471
32400.9, 0.266987
32604.8, 0.264596
32811.1, 0.259693
33020.1, 0.251914
33231.8, 0.245406
33446.2, 0.236992
33663.4, 0.226096
33883.4, 0.213717
34106.3, 0.193680
34332.1, 0.177759
34561.0, 0.189715
34792.9, 0.209267
35028.0, 0.211083
35266.3, 0.204394
35507.8, 0.198311
35752.7, 0.191501
36001.0, 0.181149
36252.8, 0.169496
36508.1, 0.154514
36767.0, 0.139683
37029.7, 0.125306
37296.1, 0.110354
37566.3, 0.0965520
37840.5, 0.0842030
38118.8, 0.0707340
38401.2, 0.0687670
38687.8, 0.112019
38978.6, 0.210357
39273.9, 0.307333
39573.7, 0.354247
39878.1, 0.348920
40187.3, 0.312690
40501.2, 0.282968
40820.0, 0.287538
41144.0, 0.285359
41473.2, 0.242743
41807.6, 0.221435
42147.5, 0.268712
42493.0, 0.337964
42844.2, 0.384363
43201.2, 0.401434
43564.3, 0.399436
43933.5, 0.391204
44309.0, 0.380065
44691.0, 0.364599
45079.6, 0.348073
45475.0, 0.327885
45877.5, 0.307666
46287.1, 0.281273
46704.2, 0.252065
47128.7, 0.229728
47561.1, 0.214716
48001.5, 0.198129
48450.1, 0.181997
48907.2, 0.172462
49373.0, 0.190774
49847.7, 0.216622
50331.5, 0.215291
50825.0, 0.201943
51328.2, 0.190925
51841.5, 0.183601
52365.1, 0.175247
52899.4, 0.173280
53444.8, 0.169981
54001.5, 0.167529
54570.1, 0.167499
55150.6, 0.165562
55743.6, 0.159357
56349.5, 0.153152
56968.7, 0.150700
57601.7, 0.147643
58248.9, 0.136777
58910.9, 0.134356
59588.1, 0.140561
60281.0, 0.133024
60990.2, 0.124761
61716.3, 0.142104
62459.8, 0.170798
63221.6, 0.164865
64002.1, 0.148400
64802.1, 0.134144
65622.1, 0.118436
66463.4, 0.119737
67326.6, 0.169950
68212.4, 0.209237
69121.9, 0.195920
70056.0, 0.177426
71015.7, 0.173280
72002.0, 0.175187
73016.3, 0.180302
74059.4, 0.181331
75132.7, 0.186204
76237.6, 0.192499
77375.5, 0.197675
78547.9, 0.200672
79756.3, 0.201489
81002.5, 0.206876
82288.5, 0.219286
83615.7, 0.226732
84986.5, 0.228033
86402.9, 0.235963
87867.4, 0.244862
89382.4, 0.251551
90950.5, 0.255879
92574.6, 0.260752
94257.2, 0.268016
96002.7, 0.271073
97814.1, 0.272859
99695.1, 0.286630
101650.0, 0.288931
103683.0, 0.289021
105799.0, 0.300886
108003.0, 0.310965
110301.0, 0.314113
112699.0, 0.312569
115204.0, 0.325675
117822.0, 0.333726
120562.0, 0.332576
123433.0, 0.331789
126443.0, 0.336541
129604.0, 0.347256
132926.0, 0.352492
136424.0, 0.348254
140111.0, 0.361723
144003.0, 0.374799
148118.0, 0.382426
152474.0, 0.392656
157095.0, 0.393625
162004.0, 0.411452
167231.0, 0.434213
172805.0, 0.435878
178764.0, 0.429552
185148.0, 0.438511
192005.0, 0.445412
199390.0, 0.478101
207366.0, 0.503707
216006.0, 0.522351
