Database of Origin, USGS Spectral Database
Sample Description, See USGS database for additional info
Date Added,2017-07-03 06:06:55.762763

Data ID,USGS_hem16          
Sample ID, hematite_gds69.9679
Mineral Name, hematite
Material Class,Oxide

Wavelength
1469.02, 0.380365
1469.43, 0.377175
1469.85, 0.374375
1470.27, 0.375464
1470.68, 0.376709
1471.1, 0.375931
1471.52, 0.372430
1471.94, 0.370874
1472.35, 0.373674
1472.77, 0.376008
1473.19, 0.378265
1473.61, 0.379120
1474.03, 0.376397
1474.45, 0.375853
1474.87, 0.378265
1475.29, 0.377098
1475.71, 0.372430
1476.13, 0.372507
1476.55, 0.376864
1476.97, 0.383477
1477.39, 0.383088
1477.81, 0.381610
1478.23, 0.381532
1478.65, 0.376320
1479.07, 0.373052
1479.5, 0.376164
1479.92, 0.378265
1480.34, 0.375542
1480.76, 0.374608
1481.19, 0.376397
1481.61, 0.378654
1482.03, 0.379587
1482.46, 0.380210
1482.88, 0.377253
1483.31, 0.376709
1483.73, 0.377876
1484.16, 0.377642
1484.58, 0.379432
1485.01, 0.381843
1485.43, 0.382466
1485.86, 0.380287
1486.28, 0.377953
1486.71, 0.378576
1487.14, 0.381221
1487.56, 0.379665
1487.99, 0.377798
1488.42, 0.377020
1488.84, 0.376475
1489.27, 0.377798
1489.7, 0.380599
1490.13, 0.382855
1490.56, 0.382699
1490.98, 0.379120
1491.41, 0.379120
1491.84, 0.380832
1492.27, 0.381766
1492.7, 0.381610
1493.13, 0.379432
1493.56, 0.380676
1493.99, 0.383166
1494.42, 0.381143
1494.85, 0.378576
1495.29, 0.377175
1495.72, 0.379198
1496.15, 0.379976
1496.58, 0.378031
1497.01, 0.382155
1497.44, 0.384489
1497.88, 0.384411
1498.31, 0.385500
1498.74, 0.384411
1499.18, 0.387212
1499.61, 0.385344
1500.04, 0.382232
1500.48, 0.379509
1500.91, 0.378887
1501.35, 0.380210
1501.78, 0.382777
1502.22, 0.383244
1502.65, 0.384800
1503.09, 0.382855
1503.53, 0.378342
1503.96, 0.377564
1504.4, 0.380054
1504.83, 0.384022
1505.27, 0.383166
1505.71, 0.382466
1506.15, 0.382155
1506.58, 0.383633
1507.02, 0.384644
1507.46, 0.381221
1507.9, 0.381221
1508.34, 0.380754
1508.78, 0.381532
1509.21, 0.381299
1509.66, 0.379821
1510.09, 0.380676
1510.53, 0.382544
1510.97, 0.385422
1511.42, 0.386356
1511.86, 0.386900
1512.3, 0.384878
1512.74, 0.382699
1513.18, 0.382388
1513.62, 0.381610
1514.06, 0.383088
1514.51, 0.381843
1514.95, 0.379976
1515.39, 0.384489
1515.83, 0.384722
1516.28, 0.384022
1516.72, 0.383322
1517.16, 0.383944
1517.61, 0.383244
1518.05, 0.382310
1518.5, 0.381688
1518.94, 0.383633
1519.39, 0.382621
1519.83, 0.382310
1520.28, 0.380210
1520.73, 0.381299
1521.17, 0.384878
1521.62, 0.386589
1522.07, 0.386278
1522.51, 0.386823
1522.96, 0.386667
1523.41, 0.385111
1523.85, 0.384333
1524.3, 0.386045
1524.75, 0.385033
1525.2, 0.382155
1525.65, 0.382855
1526.1, 0.384644
1526.55, 0.384722
1527.0, 0.384333
1527.45, 0.383866
1527.9, 0.383788
1528.35, 0.386278
1528.8, 0.387756
1529.25, 0.386434
1529.7, 0.387523
1530.15, 0.388067
1530.6, 0.387056
1531.05, 0.385967
1531.51, 0.388534
1531.96, 0.386823
1532.41, 0.387212
1532.87, 0.386667
1533.32, 0.386045
1533.77, 0.386434
1534.23, 0.382933
1534.68, 0.383399
1535.14, 0.388145
1535.59, 0.390790
1536.05, 0.391957
1536.5, 0.388534
1536.96, 0.386900
1537.41, 0.386978
1537.87, 0.385733
1538.32, 0.385967
1538.78, 0.386511
1539.24, 0.386434
1539.7, 0.386667
1540.15, 0.383010
1540.61, 0.386434
1541.07, 0.389001
1541.53, 0.387678
1541.98, 0.387912
1542.44, 0.390401
1542.9, 0.389079
1543.36, 0.387990
1543.82, 0.388456
1544.28, 0.389001
1544.74, 0.387601
1545.2, 0.388379
1545.66, 0.386823
1546.12, 0.386823
1546.59, 0.386900
1547.05, 0.389001
1547.51, 0.389079
1547.97, 0.388379
1548.43, 0.390090
1548.9, 0.390635
1549.36, 0.389468
1549.82, 0.384955
1550.29, 0.384333
1550.75, 0.389312
1551.21, 0.390557
1551.68, 0.388456
1552.14, 0.388379
1552.61, 0.389779
1553.07, 0.387134
1553.54, 0.387212
1554.0, 0.390635
1554.47, 0.391335
1554.93, 0.391724
1555.4, 0.391568
1555.87, 0.389390
1556.34, 0.390557
1556.8, 0.391335
1557.27, 0.390090
1557.74, 0.391646
1558.21, 0.393747
1558.68, 0.392269
1559.14, 0.390090
1559.61, 0.387912
1560.08, 0.388690
1560.55, 0.390246
1561.02, 0.389701
1561.49, 0.389234
1561.96, 0.389468
1562.43, 0.389001
1562.9, 0.391724
1563.38, 0.393669
1563.85, 0.391646
1564.32, 0.389546
1564.79, 0.390246
1565.26, 0.390090
1565.74, 0.389234
1566.21, 0.391102
1566.68, 0.394136
1567.16, 0.395536
1567.63, 0.394992
1568.1, 0.394992
1568.58, 0.396859
1569.05, 0.397792
1569.53, 0.395381
1570.0, 0.391880
1570.48, 0.393436
1570.96, 0.396314
1571.43, 0.395458
1571.91, 0.393280
1572.39, 0.393358
1572.86, 0.392891
1573.34, 0.390790
1573.82, 0.390479
1574.3, 0.391957
1574.77, 0.392658
1575.25, 0.391413
1575.73, 0.393669
1576.21, 0.393747
1576.69, 0.389857
1577.17, 0.388456
1577.65, 0.390790
1578.13, 0.390557
1578.61, 0.392269
1579.09, 0.392813
1579.57, 0.394058
1580.05, 0.394603
1580.54, 0.393669
1581.02, 0.394914
1581.5, 0.395692
1581.98, 0.394758
1582.47, 0.394758
1582.95, 0.395614
1583.43, 0.396314
1583.92, 0.395536
1584.4, 0.394214
1584.88, 0.394369
1585.37, 0.394136
1585.85, 0.396159
1586.34, 0.396781
1586.82, 0.394992
1587.31, 0.393591
1587.8, 0.394369
1588.28, 0.395770
1588.77, 0.398259
1589.26, 0.395925
1589.74, 0.395225
1590.23, 0.396003
1590.72, 0.396703
1591.21, 0.395536
1591.7, 0.394525
1592.19, 0.393747
1592.67, 0.395303
1593.16, 0.395614
1593.65, 0.392969
1594.14, 0.392346
1594.63, 0.392424
1595.12, 0.393669
1595.61, 0.395381
1596.11, 0.394603
1596.6, 0.394603
1597.09, 0.396470
1597.58, 0.397481
1598.08, 0.397559
1598.57, 0.397403
1599.06, 0.395225
1599.55, 0.394136
1600.05, 0.394291
1600.54, 0.394914
1601.04, 0.395147
1601.53, 0.394525
1602.03, 0.394836
1602.52, 0.394992
1603.02, 0.394291
1603.51, 0.395225
1604.01, 0.394525
1604.5, 0.396548
1605.0, 0.396548
1605.5, 0.394836
1606.0, 0.394603
1606.49, 0.398181
1606.99, 0.398804
1607.49, 0.397481
1607.99, 0.397481
1608.49, 0.396470
1608.99, 0.397637
1609.49, 0.399504
1609.99, 0.399037
1610.49, 0.396548
1610.99, 0.398570
1611.49, 0.398804
1611.99, 0.397559
1612.49, 0.397481
1612.99, 0.399193
1613.49, 0.400982
1614.0, 0.401138
1614.5, 0.401449
1615.0, 0.400126
1615.51, 0.399115
1616.01, 0.399348
1616.51, 0.398104
1617.02, 0.397092
1617.52, 0.399660
1618.03, 0.401682
1618.53, 0.401138
1619.04, 0.399504
1619.54, 0.398959
1620.05, 0.399193
1620.55, 0.398648
1621.06, 0.397637
1621.57, 0.399115
1622.08, 0.399660
1622.58, 0.397326
1623.09, 0.397948
1623.6, 0.400204
1624.11, 0.400749
1624.62, 0.400827
1625.13, 0.402460
1625.64, 0.404250
1626.15, 0.403161
1626.66, 0.402071
1627.17, 0.401293
1627.68, 0.400904
1628.19, 0.401371
1628.7, 0.401838
1629.21, 0.403783
1629.72, 0.404483
1630.24, 0.401994
1630.75, 0.398804
1631.26, 0.397403
1631.78, 0.399893
1632.29, 0.400827
1632.8, 0.401216
1633.32, 0.402694
1633.83, 0.403705
1634.35, 0.402460
1634.86, 0.400515
1635.38, 0.400827
1635.9, 0.402849
1636.41, 0.403394
1636.93, 0.403005
1637.45, 0.403238
1637.96, 0.403939
1638.48, 0.403472
1639.0, 0.403472
1639.52, 0.403705
1640.04, 0.403316
1640.56, 0.403627
1641.08, 0.405261
1641.59, 0.405884
1642.11, 0.403550
1642.63, 0.402694
1643.16, 0.402772
1643.68, 0.402071
1644.2, 0.402538
1644.72, 0.405417
1645.24, 0.403783
1645.76, 0.403550
1646.29, 0.403783
1646.81, 0.403238
1647.33, 0.404172
1647.86, 0.404172
1648.38, 0.402927
1648.9, 0.401682
1649.43, 0.402071
1649.95, 0.403161
1650.48, 0.402694
1651.0, 0.401994
1651.53, 0.403861
1652.06, 0.404561
1652.58, 0.404250
1653.11, 0.405650
1653.64, 0.407673
1654.17, 0.406039
1654.69, 0.404328
1655.22, 0.403238
1655.75, 0.401916
1656.28, 0.402694
1656.81, 0.403161
1657.34, 0.404094
1657.87, 0.403550
1658.4, 0.405028
1658.93, 0.407051
1659.46, 0.405961
1659.99, 0.405106
1660.52, 0.403627
1661.05, 0.404172
1661.59, 0.406584
1662.12, 0.407128
1662.65, 0.406584
1663.19, 0.406895
1663.72, 0.406350
1664.26, 0.405261
1664.79, 0.404172
1665.32, 0.402849
1665.86, 0.403472
1666.39, 0.406662
1666.93, 0.406662
1667.47, 0.404717
1668.0, 0.405417
1668.54, 0.405961
1669.08, 0.404872
1669.61, 0.405417
1670.15, 0.406739
1670.69, 0.407051
1671.23, 0.406039
1671.77, 0.405261
1672.31, 0.404639
1672.85, 0.403316
1673.39, 0.403394
1673.93, 0.405884
1674.47, 0.405728
1675.01, 0.405183
1675.55, 0.404172
1676.09, 0.406195
1676.64, 0.407906
1677.18, 0.407051
1677.72, 0.406506
1678.26, 0.409618
1678.81, 0.410085
1679.35, 0.408762
1679.89, 0.408062
1680.44, 0.407673
1680.98, 0.407284
1681.53, 0.405183
1682.07, 0.403861
1682.62, 0.405806
1683.17, 0.407440
1683.71, 0.407440
1684.26, 0.404950
1684.81, 0.404405
1685.36, 0.405961
1685.9, 0.406662
1686.45, 0.406350
1687.0, 0.406739
1687.55, 0.405650
1688.1, 0.406895
1688.65, 0.407829
1689.2, 0.406506
1689.75, 0.404872
1690.3, 0.404328
1690.85, 0.406350
1691.41, 0.406817
1691.96, 0.405495
1692.51, 0.406662
1693.06, 0.407206
1693.61, 0.405806
1694.17, 0.405106
1694.72, 0.406273
1695.28, 0.407517
1695.83, 0.406895
1696.39, 0.406506
1696.94, 0.407284
1697.5, 0.409385
1698.05, 0.408684
1698.61, 0.407362
1699.17, 0.408762
1699.72, 0.409229
1700.28, 0.407751
1700.84, 0.406584
1701.4, 0.407440
1701.95, 0.407751
1702.51, 0.407829
1703.07, 0.408295
1703.63, 0.408373
1704.19, 0.407984
1704.75, 0.408607
1705.31, 0.407206
1705.88, 0.407595
1706.44, 0.408218
1707.0, 0.407751
1707.56, 0.408295
1708.12, 0.407751
1708.69, 0.408062
1709.25, 0.409696
1709.81, 0.409540
1710.38, 0.408840
1710.94, 0.409929
1711.51, 0.409851
1712.07, 0.410163
1712.64, 0.409851
1713.2, 0.409073
1713.77, 0.409151
1714.34, 0.408840
1714.9, 0.410163
1715.47, 0.410707
1716.04, 0.409307
1716.61, 0.408140
1717.18, 0.408373
1717.74, 0.410474
1718.31, 0.410785
1718.88, 0.410085
1719.45, 0.410163
1720.02, 0.410318
1720.59, 0.410396
1721.17, 0.411796
1721.74, 0.412886
1722.31, 0.412808
1722.88, 0.410707
1723.45, 0.409774
1724.03, 0.411330
1724.6, 0.412652
1725.18, 0.410941
1725.75, 0.410007
1726.33, 0.410085
1726.9, 0.408529
1727.48, 0.409696
1728.05, 0.410474
1728.63, 0.410240
1729.2, 0.409851
1729.78, 0.411330
1730.36, 0.411407
1730.94, 0.411952
1731.51, 0.411952
1732.09, 0.411252
1732.67, 0.411096
1733.25, 0.410240
1733.83, 0.410240
1734.41, 0.411563
1734.99, 0.411407
1735.57, 0.412263
1736.15, 0.413741
1736.73, 0.413275
1737.32, 0.412497
1737.9, 0.411641
1738.48, 0.412497
1739.07, 0.412263
1739.65, 0.411796
1740.23, 0.411641
1740.82, 0.411407
1741.4, 0.411641
1741.99, 0.411485
1742.57, 0.411952
1743.16, 0.411018
1743.74, 0.411018
1744.33, 0.411407
1744.92, 0.412263
1745.51, 0.412886
1746.09, 0.412185
1746.68, 0.412963
1747.27, 0.414053
1747.86, 0.412574
1748.45, 0.412808
1749.04, 0.412652
1749.63, 0.413508
1750.22, 0.412419
1750.81, 0.412419
1751.4, 0.412808
1751.99, 0.413275
1752.59, 0.412886
1753.18, 0.412341
1753.77, 0.412108
1754.37, 0.412341
1754.96, 0.411952
1755.56, 0.412185
1756.15, 0.413897
1756.74, 0.413275
1757.34, 0.414130
1757.94, 0.415142
1758.53, 0.414286
1759.13, 0.413430
1759.73, 0.414908
1760.32, 0.415764
1760.92, 0.415609
1761.52, 0.415142
1762.12, 0.415609
1762.72, 0.415297
1763.32, 0.415142
1763.92, 0.415686
1764.52, 0.414908
1765.12, 0.415453
1765.72, 0.417009
1766.32, 0.416464
1766.92, 0.415920
1767.53, 0.418020
1768.13, 0.418254
1768.73, 0.417476
1769.34, 0.416309
1769.94, 0.415920
1770.55, 0.416542
1771.15, 0.416231
1771.76, 0.416931
1772.36, 0.417787
1772.97, 0.418254
1773.57, 0.418798
1774.18, 0.419187
1774.79, 0.418954
1775.4, 0.419032
1776.0, 0.419966
1776.61, 0.420432
1777.22, 0.419576
1777.83, 0.419187
1778.44, 0.419265
1779.05, 0.418254
1779.66, 0.418643
1780.27, 0.420199
1780.88, 0.420977
1781.5, 0.420743
1782.11, 0.420510
1782.72, 0.420666
1783.33, 0.420510
1783.95, 0.420666
1784.56, 0.421055
1785.18, 0.420743
1785.79, 0.420666
1786.41, 0.421210
1787.02, 0.420821
1787.64, 0.420666
1788.26, 0.419966
1788.87, 0.420743
1789.49, 0.421599
1790.11, 0.421444
1790.73, 0.420821
1791.35, 0.421366
1791.96, 0.421366
1792.58, 0.420899
1793.21, 0.420277
1793.83, 0.420121
1794.45, 0.421366
1795.07, 0.421755
1795.69, 0.421288
1796.31, 0.420354
1796.93, 0.419421
1797.56, 0.419888
1798.18, 0.421288
1798.8, 0.422066
1799.43, 0.421366
1800.05, 0.421210
1800.68, 0.420743
1801.3, 0.420510
1801.93, 0.420510
1802.56, 0.420199
1803.18, 0.420666
1803.81, 0.422066
1804.44, 0.422844
1805.07, 0.422377
1805.7, 0.421288
1806.33, 0.421910
1806.95, 0.422299
1807.58, 0.420743
1808.22, 0.421132
1808.85, 0.422144
1809.48, 0.421910
1810.11, 0.421910
1810.74, 0.421910
1811.38, 0.421366
1812.01, 0.422066
1812.64, 0.422844
1813.28, 0.421988
1813.91, 0.422611
1814.55, 0.422766
1815.18, 0.422144
1815.82, 0.423000
1816.45, 0.423622
1817.09, 0.423544
1817.73, 0.423077
1818.36, 0.423467
1819.0, 0.424089
1819.64, 0.423855
1820.28, 0.423778
1820.92, 0.423000
1821.56, 0.422377
1822.2, 0.423233
1822.84, 0.423311
1823.48, 0.423700
1824.12, 0.423933
1824.76, 0.423933
1825.41, 0.423389
1826.05, 0.422611
1826.69, 0.422299
1827.34, 0.422688
1827.98, 0.423311
1828.63, 0.424322
1829.27, 0.424711
1829.92, 0.424789
1830.56, 0.425334
1831.21, 0.424789
1831.86, 0.424322
1832.5, 0.424633
1833.15, 0.424089
1833.8, 0.424867
1834.45, 0.425645
1835.1, 0.425178
1835.75, 0.423778
1836.4, 0.423389
1837.05, 0.423622
1837.7, 0.423389
1838.35, 0.424633
1839.01, 0.426189
1839.66, 0.425723
1840.31, 0.425723
1840.96, 0.426189
1841.62, 0.426345
1842.27, 0.426812
1842.93, 0.426345
1843.58, 0.426267
1844.24, 0.426423
1844.9, 0.425411
1845.55, 0.425723
1846.21, 0.426890
1846.87, 0.426501
1847.53, 0.426189
1848.18, 0.425878
1848.84, 0.426189
1849.5, 0.427356
1850.16, 0.427979
1850.82, 0.427745
1851.48, 0.426656
1852.14, 0.426034
1852.81, 0.426656
1853.47, 0.426189
1854.13, 0.426345
1854.8, 0.427512
1855.46, 0.427668
1856.12, 0.428212
1856.79, 0.429535
1857.45, 0.429768
1858.12, 0.429068
1858.79, 0.428990
1859.45, 0.429224
1860.12, 0.427512
1860.79, 0.427434
1861.46, 0.428290
1862.12, 0.429379
1862.79, 0.430002
1863.46, 0.428835
1864.13, 0.428912
1864.8, 0.430468
1865.48, 0.430468
1866.15, 0.429768
1866.82, 0.428757
1867.49, 0.428912
1868.16, 0.430002
1868.84, 0.429535
1869.51, 0.430002
1870.19, 0.430157
1870.86, 0.429379
1871.54, 0.428835
1872.21, 0.428446
1872.89, 0.428679
1873.56, 0.427979
1874.24, 0.428912
1874.92, 0.429302
1875.6, 0.430235
1876.28, 0.430624
1876.96, 0.430391
1877.64, 0.430313
1878.32, 0.429846
1879.0, 0.430157
1879.68, 0.430080
1880.36, 0.429613
1881.04, 0.429379
1881.73, 0.430080
1882.41, 0.430624
1883.09, 0.431013
1883.78, 0.430624
1884.46, 0.430157
1885.15, 0.430468
1885.83, 0.431402
1886.52, 0.432102
1887.21, 0.431791
1887.89, 0.430546
1888.58, 0.430468
1889.27, 0.430624
1889.96, 0.431636
1890.65, 0.432258
1891.34, 0.431558
1892.03, 0.430468
1892.72, 0.430546
1893.41, 0.430858
1894.1, 0.430313
1894.79, 0.430780
1895.49, 0.431402
1896.18, 0.432258
1896.87, 0.432802
1897.57, 0.432024
1898.26, 0.431402
1898.96, 0.431246
1899.65, 0.431636
1900.35, 0.431713
1901.05, 0.430780
1901.74, 0.431402
1902.44, 0.431791
1903.14, 0.431791
1903.84, 0.431636
1904.54, 0.430702
1905.24, 0.430624
1905.94, 0.430935
1906.64, 0.430780
1907.34, 0.431480
1908.04, 0.430935
1908.75, 0.430546
1909.45, 0.430858
1910.15, 0.430935
1910.86, 0.431169
1911.56, 0.431636
1912.27, 0.431169
1912.97, 0.430780
1913.68, 0.431869
1914.39, 0.432802
1915.09, 0.432725
1915.8, 0.431791
1916.51, 0.430858
1917.22, 0.431558
1917.93, 0.432180
1918.64, 0.431947
1919.35, 0.431480
1920.06, 0.430780
1920.77, 0.431091
1921.48, 0.431480
1922.19, 0.432180
1922.91, 0.432336
1923.62, 0.432725
1924.33, 0.432725
1925.05, 0.432647
1925.76, 0.433036
1926.48, 0.433425
1927.19, 0.433425
1927.91, 0.432880
1928.63, 0.432258
1929.35, 0.432802
1930.07, 0.433036
1930.78, 0.433192
1931.5, 0.432491
1932.22, 0.433114
1932.94, 0.433814
1933.66, 0.433814
1934.39, 0.433581
1935.11, 0.433347
1935.83, 0.433114
1936.55, 0.433269
1937.28, 0.433658
1938.0, 0.434359
1938.73, 0.434514
1939.45, 0.433736
1940.18, 0.433814
1940.9, 0.434436
1941.63, 0.434436
1942.36, 0.434203
1943.09, 0.435137
1943.81, 0.435292
1944.54, 0.434670
1945.27, 0.434748
1946.0, 0.435137
1946.73, 0.435292
1947.47, 0.435137
1948.2, 0.435759
1948.93, 0.436148
1949.66, 0.435292
1950.4, 0.435448
1951.13, 0.435992
1951.86, 0.436148
1952.6, 0.437159
1953.34, 0.436381
1954.07, 0.435681
1954.81, 0.435137
1955.55, 0.435526
1956.29, 0.436070
1957.02, 0.437004
1957.76, 0.437471
1958.5, 0.437471
1959.24, 0.437237
1959.98, 0.436693
1960.72, 0.436615
1961.47, 0.437782
1962.21, 0.438560
1962.95, 0.438093
1963.7, 0.436926
1964.44, 0.436615
1965.18, 0.437159
1965.93, 0.437626
1966.67, 0.437004
1967.42, 0.436459
1968.17, 0.436381
1968.92, 0.437082
1969.66, 0.437471
1970.41, 0.437393
1971.16, 0.438171
1971.91, 0.438793
1972.66, 0.438326
1973.41, 0.438171
1974.16, 0.438171
1974.92, 0.439027
1975.67, 0.438482
1976.42, 0.438326
1977.18, 0.438093
1977.93, 0.438638
1978.69, 0.439338
1979.44, 0.439416
1980.2, 0.439027
1980.95, 0.439027
1981.71, 0.438326
1982.47, 0.439182
1983.23, 0.439027
1983.99, 0.438404
1984.74, 0.439027
1985.51, 0.440038
1986.27, 0.440349
1987.03, 0.439493
1987.79, 0.439260
1988.55, 0.439260
1989.32, 0.439260
1990.08, 0.440349
1990.84, 0.440505
1991.61, 0.439493
1992.37, 0.439649
1993.14, 0.440038
1993.9, 0.439649
1994.67, 0.439727
1995.44, 0.440038
1996.21, 0.440349
1996.98, 0.440583
1997.75, 0.440660
1998.52, 0.440583
1999.29, 0.440349
2000.06, 0.440038
2000.83, 0.440505
2001.6, 0.440660
2002.38, 0.440427
2003.15, 0.440894
2003.93, 0.441672
2004.7, 0.441983
2005.48, 0.441672
2006.25, 0.441361
2007.03, 0.440583
2007.81, 0.440038
2008.58, 0.439727
2009.36, 0.440116
2010.14, 0.441283
2010.92, 0.441361
2011.7, 0.440972
2012.48, 0.441516
2013.26, 0.441827
2014.05, 0.441049
2014.83, 0.440427
2015.61, 0.440660
2016.4, 0.441516
2017.18, 0.441438
2017.97, 0.442061
2018.75, 0.442683
2019.54, 0.442528
2020.32, 0.442216
2021.11, 0.442450
2021.9, 0.442372
2022.69, 0.442372
2023.48, 0.441516
2024.27, 0.441205
2025.06, 0.441750
2025.85, 0.442061
2026.64, 0.441594
2027.44, 0.442294
2028.23, 0.442605
2029.02, 0.442294
2029.82, 0.442605
2030.61, 0.442683
2031.41, 0.442917
2032.2, 0.442839
2033.0, 0.442139
2033.8, 0.443306
2034.6, 0.444706
2035.4, 0.444862
2036.2, 0.444239
2037.0, 0.443850
2037.8, 0.444161
2038.6, 0.444784
2039.4, 0.445173
2040.2, 0.445095
2041.01, 0.444239
2041.81, 0.444161
2042.61, 0.444862
2043.42, 0.445095
2044.22, 0.445328
2045.03, 0.446184
2045.84, 0.446184
2046.65, 0.445795
2047.46, 0.445406
2048.26, 0.445717
2049.07, 0.446573
2049.88, 0.446651
2050.69, 0.446495
2051.51, 0.445640
2052.32, 0.445951
2053.13, 0.446729
2053.94, 0.446729
2054.76, 0.446029
2055.57, 0.446262
2056.39, 0.446573
2057.2, 0.446573
2058.02, 0.446573
2058.84, 0.446807
2059.66, 0.447585
2060.48, 0.447118
2061.29, 0.447662
2062.11, 0.448518
2062.94, 0.447896
2063.76, 0.447585
2064.58, 0.447662
2065.4, 0.447896
2066.22, 0.448285
2067.05, 0.448674
2067.87, 0.448907
2068.7, 0.448285
2069.52, 0.448051
2070.35, 0.448285
2071.18, 0.448285
2072.0, 0.448051
2072.83, 0.448829
2073.66, 0.449374
2074.49, 0.449063
2075.32, 0.448596
2076.15, 0.448674
2076.98, 0.449141
2077.82, 0.448985
2078.65, 0.449141
2079.48, 0.450308
2080.32, 0.450930
2081.15, 0.451008
2081.99, 0.450463
2082.83, 0.450774
2083.66, 0.450152
2084.5, 0.449607
2085.34, 0.450541
2086.18, 0.450619
2087.02, 0.449919
2087.86, 0.448985
2088.7, 0.448985
2089.54, 0.450463
2090.39, 0.451086
2091.23, 0.451086
2092.07, 0.450697
2092.92, 0.450230
2093.76, 0.450230
2094.61, 0.450074
2095.45, 0.450619
2096.3, 0.451086
2097.15, 0.450930
2098.0, 0.450852
2098.85, 0.451163
2099.7, 0.450930
2100.55, 0.450852
2101.4, 0.451475
2102.25, 0.452253
2103.1, 0.452564
2103.96, 0.451630
2104.81, 0.451552
2105.67, 0.452253
2106.52, 0.451864
2107.38, 0.451319
2108.24, 0.451086
2109.09, 0.451241
2109.95, 0.451708
2110.81, 0.451864
2111.67, 0.451786
2112.53, 0.451786
2113.39, 0.451864
2114.25, 0.451786
2115.12, 0.452097
2115.98, 0.452175
2116.84, 0.452486
2117.71, 0.452408
2118.58, 0.452019
2119.44, 0.451941
2120.31, 0.451708
2121.18, 0.451708
2122.04, 0.452019
2122.91, 0.451941
2123.78, 0.452175
2124.65, 0.452253
2125.52, 0.452253
2126.4, 0.452253
2127.27, 0.452486
2128.14, 0.452797
2129.02, 0.453886
2129.89, 0.454120
2130.77, 0.453031
2131.64, 0.452330
2132.52, 0.452719
2133.4, 0.452953
2134.27, 0.453264
2135.15, 0.452797
2136.03, 0.452642
2136.91, 0.452253
2137.79, 0.452486
2138.68, 0.452486
2139.56, 0.452797
2140.44, 0.452564
2141.33, 0.452875
2142.21, 0.453031
2143.1, 0.453108
2143.99, 0.453342
2144.87, 0.453964
2145.76, 0.454198
2146.65, 0.453653
2147.54, 0.453497
2148.43, 0.454120
2149.32, 0.454353
2150.21, 0.453809
2151.1, 0.453575
2151.99, 0.454042
2152.89, 0.455287
2153.78, 0.455987
2154.68, 0.455287
2155.57, 0.454275
2156.47, 0.454198
2157.37, 0.455365
2158.27, 0.455987
2159.16, 0.455754
2160.06, 0.455053
2160.96, 0.454587
2161.86, 0.454976
2162.77, 0.455598
2163.67, 0.456298
2164.57, 0.456454
2165.48, 0.456454
2166.38, 0.456532
2167.29, 0.456843
2168.2, 0.456765
2169.1, 0.456687
2170.01, 0.456921
2170.92, 0.456532
2171.83, 0.456687
2172.74, 0.456765
2173.65, 0.456609
2174.56, 0.456843
2175.47, 0.457310
2176.39, 0.458165
2177.3, 0.458321
2178.22, 0.457854
2179.13, 0.457387
2180.05, 0.457076
2180.96, 0.457154
2181.88, 0.457543
2182.8, 0.457854
2183.72, 0.458243
2184.64, 0.458477
2185.56, 0.458088
2186.48, 0.458321
2187.41, 0.458788
2188.33, 0.459332
2189.25, 0.458788
2190.18, 0.458710
2191.1, 0.458866
2192.03, 0.459021
2192.96, 0.459021
2193.89, 0.458943
2194.82, 0.459099
2195.74, 0.459644
2196.68, 0.459799
2197.61, 0.460033
2198.54, 0.460422
2199.47, 0.460266
2200.4, 0.460033
2201.34, 0.460033
2202.28, 0.460188
2203.21, 0.460266
2204.15, 0.459721
2205.08, 0.460033
2206.02, 0.459955
2206.96, 0.460655
2207.9, 0.460733
2208.84, 0.460655
2209.78, 0.460655
2210.73, 0.460499
2211.67, 0.460577
2212.61, 0.460655
2213.56, 0.460733
2214.5, 0.461122
2215.45, 0.461355
2216.4, 0.461200
2217.35, 0.460577
2218.3, 0.460655
2219.24, 0.461511
2220.2, 0.461589
2221.15, 0.461666
2222.1, 0.462055
2223.05, 0.462289
2224.0, 0.461900
2224.96, 0.461978
2225.91, 0.462055
2226.87, 0.461666
2227.83, 0.461433
2228.79, 0.461589
2229.74, 0.461511
2230.7, 0.461355
2231.66, 0.461744
2232.63, 0.461277
2233.59, 0.461589
2234.55, 0.461511
2235.51, 0.461355
2236.48, 0.461666
2237.44, 0.461511
2238.41, 0.461589
2239.38, 0.461666
2240.34, 0.462289
2241.31, 0.462522
2242.28, 0.461978
2243.25, 0.461666
2244.22, 0.461433
2245.19, 0.461511
2246.17, 0.461822
2247.14, 0.462055
2248.12, 0.462133
2249.09, 0.461277
2250.07, 0.461277
2251.04, 0.462055
2252.02, 0.461355
2253.0, 0.461122
2253.98, 0.461044
2254.96, 0.460888
2255.94, 0.461122
2256.92, 0.461433
2257.91, 0.460966
2258.89, 0.460888
2259.88, 0.460655
2260.86, 0.460499
2261.85, 0.460577
2262.83, 0.461044
2263.82, 0.460811
2264.81, 0.460344
2265.8, 0.460577
2266.79, 0.460655
2267.78, 0.460344
2268.78, 0.460110
2269.77, 0.460033
2270.76, 0.460733
2271.76, 0.460655
2272.75, 0.460188
2273.75, 0.460655
2274.75, 0.460577
2275.75, 0.459799
2276.75, 0.460188
2277.75, 0.460655
2278.75, 0.460655
2279.75, 0.460655
2280.75, 0.460966
2281.76, 0.461511
2282.76, 0.461511
2283.77, 0.460888
2284.77, 0.460266
2285.78, 0.460499
2286.79, 0.460733
2287.8, 0.460577
2288.81, 0.460888
2289.82, 0.460733
2290.83, 0.460655
2291.84, 0.460422
2292.86, 0.460733
2293.87, 0.460499
2294.89, 0.460344
2295.91, 0.460499
2296.92, 0.460266
2297.94, 0.460188
2298.96, 0.460188
2299.98, 0.459877
2301.0, 0.459255
2302.02, 0.459021
2303.04, 0.459177
2304.07, 0.459021
2305.09, 0.458710
2306.12, 0.458788
2307.15, 0.458943
2308.17, 0.459255
2309.2, 0.459488
2310.23, 0.459955
2311.26, 0.460266
2312.29, 0.460266
2313.32, 0.460811
2314.35, 0.461666
2315.39, 0.461822
2316.42, 0.462522
2317.46, 0.462756
2318.5, 0.463145
2319.53, 0.463378
2320.57, 0.463534
2321.61, 0.463923
2322.65, 0.464467
2323.69, 0.464701
2324.73, 0.464623
2325.78, 0.465245
2326.82, 0.465401
2327.86, 0.465245
2328.91, 0.464934
2329.96, 0.464389
2331.01, 0.464623
2332.05, 0.465167
2333.1, 0.465012
2334.15, 0.464701
2335.21, 0.465012
2336.26, 0.465401
2337.31, 0.465167
2338.36, 0.464623
2339.42, 0.464312
2340.48, 0.464467
2341.53, 0.464623
2342.59, 0.464623
2343.65, 0.464545
2344.71, 0.464623
2345.77, 0.464467
2346.83, 0.464156
2347.9, 0.464312
2348.96, 0.464701
2350.02, 0.465323
2351.09, 0.465479
2352.16, 0.465245
2353.23, 0.465401
2354.29, 0.466412
2355.36, 0.467035
2356.43, 0.467190
2357.51, 0.466957
2358.58, 0.466568
2359.65, 0.466257
2360.73, 0.466646
2361.8, 0.467035
2362.88, 0.466957
2363.96, 0.467112
2365.03, 0.467268
2366.11, 0.467424
2367.19, 0.467501
2368.27, 0.467735
2369.36, 0.467968
2370.44, 0.467813
2371.53, 0.467424
2372.61, 0.467035
2373.7, 0.467813
2374.78, 0.468046
2375.87, 0.467501
2376.96, 0.467579
2378.05, 0.467968
2379.14, 0.468124
2380.24, 0.468202
2381.33, 0.468279
2382.42, 0.468513
2383.52, 0.468668
2384.61, 0.468435
2385.71, 0.467890
2386.81, 0.467657
2387.91, 0.468046
2389.01, 0.468435
2390.11, 0.468746
2391.22, 0.468746
2392.32, 0.468824
2393.42, 0.468824
2394.53, 0.468591
2395.64, 0.469057
2396.74, 0.469446
2397.85, 0.469135
2398.96, 0.469446
2400.07, 0.469291
2401.18, 0.468668
2402.3, 0.469135
2403.41, 0.469758
2404.52, 0.469680
2405.64, 0.469602
2406.76, 0.469369
2407.88, 0.469369
2408.99, 0.469446
2410.11, 0.469524
2411.23, 0.469524
2412.36, 0.470069
2413.48, 0.470536
2414.6, 0.470380
2415.73, 0.469913
2416.85, 0.469758
2417.98, 0.470147
2419.11, 0.470458
2420.24, 0.470613
2421.37, 0.470847
2422.5, 0.470613
2423.64, 0.470925
2424.77, 0.471236
2425.9, 0.470847
2427.04, 0.470380
2428.18, 0.470691
2429.31, 0.471002
2430.45, 0.471158
2431.59, 0.471080
2432.73, 0.470691
2433.88, 0.470613
2435.02, 0.471002
2436.16, 0.471391
2437.31, 0.470925
2438.45, 0.471158
2439.6, 0.471703
2440.75, 0.471314
2441.9, 0.471002
2443.05, 0.471314
2444.2, 0.471547
2445.35, 0.472014
2446.51, 0.472325
2447.67, 0.472169
2448.82, 0.471936
2449.98, 0.471936
2451.14, 0.472247
2452.3, 0.472169
2453.46, 0.472014
2454.62, 0.472325
2455.78, 0.472092
2456.94, 0.471703
2458.11, 0.471547
2459.28, 0.471703
2460.44, 0.472403
2461.61, 0.473181
2462.78, 0.472870
2463.95, 0.472481
2465.12, 0.472636
2466.3, 0.472870
2467.47, 0.472870
2468.65, 0.472947
2469.82, 0.473103
2471.0, 0.473181
2472.18, 0.473492
2473.36, 0.473959
2474.54, 0.474348
2475.72, 0.474270
2476.9, 0.474114
2478.08, 0.473803
2479.27, 0.474037
2480.46, 0.474581
2481.64, 0.474892
2482.83, 0.474815
2484.02, 0.474892
2485.21, 0.475126
2486.4, 0.475126
2487.6, 0.474970
2488.79, 0.474970
2489.99, 0.475359
2491.18, 0.475204
2492.38, 0.475048
2493.58, 0.475281
2494.78, 0.475826
2495.98, 0.476059
2497.18, 0.476371
2498.39, 0.476604
2499.59, 0.476448
2500.8, 0.476293
2502.01, 0.476604
2503.21, 0.476604
2504.42, 0.476448
2505.63, 0.476604
2506.84, 0.476837
2508.06, 0.476837
2509.27, 0.477071
2510.49, 0.476993
2511.7, 0.476682
2512.92, 0.476448
2514.14, 0.476682
2515.36, 0.477071
2516.58, 0.477226
2517.8, 0.477460
2519.03, 0.477460
2520.25, 0.477538
2521.48, 0.477927
2522.7, 0.477771
2523.93, 0.477382
2525.16, 0.477226
2526.39, 0.477460
2527.62, 0.477849
2528.86, 0.477771
2530.09, 0.478160
2531.33, 0.478782
2532.56, 0.478627
2533.8, 0.478316
2535.04, 0.478238
2536.28, 0.478393
2537.52, 0.478393
2538.76, 0.478549
2540.01, 0.478471
2541.25, 0.478471
2542.5, 0.478393
2543.75, 0.478549
2544.99, 0.478860
2546.24, 0.478938
2547.49, 0.478705
2548.75, 0.478393
2550.0, 0.478471
2551.26, 0.478860
2552.51, 0.478705
2553.77, 0.479249
2555.03, 0.479560
2556.29, 0.479638
2557.55, 0.479794
2558.81, 0.479638
2560.08, 0.478627
2561.34, 0.477849
2562.61, 0.477927
2563.88, 0.478393
2565.14, 0.479405
2566.41, 0.479949
2567.68, 0.479949
2568.96, 0.479327
2570.23, 0.479872
2571.51, 0.480261
2572.78, 0.479094
2574.06, 0.479405
2575.34, 0.479872
2576.62, 0.479560
2577.9, 0.479949
2579.18, 0.480183
2580.47, 0.479716
2581.75, 0.479949
2583.04, 0.479483
2584.32, 0.479794
2585.61, 0.480261
2586.9, 0.479794
2588.2, 0.479872
2589.49, 0.480494
2590.78, 0.481272
2592.08, 0.480805
2593.37, 0.477615
2594.67, 0.475204
2595.97, 0.477927
2597.27, 0.480650
2598.57, 0.481272
2599.88, 0.481039
2601.18, 0.481116
2602.49, 0.480883
2603.79, 0.479872
2605.1, 0.479094
2606.41, 0.480261
2607.72, 0.481039
2609.03, 0.481194
2610.35, 0.481894
2611.66, 0.482361
2612.98, 0.481817
2614.3, 0.482128
2615.62, 0.481194
2616.94, 0.480416
2618.26, 0.481428
2619.58, 0.480338
2620.91, 0.480494
2622.23, 0.482439
2623.56, 0.483139
2624.89, 0.482206
2626.22, 0.480961
2627.55, 0.481894
2628.88, 0.481972
2630.21, 0.481116
2631.55, 0.482206
2632.89, 0.482750
2634.22, 0.483061
2635.56, 0.483684
2636.9, 0.483917
2638.25, 0.483917
2639.59, 0.483995
2640.93, 0.483917
2642.28, 0.483839
2643.63, 0.483528
2644.98, 0.483139
2646.33, 0.483373
2647.68, 0.483606
2649.03, 0.483917
2650.39, 0.483528
2651.74, 0.482828
2653.1, 0.482828
2654.46, 0.482828
2655.82, 0.482984
2657.18, 0.483295
2658.54, 0.482595
2659.9, 0.482206
2661.27, 0.482206
2662.64, 0.482283
2664.01, 0.480494
2665.38, 0.479094
2666.74, 0.479016
2668.12, 0.480027
2669.49, 0.478238
2670.87, 0.477927
2672.24, 0.480338
2673.62, 0.480883
2675.0, 0.479794
2676.38, 0.478316
2677.76, 0.478393
2679.15, 0.478393
2680.54, 0.478938
2681.92, 0.478316
2683.31, 0.477538
2684.7, 0.477149
2686.09, 0.476293
2687.48, 0.475437
2688.88, 0.474503
2690.27, 0.473336
2691.67, 0.471158
2693.07, 0.467735
2694.47, 0.465401
2695.87, 0.464000
2697.27, 0.461978
2698.67, 0.459099
2700.08, 0.455209
2701.49, 0.450697
2702.9, 0.445717
2704.31, 0.440194
2705.72, 0.435292
2707.13, 0.431091
2708.54, 0.428835
2709.96, 0.428368
2711.38, 0.429846
2712.8, 0.433114
2714.22, 0.435370
2715.64, 0.436381
2717.06, 0.435603
2718.49, 0.433658
2719.91, 0.430468
2721.34, 0.429846
2722.77, 0.429224
2724.2, 0.426656
2725.63, 0.425645
2727.07, 0.425100
2728.5, 0.424167
2729.94, 0.422844
2731.38, 0.420977
2732.82, 0.418643
2734.26, 0.415531
2735.7, 0.413275
2737.15, 0.410863
2738.59, 0.407051
2740.04, 0.404405
2741.49, 0.403550
2742.94, 0.403238
2744.39, 0.401527
2745.84, 0.399271
2747.3, 0.397092
2748.76, 0.394836
2750.21, 0.392269
2751.67, 0.389623
2753.14, 0.386823
2754.6, 0.382544
2756.06, 0.379976
2757.53, 0.378809
2759.0, 0.376320
2760.46, 0.372819
2761.94, 0.370329
2763.41, 0.370640
2764.88, 0.371963
2766.36, 0.371574
2767.83, 0.370640
2769.31, 0.369784
2770.79, 0.368773
2772.27, 0.368073
2773.76, 0.367217
2775.24, 0.365272
2776.73, 0.363249
2778.22, 0.361771
2779.71, 0.360448
2781.2, 0.358815
2782.69, 0.357648
2784.18, 0.356792
2785.68, 0.356014
2787.18, 0.356014
2788.68, 0.357103
2790.18, 0.357803
2791.68, 0.357725
2793.19, 0.357959
2794.69, 0.358348
2796.2, 0.358659
2797.71, 0.358815
2799.22, 0.358815
2800.73, 0.358659
2802.24, 0.358192
2803.76, 0.358036
2805.28, 0.358192
2806.8, 0.357803
2808.32, 0.357336
2809.84, 0.356558
2811.36, 0.355703
2812.89, 0.354924
2814.42, 0.354224
2815.94, 0.353913
2817.48, 0.353602
2819.01, 0.352979
2820.54, 0.352046
2822.08, 0.351657
2823.61, 0.351112
2825.15, 0.350257
2826.69, 0.349401
2828.23, 0.348623
2829.78, 0.347611
2831.32, 0.346522
2832.87, 0.345511
2834.42, 0.344344
2835.97, 0.343410
2837.52, 0.342087
2839.08, 0.341076
2840.63, 0.340065
2842.19, 0.338898
2843.75, 0.337653
2845.31, 0.335941
2846.87, 0.334463
2848.44, 0.332907
2850.0, 0.331273
2851.57, 0.329951
2853.14, 0.328861
2854.71, 0.327539
2856.28, 0.325983
2857.86, 0.324660
2859.43, 0.323104
2861.01, 0.321704
2862.59, 0.320459
2864.17, 0.319448
2865.76, 0.318125
2867.34, 0.316569
2868.93, 0.315091
2870.52, 0.313535
2872.11, 0.312057
2873.7, 0.310967
2875.29, 0.309800
2876.89, 0.308633
2878.49, 0.307700
2880.08, 0.307000
2881.69, 0.305910
2883.29, 0.304588
2884.89, 0.303810
2886.5, 0.303110
2888.11, 0.302409
2889.72, 0.301320
2891.33, 0.300387
2892.94, 0.300075
2894.56, 0.299453
2896.17, 0.298597
2897.79, 0.297975
2899.42, 0.297508
2901.04, 0.296963
2902.66, 0.296341
2904.29, 0.295952
2905.92, 0.295485
2907.55, 0.295096
2909.18, 0.294552
2910.81, 0.294396
2912.45, 0.294085
2914.08, 0.293774
2915.72, 0.293540
2917.36, 0.293307
2919.01, 0.293073
2920.65, 0.292918
2922.3, 0.292529
2923.94, 0.292062
2925.59, 0.291906
2927.25, 0.291829
2928.9, 0.291595
2930.56, 0.291517
2932.21, 0.291284
2933.87, 0.291128
2935.53, 0.290739
2937.2, 0.290506
2938.86, 0.290195
2940.53, 0.289728
2942.2, 0.289183
2943.87, 0.289028
2945.54, 0.289339
2947.22, 0.289650
2948.89, 0.289417
2950.57, 0.289028
2952.25, 0.288794
2953.93, 0.288328
2955.62, 0.288172
2957.3, 0.288172
2958.99, 0.288016
2960.68, 0.287705
2962.37, 0.287394
2964.07, 0.287316
2965.76, 0.287394
2967.46, 0.287316
2969.16, 0.286927
2970.86, 0.286772
2972.56, 0.286538
2974.27, 0.286616
2975.98, 0.286538
2977.69, 0.286383
2979.4, 0.286460
2981.11, 0.286383
2982.83, 0.286305
2984.54, 0.286616
2986.26, 0.286538
2987.98, 0.286694
2989.71, 0.287005
2991.43, 0.287394
2993.16, 0.287550
2994.89, 0.287627
2996.62, 0.287705
2998.35, 0.288172
3000.09, 0.288639
3001.83, 0.289028
3003.57, 0.289417
3005.31, 0.289806
3007.05, 0.290195
3008.79, 0.290817
3010.54, 0.291517
3012.29, 0.292062
3014.04, 0.292684
3015.8, 0.293540
3017.55, 0.294396
3019.31, 0.295018
3021.07, 0.295485
3022.83, 0.296108
3024.59, 0.296652
3026.36, 0.297119
3028.13, 0.297819
3029.9, 0.298597
3031.67, 0.299142
3033.44, 0.299609
3035.22, 0.300153
3037.0, 0.300853
3038.78, 0.301242
3040.56, 0.301709
3042.34, 0.302332
3044.13, 0.302954
3045.92, 0.303343
3047.71, 0.303888
3049.5, 0.304588
3051.3, 0.304977
3053.09, 0.305288
3054.89, 0.305599
3056.69, 0.306066
3058.5, 0.306688
3060.3, 0.307000
3062.11, 0.307233
3063.92, 0.307700
3065.73, 0.308244
3067.55, 0.308478
3069.36, 0.308867
3071.18, 0.309178
3073.0, 0.309334
3074.82, 0.309567
3076.65, 0.309956
3078.48, 0.310189
3080.31, 0.310267
3082.14, 0.310501
3083.97, 0.310734
3085.8, 0.311279
3087.64, 0.311668
3089.48, 0.311979
3091.33, 0.312290
3093.17, 0.312679
3095.02, 0.312835
3096.87, 0.313224
3098.72, 0.313690
3100.57, 0.314002
3102.43, 0.314157
3104.28, 0.314546
3106.14, 0.315091
3108.01, 0.315635
3109.87, 0.315947
3111.74, 0.316413
3113.61, 0.316880
3115.48, 0.317425
3117.35, 0.317892
3119.23, 0.318436
3121.1, 0.318903
3122.98, 0.319292
3124.87, 0.319992
3126.75, 0.320848
3128.64, 0.321393
3130.53, 0.322093
3132.42, 0.322793
3134.31, 0.323338
3136.21, 0.324116
3138.11, 0.324971
3140.01, 0.325594
3141.91, 0.326216
3143.82, 0.326916
3145.73, 0.327694
3147.64, 0.328472
3149.55, 0.329173
3151.46, 0.329717
3153.38, 0.330729
3155.3, 0.331584
3157.22, 0.332129
3159.14, 0.332674
3161.07, 0.333529
3163.0, 0.334385
3164.93, 0.335085
3166.86, 0.336019
3168.8, 0.336875
3170.74, 0.337419
3172.68, 0.338042
3174.62, 0.338664
3176.56, 0.339442
3178.51, 0.340298
3180.46, 0.340920
3182.42, 0.341543
3184.37, 0.342476
3186.33, 0.343332
3188.29, 0.343877
3190.25, 0.344344
3192.21, 0.344888
3194.18, 0.345744
3196.15, 0.346678
3198.12, 0.347378
3200.09, 0.348000
3202.07, 0.348623
3204.05, 0.349167
3206.03, 0.349945
3208.02, 0.350723
3210.0, 0.351190
3211.99, 0.351657
3213.98, 0.352279
3215.98, 0.353135
3217.97, 0.353680
3219.97, 0.354302
3221.97, 0.355002
3223.98, 0.355158
3225.98, 0.355547
3227.99, 0.356325
3230.0, 0.357103
3232.02, 0.357803
3234.03, 0.358270
3236.05, 0.358659
3238.07, 0.359204
3240.1, 0.359592
3242.12, 0.359826
3244.15, 0.359982
3246.18, 0.360059
3248.22, 0.360137
3250.25, 0.360293
3252.29, 0.360526
3254.33, 0.361071
3256.38, 0.361460
3258.43, 0.361771
3260.47, 0.361927
3262.53, 0.362160
3264.58, 0.362627
3266.64, 0.363249
3268.7, 0.364183
3270.76, 0.364805
3272.82, 0.365272
3274.89, 0.365894
3276.96, 0.366439
3279.04, 0.366906
3281.11, 0.367139
3283.19, 0.367839
3285.27, 0.368306
3287.35, 0.368384
3289.44, 0.368617
3291.53, 0.368929
3293.62, 0.369162
3295.71, 0.369629
3297.81, 0.369940
3299.91, 0.369940
3302.01, 0.369940
3304.11, 0.369862
3306.22, 0.370096
3308.33, 0.370251
3310.44, 0.370329
3312.56, 0.370251
3314.68, 0.369629
3316.8, 0.369084
3318.92, 0.368462
3321.05, 0.367684
3323.18, 0.366750
3325.31, 0.365661
3327.44, 0.364416
3329.58, 0.363093
3331.72, 0.361771
3333.86, 0.360215
3336.01, 0.358426
3338.16, 0.356325
3340.31, 0.353680
3342.46, 0.350645
3344.61, 0.347144
3346.77, 0.343332
3348.94, 0.339287
3351.1, 0.334852
3353.27, 0.330028
3355.44, 0.324660
3357.61, 0.318592
3359.79, 0.311823
3361.97, 0.304666
3364.15, 0.296808
3366.33, 0.288405
3368.52, 0.280081
3370.71, 0.272456
3372.9, 0.265221
3375.1, 0.259464
3377.3, 0.255418
3379.5, 0.253006
3381.71, 0.252462
3383.91, 0.253784
3386.12, 0.256118
3388.34, 0.258530
3390.55, 0.260086
3392.77, 0.259775
3394.99, 0.257285
3397.22, 0.252617
3399.45, 0.246315
3401.68, 0.239080
3403.91, 0.231533
3406.15, 0.224142
3408.39, 0.217763
3410.63, 0.212628
3412.87, 0.208816
3415.12, 0.206793
3417.37, 0.206482
3419.63, 0.207882
3421.88, 0.211461
3424.14, 0.216285
3426.41, 0.222353
3428.67, 0.229199
3430.94, 0.237135
3433.21, 0.245615
3435.49, 0.253706
3437.77, 0.260786
3440.05, 0.266777
3442.33, 0.272067
3444.62, 0.276969
3446.91, 0.281326
3449.2, 0.285216
3451.5, 0.288872
3453.8, 0.292918
3456.1, 0.296963
3458.41, 0.301087
3460.72, 0.304510
3463.03, 0.307311
3465.34, 0.309489
3467.66, 0.310189
3469.98, 0.309178
3472.31, 0.306844
3474.63, 0.303343
3476.96, 0.299064
3479.3, 0.295641
3481.64, 0.293929
3483.97, 0.293774
3486.32, 0.293540
3488.66, 0.291595
3491.01, 0.287550
3493.36, 0.282026
3495.72, 0.275957
3498.08, 0.270589
3500.44, 0.267088
3502.81, 0.266543
3505.18, 0.269500
3507.55, 0.276502
3509.92, 0.288016
3512.3, 0.302487
3514.68, 0.317503
3517.06, 0.331429
3519.45, 0.343410
3521.84, 0.353213
3524.24, 0.361071
3526.64, 0.367373
3529.04, 0.372585
3531.44, 0.377253
3533.85, 0.381143
3536.26, 0.384177
3538.67, 0.386823
3541.09, 0.389390
3543.51, 0.391646
3545.93, 0.393825
3548.36, 0.395770
3550.79, 0.397481
3553.22, 0.399115
3555.66, 0.400827
3558.1, 0.402305
3560.54, 0.403705
3562.99, 0.405183
3565.44, 0.406428
3567.9, 0.407517
3570.35, 0.408684
3572.81, 0.409696
3575.28, 0.410629
3577.75, 0.411563
3580.22, 0.412497
3582.69, 0.413508
3585.17, 0.414442
3587.65, 0.415297
3590.14, 0.416387
3592.62, 0.417476
3595.11, 0.418798
3597.61, 0.420354
3600.11, 0.421677
3602.61, 0.422922
3605.11, 0.424244
3607.62, 0.425411
3610.14, 0.426345
3612.65, 0.427201
3615.17, 0.428057
3617.69, 0.428990
3620.22, 0.429613
3622.75, 0.430002
3625.28, 0.430235
3627.82, 0.430624
3630.36, 0.431091
3632.9, 0.431324
3635.45, 0.431791
3638.0, 0.432336
3640.56, 0.432336
3643.12, 0.432336
3645.68, 0.432414
3648.24, 0.432491
3650.81, 0.432725
3653.39, 0.432958
3655.96, 0.432958
3658.54, 0.433192
3661.13, 0.433347
3663.71, 0.433658
3666.3, 0.434203
3668.9, 0.434748
3671.5, 0.435292
3674.1, 0.435681
3676.7, 0.436148
3679.31, 0.436615
3681.93, 0.437082
3684.54, 0.437471
3687.17, 0.437860
3689.79, 0.438171
3692.42, 0.438326
3695.05, 0.438404
3697.69, 0.438715
3700.32, 0.438949
3702.97, 0.439260
3705.61, 0.439882
3708.27, 0.440583
3710.92, 0.441283
3713.58, 0.442372
3716.24, 0.443072
3718.91, 0.443617
3721.58, 0.444317
3724.25, 0.445173
3726.93, 0.445795
3729.61, 0.446106
3732.29, 0.446418
3734.98, 0.446729
3737.67, 0.447040
3740.37, 0.447585
3743.07, 0.448051
3745.78, 0.448363
3748.49, 0.448829
3751.2, 0.449374
3753.91, 0.449763
3756.63, 0.450152
3759.36, 0.450619
3762.09, 0.451008
3764.82, 0.451319
3767.55, 0.451630
3770.29, 0.452019
3773.04, 0.452330
3775.78, 0.452564
3778.54, 0.452797
3781.29, 0.453186
3784.05, 0.453497
3786.82, 0.453575
3789.59, 0.454042
3792.36, 0.454431
3795.13, 0.454587
3797.92, 0.454664
3800.7, 0.454742
3803.49, 0.454898
3806.28, 0.455131
3809.08, 0.455365
3811.88, 0.455676
3814.68, 0.455831
3817.49, 0.455909
3820.31, 0.455909
3823.12, 0.455987
3825.94, 0.456143
3828.77, 0.456220
3831.6, 0.456298
3834.43, 0.456454
3837.27, 0.456376
3840.11, 0.456376
3842.96, 0.456609
3845.81, 0.456765
3848.67, 0.456921
3851.53, 0.457076
3854.39, 0.457154
3857.26, 0.457232
3860.13, 0.457387
3863.01, 0.457465
3865.89, 0.457621
3868.77, 0.457776
3871.66, 0.457776
3874.55, 0.457854
3877.45, 0.458088
3880.35, 0.458477
3883.26, 0.458477
3886.17, 0.458632
3889.09, 0.459021
3892.01, 0.459255
3894.93, 0.459644
3897.86, 0.459721
3900.79, 0.459955
3903.73, 0.460033
3906.67, 0.460110
3909.62, 0.460266
3912.57, 0.460344
3915.52, 0.460344
3918.48, 0.460499
3921.45, 0.460655
3924.42, 0.460655
3927.39, 0.460655
3930.37, 0.460577
3933.35, 0.460499
3936.34, 0.460499
3939.33, 0.460655
3942.32, 0.460888
3945.32, 0.460966
3948.33, 0.460888
3951.34, 0.460888
3954.35, 0.460888
3957.37, 0.460811
3960.39, 0.460811
3963.42, 0.460888
3966.45, 0.461122
3969.49, 0.461277
3972.53, 0.461355
3975.58, 0.461355
3978.63, 0.461511
3981.68, 0.461666
3984.75, 0.461744
3987.81, 0.461666
3990.88, 0.461744
3993.95, 0.461822
3997.03, 0.462055
4000.12, 0.462367
4003.21, 0.462600
4006.3, 0.462444
4009.4, 0.462367
4012.5, 0.462600
4015.61, 0.462833
4018.72, 0.463067
4021.84, 0.463534
4024.96, 0.464078
4028.09, 0.464545
4031.22, 0.465245
4034.36, 0.465868
4037.5, 0.466490
4040.65, 0.467190
4043.8, 0.467813
4046.96, 0.468357
4050.12, 0.469135
4053.29, 0.469758
4056.46, 0.470302
4059.64, 0.470769
4062.82, 0.471158
4066.0, 0.471625
4069.19, 0.472014
4072.39, 0.472558
4075.59, 0.473103
4078.8, 0.473492
4082.01, 0.473803
4085.23, 0.474114
4088.45, 0.474503
4091.68, 0.474892
4094.91, 0.475281
4098.15, 0.475670
4101.39, 0.476059
4104.63, 0.476215
4107.89, 0.476448
4111.14, 0.476837
4114.41, 0.477304
4117.67, 0.477771
4120.95, 0.478082
4124.23, 0.478316
4127.51, 0.478549
4130.8, 0.478705
4134.09, 0.479016
4137.39, 0.479249
4140.7, 0.479405
4144.01, 0.479716
4147.32, 0.479949
4150.64, 0.480105
4153.97, 0.480416
4157.3, 0.480727
4160.64, 0.480961
4163.98, 0.481116
4167.33, 0.481272
4170.68, 0.481583
4174.04, 0.481894
4177.4, 0.482128
4180.77, 0.482206
4184.14, 0.482361
4187.52, 0.482517
4190.91, 0.482750
4194.3, 0.482984
4197.69, 0.482984
4201.1, 0.483061
4204.5, 0.482906
4207.92, 0.482672
4211.34, 0.482361
4214.76, 0.481894
4218.19, 0.481583
4221.62, 0.481428
4225.06, 0.481505
4228.51, 0.481428
4231.96, 0.481428
4235.42, 0.481661
4238.88, 0.481817
4242.35, 0.482128
4245.83, 0.482517
4249.31, 0.483061
4252.79, 0.483762
4256.28, 0.484306
4259.78, 0.484073
4263.29, 0.483450
4266.79, 0.482906
4270.31, 0.482906
4273.83, 0.483139
4277.35, 0.483295
4280.89, 0.483295
4284.42, 0.483450
4287.97, 0.483606
4291.52, 0.483762
4295.07, 0.483995
4298.63, 0.484462
4302.2, 0.485006
4305.78, 0.485318
4309.35, 0.485629
4312.94, 0.486096
4316.53, 0.486329
4320.13, 0.486796
4323.73, 0.486951
4327.34, 0.487107
4330.96, 0.487418
4334.58, 0.487807
4338.21, 0.488041
4341.84, 0.488274
4345.48, 0.488507
4349.12, 0.488585
4352.77, 0.488663
4356.43, 0.488741
4360.1, 0.488819
4363.76, 0.488896
4367.44, 0.488974
4371.12, 0.489052
4374.81, 0.489052
4378.51, 0.489052
4382.21, 0.488974
4385.92, 0.489130
4389.63, 0.489130
4393.35, 0.489052
4397.08, 0.488896
4400.81, 0.488819
4404.55, 0.488741
4408.29, 0.488663
4412.04, 0.488430
4415.8, 0.488196
4419.57, 0.487963
4423.34, 0.487807
4427.12, 0.487418
4430.9, 0.487029
4434.69, 0.486640
4438.49, 0.486407
4442.29, 0.486018
4446.1, 0.485629
4449.92, 0.485162
4453.74, 0.484851
4457.57, 0.484384
4461.41, 0.483762
4465.25, 0.483139
4469.1, 0.482595
4472.95, 0.481972
4476.82, 0.480961
4480.69, 0.480027
4484.56, 0.479094
4488.44, 0.477849
4492.33, 0.476526
4496.23, 0.474815
4500.13, 0.472792
4504.04, 0.470458
4507.96, 0.467501
4511.88, 0.463923
4515.81, 0.459566
4519.75, 0.454587
4523.69, 0.449141
4527.65, 0.443306
4531.6, 0.437393
4535.57, 0.431636
4539.54, 0.426501
4543.52, 0.422377
4547.5, 0.419343
4551.5, 0.417398
4555.5, 0.416931
4559.5, 0.417631
4563.52, 0.419265
4567.54, 0.421599
4571.56, 0.424400
4575.6, 0.427201
4579.64, 0.430002
4583.69, 0.432491
4587.75, 0.434359
4591.81, 0.435448
4595.88, 0.435837
4599.96, 0.435603
4604.04, 0.435137
4608.14, 0.434125
4612.24, 0.432569
4616.34, 0.431013
4620.46, 0.429535
4624.58, 0.428368
4628.71, 0.427356
4632.84, 0.426656
4636.99, 0.426734
4641.14, 0.427512
4645.3, 0.428601
4649.47, 0.430391
4653.64, 0.432958
4657.82, 0.435759
4662.01, 0.438871
4666.21, 0.442216
4670.41, 0.445406
4674.62, 0.448285
4678.84, 0.450697
4683.07, 0.452797
4687.3, 0.454664
4691.54, 0.456065
4695.79, 0.457310
4700.05, 0.458321
4704.31, 0.459021
4708.59, 0.459566
4712.87, 0.460033
4717.15, 0.460577
4721.45, 0.460966
4725.76, 0.461200
4730.07, 0.461589
4734.39, 0.461978
4738.72, 0.462367
4743.05, 0.462678
4747.39, 0.462989
4751.75, 0.463222
4756.1, 0.463611
4760.47, 0.463845
4764.85, 0.464078
4769.23, 0.464389
4773.62, 0.464312
4778.02, 0.464312
4782.43, 0.464623
4786.85, 0.464701
4791.27, 0.464778
4795.7, 0.464856
4800.14, 0.464856
4804.59, 0.465090
4809.05, 0.465245
4813.51, 0.465245
4817.99, 0.465556
4822.47, 0.465790
4826.96, 0.465868
4831.46, 0.465868
4835.96, 0.465945
4840.48, 0.465945
4845.0, 0.466179
4849.54, 0.466412
4854.08, 0.466646
4858.63, 0.466723
4863.18, 0.466801
4867.75, 0.466801
4872.33, 0.466723
4876.91, 0.466723
4881.5, 0.466801
4886.1, 0.466957
4890.71, 0.466801
4895.33, 0.466723
4899.96, 0.466801
4904.59, 0.466723
4909.24, 0.466568
4913.89, 0.466490
4918.55, 0.466412
4923.22, 0.466412
4927.9, 0.466412
4932.59, 0.466334
4937.29, 0.466334
4942.0, 0.466334
4946.71, 0.466179
4951.44, 0.466023
4956.17, 0.466023
4960.91, 0.465868
4965.67, 0.465945
4970.43, 0.465790
4975.2, 0.465556
4979.98, 0.465401
4984.76, 0.465323
4989.56, 0.465245
4994.37, 0.465167
4999.18, 0.464934
5004.01, 0.464856
5008.84, 0.464856
5013.69, 0.464623
5018.54, 0.464389
5023.4, 0.464778
5028.28, 0.465167
5033.16, 0.465479
5038.05, 0.465712
5042.95, 0.465634
5047.86, 0.465556
5052.78, 0.465479
5057.71, 0.465401
5062.65, 0.465323
5067.6, 0.465401
5072.56, 0.465245
5077.53, 0.465090
5082.5, 0.464934
5087.49, 0.465090
5092.49, 0.465479
5097.5, 0.465479
5102.51, 0.465479
5107.54, 0.465479
5112.58, 0.465401
5117.62, 0.465323
5122.68, 0.465479
5127.75, 0.465479
5132.82, 0.465401
5137.91, 0.465167
5143.01, 0.464856
5148.12, 0.464856
5153.23, 0.465323
5158.36, 0.465556
5163.5, 0.465556
5168.65, 0.465479
5173.81, 0.465712
5178.98, 0.465945
5184.15, 0.466023
5189.34, 0.466179
5194.54, 0.466101
5199.75, 0.465945
5204.98, 0.466101
5210.21, 0.465868
5215.45, 0.465868
5220.7, 0.466334
5225.96, 0.466490
5231.23, 0.466412
5236.52, 0.466490
5241.81, 0.466801
5247.12, 0.467112
5252.44, 0.467190
5257.76, 0.467190
5263.1, 0.467190
5268.45, 0.467112
5273.81, 0.467035
5279.18, 0.467035
5284.56, 0.466801
5289.95, 0.466568
5295.36, 0.466801
5300.77, 0.467112
5306.2, 0.467346
5311.63, 0.467424
5317.08, 0.467346
5322.54, 0.467735
5328.01, 0.467813
5333.49, 0.467735
5338.98, 0.467735
5344.49, 0.467346
5350.0, 0.466801
5355.53, 0.467346
5361.07, 0.467890
5366.62, 0.468124
5372.18, 0.468279
5377.75, 0.468513
5383.34, 0.468668
5388.93, 0.468902
5394.54, 0.468980
5400.16, 0.469213
5405.79, 0.469057
5411.44, 0.468824
5417.09, 0.467968
5422.76, 0.467501
5428.43, 0.468513
5434.12, 0.468824
5439.83, 0.468591
5445.54, 0.468435
5451.26, 0.468202
5457.0, 0.467813
5462.75, 0.466879
5468.52, 0.466879
5474.29, 0.466646
5480.08, 0.465945
5485.88, 0.465790
5491.69, 0.465479
5497.51, 0.464856
5503.35, 0.464312
5509.2, 0.463845
5515.06, 0.463067
5520.93, 0.462055
5526.82, 0.461355
5532.71, 0.460966
5538.63, 0.460422
5544.55, 0.459410
5550.49, 0.458165
5556.44, 0.457232
5562.4, 0.456454
5568.37, 0.455209
5574.36, 0.452953
5580.36, 0.451008
5586.37, 0.450230
5592.4, 0.448674
5598.44, 0.445951
5604.49, 0.442994
5610.56, 0.439960
5616.63, 0.436770
5622.73, 0.434125
5628.83, 0.431402
5634.95, 0.428135
5641.08, 0.425100
5647.23, 0.424478
5653.39, 0.423622
5659.56, 0.422688
5665.74, 0.421210
5671.94, 0.418176
5678.15, 0.415064
5684.38, 0.411641
5690.62, 0.406273
5696.87, 0.400126
5703.14, 0.391802
5709.42, 0.380676
5715.72, 0.368617
5722.03, 0.355158
5728.35, 0.340843
5734.69, 0.326450
5741.03, 0.313457
5747.4, 0.302954
5753.78, 0.296108
5760.17, 0.290039
5766.58, 0.285994
5773.0, 0.285994
5779.44, 0.287083
5785.88, 0.289650
5792.35, 0.293929
5798.83, 0.299609
5805.32, 0.306611
5811.83, 0.313535
5818.35, 0.319525
5824.89, 0.326450
5831.45, 0.333607
5838.01, 0.338898
5844.59, 0.342321
5851.19, 0.344110
5857.8, 0.344344
5864.43, 0.343643
5871.07, 0.342243
5877.73, 0.338197
5884.4, 0.335863
5891.09, 0.333685
5897.79, 0.330106
5904.5, 0.328472
5911.23, 0.325205
5917.98, 0.321081
5924.75, 0.316647
5931.53, 0.310812
5938.32, 0.306144
5945.13, 0.304666
5951.96, 0.302098
5958.8, 0.299064
5965.65, 0.295330
5972.53, 0.293073
5979.42, 0.291128
5986.32, 0.288405
5993.24, 0.286694
6000.18, 0.285838
6007.13, 0.283815
6014.1, 0.281792
6021.08, 0.280392
6028.09, 0.278680
6035.1, 0.276113
6042.14, 0.271134
6049.19, 0.265843
6056.25, 0.264598
6063.34, 0.262965
6070.44, 0.259930
6077.55, 0.257130
6084.69, 0.254329
6091.84, 0.250361
6099.0, 0.246393
6106.19, 0.242503
6113.39, 0.239625
6120.61, 0.238535
6127.84, 0.237291
6135.09, 0.234957
6142.36, 0.232545
6149.65, 0.230211
6156.95, 0.227488
6164.27, 0.225076
6171.61, 0.223131
6178.97, 0.220797
6186.34, 0.219552
6193.73, 0.220019
6201.14, 0.219630
6208.57, 0.218385
6216.01, 0.217218
6223.47, 0.216129
6230.95, 0.215118
6238.45, 0.214184
6245.97, 0.213795
6253.5, 0.214028
6261.06, 0.214884
6268.63, 0.215973
6276.21, 0.217140
6283.82, 0.217918
6291.45, 0.218696
6299.1, 0.219552
6306.76, 0.220175
6314.44, 0.220486
6322.14, 0.220408
6329.86, 0.220486
6337.6, 0.220019
6345.35, 0.219630
6353.13, 0.220097
6360.92, 0.218852
6368.74, 0.216207
6376.57, 0.213795
6384.43, 0.211694
6392.3, 0.210061
6400.19, 0.209283
6408.1, 0.209127
6416.03, 0.212395
6423.98, 0.218696
6431.95, 0.224220
6439.94, 0.229511
6447.95, 0.233867
6455.98, 0.237213
6464.03, 0.239391
6472.1, 0.240091
6480.19, 0.240014
6488.31, 0.238847
6496.44, 0.237835
6504.59, 0.237757
6512.76, 0.236201
6520.95, 0.233478
6529.16, 0.231456
6537.4, 0.228810
6545.65, 0.225698
6553.92, 0.222431
6562.22, 0.219008
6570.54, 0.214729
6578.88, 0.211305
6587.23, 0.207882
6595.61, 0.203992
6604.02, 0.200258
6612.44, 0.196445
6620.89, 0.193100
6629.35, 0.189677
6637.84, 0.186720
6646.35, 0.185787
6654.88, 0.184620
6663.44, 0.182286
6672.01, 0.179641
6680.61, 0.177151
6689.23, 0.175362
6697.88, 0.173728
6706.54, 0.171472
6715.23, 0.169527
6723.94, 0.168204
6732.67, 0.167193
6741.42, 0.166026
6750.2, 0.164859
6759.0, 0.163458
6767.82, 0.161747
6776.67, 0.159646
6785.54, 0.157156
6794.44, 0.154667
6803.35, 0.152644
6812.29, 0.150699
6821.26, 0.149221
6830.24, 0.148676
6839.25, 0.148754
6848.29, 0.148443
6857.35, 0.147898
6866.43, 0.148443
6875.54, 0.150077
6884.67, 0.151244
6893.82, 0.152333
6903.0, 0.152877
6912.2, 0.153733
6921.43, 0.155134
6930.69, 0.156845
6939.96, 0.158712
6949.27, 0.160502
6958.59, 0.161902
6967.95, 0.164236
6977.33, 0.166337
6986.73, 0.167659
6996.16, 0.168904
7005.61, 0.170305
7015.09, 0.171705
7024.6, 0.173572
7034.13, 0.175595
7043.69, 0.177540
7053.27, 0.180808
7062.88, 0.184231
7072.52, 0.187187
7082.18, 0.190221
7091.87, 0.193567
7101.58, 0.197379
7111.32, 0.201114
7121.09, 0.205004
7130.88, 0.209049
7140.71, 0.212706
7150.56, 0.216440
7160.43, 0.220019
7170.33, 0.223209
7180.27, 0.226399
7190.23, 0.229122
7200.21, 0.230989
7210.23, 0.232700
7220.27, 0.234645
7230.34, 0.236201
7240.44, 0.237524
7250.56, 0.239158
7260.72, 0.241414
7270.9, 0.244137
7281.12, 0.247016
7291.36, 0.249272
7301.63, 0.250828
7311.93, 0.251917
7322.25, 0.253317
7332.61, 0.255107
7343.0, 0.257441
7353.41, 0.260242
7363.86, 0.262965
7374.33, 0.265688
7384.83, 0.268411
7395.37, 0.271289
7405.93, 0.274246
7416.53, 0.277435
7427.15, 0.280547
7437.81, 0.283271
7448.5, 0.285060
7459.22, 0.285138
7469.96, 0.284282
7480.74, 0.286071
7491.55, 0.290662
7502.39, 0.294863
7513.27, 0.297352
7524.17, 0.299064
7535.11, 0.300075
7546.08, 0.300698
7557.08, 0.300853
7568.11, 0.300698
7579.17, 0.300075
7590.27, 0.299375
7601.4, 0.298675
7612.56, 0.297975
7623.76, 0.297119
7634.98, 0.295796
7646.24, 0.294163
7657.54, 0.292218
7668.87, 0.289961
7680.23, 0.287550
7691.62, 0.284827
7703.05, 0.281559
7714.51, 0.277747
7726.01, 0.273468
7737.54, 0.269344
7749.11, 0.265843
7760.71, 0.263431
7772.35, 0.262187
7784.02, 0.261720
7795.72, 0.261564
7807.46, 0.261020
7819.23, 0.260164
7831.04, 0.258919
7842.89, 0.257519
7854.77, 0.256429
7866.69, 0.255963
7878.65, 0.256196
7890.64, 0.256896
7902.67, 0.257908
7914.74, 0.258841
7926.84, 0.259386
7938.98, 0.259853
7951.16, 0.260086
7963.37, 0.260242
7975.62, 0.260631
7987.91, 0.261564
8000.24, 0.262498
8012.6, 0.263431
8025.01, 0.263976
8037.45, 0.264209
8049.93, 0.264365
8062.45, 0.264676
8075.01, 0.264676
8087.61, 0.264287
8100.24, 0.263509
8112.91, 0.262576
8125.63, 0.261798
8138.39, 0.260942
8151.18, 0.260008
8164.02, 0.258997
8176.9, 0.257985
8189.81, 0.257130
8202.77, 0.256274
8215.77, 0.255262
8228.82, 0.254018
8241.9, 0.252773
8255.02, 0.251372
8268.19, 0.249427
8281.39, 0.247327
8294.65, 0.245071
8307.94, 0.242581
8321.28, 0.239858
8334.66, 0.236902
8348.08, 0.234101
8361.54, 0.231611
8375.05, 0.229122
8388.6, 0.226788
8402.2, 0.224376
8415.84, 0.222042
8429.52, 0.219941
8443.25, 0.217841
8457.02, 0.215973
8470.84, 0.214340
8484.7, 0.212550
8498.61, 0.210916
8512.57, 0.209127
8526.57, 0.206793
8540.62, 0.204303
8554.71, 0.201814
8568.85, 0.199169
8583.04, 0.196601
8597.27, 0.194423
8611.55, 0.192789
8625.88, 0.191777
8640.26, 0.190688
8654.68, 0.189054
8669.16, 0.187421
8683.68, 0.185787
8698.25, 0.183920
8712.87, 0.181663
8727.53, 0.178940
8742.25, 0.176217
8757.02, 0.173417
8771.83, 0.170538
8786.7, 0.167815
8801.62, 0.165403
8816.59, 0.162991
8831.61, 0.160580
8846.68, 0.158401
8861.8, 0.157001
8876.97, 0.155834
8892.2, 0.154511
8907.48, 0.153733
8922.81, 0.152877
8938.2, 0.152255
8953.63, 0.151710
8969.13, 0.151399
8984.67, 0.151010
9000.27, 0.150543
9015.92, 0.149921
9031.63, 0.149143
9047.39, 0.147743
9063.21, 0.146264
9079.08, 0.144864
9095.01, 0.143386
9111.0, 0.141519
9127.04, 0.139729
9143.13, 0.138095
9159.28, 0.136773
9175.49, 0.136073
9191.76, 0.136073
9208.09, 0.135761
9224.47, 0.134750
9240.92, 0.133194
9257.42, 0.131560
9273.98, 0.130160
9290.6, 0.129071
9307.28, 0.127904
9324.02, 0.127048
9340.82, 0.126814
9357.68, 0.127359
9374.6, 0.127904
9391.58, 0.127904
9408.62, 0.127748
9425.73, 0.127515
9442.9, 0.126970
9460.13, 0.125803
9477.42, 0.124403
9494.78, 0.123391
9512.2, 0.122224
9529.69, 0.121368
9547.24, 0.120668
9564.86, 0.119812
9582.54, 0.119423
9600.28, 0.119735
9618.1, 0.120590
9635.97, 0.121913
9653.92, 0.123547
9671.93, 0.124869
9690.01, 0.126036
9708.16, 0.127437
9726.37, 0.128759
9744.65, 0.130627
9763.0, 0.132572
9781.43, 0.134050
9799.92, 0.135761
9818.48, 0.137317
9837.1, 0.138251
9855.8, 0.139185
9874.58, 0.140274
9893.42, 0.141985
9912.34, 0.144475
9931.33, 0.147354
9950.39, 0.149921
9969.52, 0.152177
9988.74, 0.154200
10008.0, 0.156145
10027.4, 0.157468
10046.8, 0.158946
10066.3, 0.160346
10085.9, 0.161280
10105.6, 0.161824
10125.3, 0.162369
10145.1, 0.162680
10165.0, 0.162914
10185.0, 0.163147
10205.0, 0.163147
10225.2, 0.162602
10245.4, 0.161902
10265.7, 0.161435
10286.0, 0.160813
10306.5, 0.159490
10327.0, 0.157779
10347.6, 0.156067
10368.3, 0.155211
10389.1, 0.154900
10409.9, 0.154278
10430.9, 0.153344
10451.9, 0.152411
10473.0, 0.151477
10494.2, 0.150077
10515.5, 0.148754
10536.9, 0.147587
10558.4, 0.146420
10579.9, 0.145253
10601.5, 0.144008
10623.3, 0.142608
10645.1, 0.140974
10667.0, 0.139185
10689.0, 0.137551
10711.1, 0.136073
10733.2, 0.134283
10755.5, 0.132572
10777.9, 0.130782
10800.3, 0.128837
10822.9, 0.126970
10845.5, 0.125725
10868.2, 0.124869
10891.1, 0.124014
10914.0, 0.123080
10937.0, 0.122769
10960.2, 0.122535
10983.4, 0.122847
11006.7, 0.123625
11030.1, 0.124714
11053.6, 0.126270
11077.3, 0.127592
11101.0, 0.128993
11124.8, 0.130782
11148.7, 0.132416
11172.7, 0.133816
11196.9, 0.134983
11221.1, 0.135372
11245.4, 0.135139
11269.9, 0.133583
11294.4, 0.129849
11319.1, 0.124480
11343.9, 0.118723
11368.8, 0.116311
11393.7, 0.118801
11418.8, 0.124014
11444.0, 0.128993
11469.4, 0.131871
11494.8, 0.133272
11520.3, 0.133739
11546.0, 0.132961
11571.8, 0.132027
11597.7, 0.131249
11623.7, 0.129849
11649.8, 0.127359
11676.0, 0.124714
11702.4, 0.122380
11728.9, 0.120590
11755.5, 0.119423
11782.2, 0.118723
11809.0, 0.117712
11836.0, 0.116700
11863.0, 0.115689
11890.3, 0.114833
11917.6, 0.113744
11945.0, 0.112343
11972.6, 0.110865
12000.4, 0.109854
12028.2, 0.108920
12056.2, 0.107987
12084.3, 0.107131
12112.5, 0.106431
12140.9, 0.105264
12169.4, 0.103630
12198.0, 0.101918
12226.8, 0.100129
12255.7, 0.0982620
12284.7, 0.0964720
12313.9, 0.0949940
12343.2, 0.0939830
12372.7, 0.0921930
12402.3, 0.0897810
12432.0, 0.0873700
12461.9, 0.0850360
12491.9, 0.0830910
12522.1, 0.0814570
12552.4, 0.0794340
12582.9, 0.0774110
12613.5, 0.0757770
12644.3, 0.0743770
12675.2, 0.0728990
12706.3, 0.0711090
12737.5, 0.0690090
12768.9, 0.0671420
12800.4, 0.0655860
12832.1, 0.0648850
12863.9, 0.0644190
12895.9, 0.0633290
12928.1, 0.0624740
12960.4, 0.0615400
12992.9, 0.0600620
13025.5, 0.0581950
13058.3, 0.0564050
13091.3, 0.0546160
13124.4, 0.0526710
13157.8, 0.0504920
13191.2, 0.0483920
13224.9, 0.0462910
13258.7, 0.0434130
13292.7, 0.0411560
13326.9, 0.0392110
13361.2, 0.0368770
13395.7, 0.0349320
13430.4, 0.0332980
13465.3, 0.0313530
13500.4, 0.0296420
13535.7, 0.0283190
13571.1, 0.0266850
13606.7, 0.0248180
13642.5, 0.0231840
13678.5, 0.0216280
13714.7, 0.0205390
13751.1, 0.0190610
13787.6, 0.0178940
13824.4, 0.0165710
13861.4, 0.0154040
13898.5, 0.0146260
13935.9, 0.0136150
13973.5, 0.0124480
14011.2, 0.0119810
14049.2, 0.0110480
14087.4, 0.0101920
14125.8, 0.00964700
14164.3, 0.00918000
14203.2, 0.00848000
14242.2, 0.00832500
14281.4, 0.00801300
14320.9, 0.00746900
14360.5, 0.00746900
14400.4, 0.00785800
14440.5, 0.00801300
14480.9, 0.00809100
14521.4, 0.00809100
14562.2, 0.00801300
14603.3, 0.00793600
14644.5, 0.00816900
14686.0, 0.00840200
14727.7, 0.00863600
14769.7, 0.00848000
14811.9, 0.00894700
14854.3, 0.0101920
14897.0, 0.0114370
14939.9, 0.0119030
14983.1, 0.0126040
15026.5, 0.0140820
15070.2, 0.0157160
15114.2, 0.0168050
15158.3, 0.0182050
15202.8, 0.0196060
15247.5, 0.0213170
15292.5, 0.0231840
15337.7, 0.0249740
15383.2, 0.0268410
15429.0, 0.0280860
15475.1, 0.0283190
15521.4, 0.0292530
15568.0, 0.0306530
15614.9, 0.0315870
15662.1, 0.0320540
15709.6, 0.0325200
15757.3, 0.0333760
15805.4, 0.0347770
15853.7, 0.0353210
15902.3, 0.0360990
15951.2, 0.0368770
16000.5, 0.0379660
16050.0, 0.0387440
16099.8, 0.0394450
16150.0, 0.0403010
16200.5, 0.0417010
16251.3, 0.0423230
16302.4, 0.0427900
16353.8, 0.0433350
16405.5, 0.0445020
16457.6, 0.0453580
16510.0, 0.0465250
16562.8, 0.0474580
16615.9, 0.0475360
16669.3, 0.0478470
16723.1, 0.0482360
16777.2, 0.0485470
16831.7, 0.0488590
16886.5, 0.0487810
16941.7, 0.0492480
16997.2, 0.0500260
17053.1, 0.0501030
17109.4, 0.0504150
17166.1, 0.0507260
17223.1, 0.0512700
17280.5, 0.0523600
17338.3, 0.0523600
17396.5, 0.0528260
17455.1, 0.0532930
17514.0, 0.0535270
17573.4, 0.0540710
17633.2, 0.0550050
17693.4, 0.0551600
17754.0, 0.0551600
17815.0, 0.0553940
17876.4, 0.0553940
17938.3, 0.0557050
18000.5, 0.0563270
18063.3, 0.0567160
18126.4, 0.0570280
18190.0, 0.0564050
18254.1, 0.0560160
18318.6, 0.0560160
18383.5, 0.0569500
18449.0, 0.0576500
18514.9, 0.0575720
18581.2, 0.0570280
18648.0, 0.0563270
18715.4, 0.0557050
18783.2, 0.0559380
18851.5, 0.0561720
18920.3, 0.0552380
18989.6, 0.0537600
19059.4, 0.0523600
19129.7, 0.0506480
19200.6, 0.0493250
19272.0, 0.0476140
19343.9, 0.0462130
19416.3, 0.0438790
19489.3, 0.0417790
19562.8, 0.0392110
19637.0, 0.0357880
19711.6, 0.0333760
19786.8, 0.0311980
19862.6, 0.0287080
19939.0, 0.0269190
20016.0, 0.0266080
20093.6, 0.0262190
20171.8, 0.0251290
20250.6, 0.0266850
20330.0, 0.0296420
20410.0, 0.0323650
20490.7, 0.0340760
20572.0, 0.0368770
20654.0, 0.0389780
20736.6, 0.0406120
20819.9, 0.0444240
20903.8, 0.0461360
20988.5, 0.0464470
21073.8, 0.0485470
21159.8, 0.0505700
21246.5, 0.0516590
21334.0, 0.0521260
21422.1, 0.0537600
21511.0, 0.0542270
21600.7, 0.0546160
21691.0, 0.0541490
21782.1, 0.0531380
21874.0, 0.0515040
21966.7, 0.0528260
22060.2, 0.0557050
22154.5, 0.0573390
22249.6, 0.0551600
22345.5, 0.0529040
22442.2, 0.0522040
22539.8, 0.0531380
22638.2, 0.0523600
22737.5, 0.0540710
22837.7, 0.0543820
22938.7, 0.0518150
23040.7, 0.0506430
23143.5, 0.0497380
23247.3, 0.0488550
23352.1, 0.0477400
23457.7, 0.0469930
23564.4, 0.0464790
23672.0, 0.0452280
23780.5, 0.0444800
23890.1, 0.0443720
24000.7, 0.0443790
24112.3, 0.0441740
24225.0, 0.0433560
24338.7, 0.0436530
24453.5, 0.0435670
24569.4, 0.0410340
24686.4, 0.0392210
24804.5, 0.0373070
24923.8, 0.0360500
25044.2, 0.0354190
25165.8, 0.0349650
25288.6, 0.0347020
25412.5, 0.0348920
25537.7, 0.0346150
25664.1, 0.0345110
25791.8, 0.0344540
25920.8, 0.0337500
26051.1, 0.0327060
26182.6, 0.0313350
26315.5, 0.0302070
26449.8, 0.0291680
26585.4, 0.0270900
26722.5, 0.0255540
26860.9, 0.0246370
27000.8, 0.0242140
27142.1, 0.0249230
27285.0, 0.0266380
27429.4, 0.0298200
27575.3, 0.0335420
27722.7, 0.0370530
27871.8, 0.0397990
28022.4, 0.0423820
28174.7, 0.0443690
28328.7, 0.0467100
28484.4, 0.0493200
28641.7, 0.0512180
28800.9, 0.0527700
28961.8, 0.0542690
29124.5, 0.0554330
29289.0, 0.0572260
29455.4, 0.0591530
29623.8, 0.0600380
29794.0, 0.0617990
29966.3, 0.0634200
30140.5, 0.0641420
30316.7, 0.0645330
30495.1, 0.0643300
30675.5, 0.0658740
30858.1, 0.0680420
31042.8, 0.0691390
31229.8, 0.0703000
31419.1, 0.0721440
31610.7, 0.0737620
31804.6, 0.0747340
32000.9, 0.0762160
32199.7, 0.0776950
32400.9, 0.0794640
32604.8, 0.0805820
32811.1, 0.0817100
33020.1, 0.0834840
33231.8, 0.0843690
33446.2, 0.0841380
33663.4, 0.0831910
33883.4, 0.0811420
34106.3, 0.0786080
34332.1, 0.0748160
34561.0, 0.0704810
34792.9, 0.0664660
35028.0, 0.0630660
35266.3, 0.0617500
35507.8, 0.0606390
35752.7, 0.0605390
36001.0, 0.0593310
36252.8, 0.0576570
36508.1, 0.0572030
36767.0, 0.0576460
37029.7, 0.0577870
37296.1, 0.0571370
37566.3, 0.0569080
37840.5, 0.0578730
38118.8, 0.0588810
38401.2, 0.0588580
38687.8, 0.0591000
38978.6, 0.0605270
39273.9, 0.0626600
39573.7, 0.0637680
39878.1, 0.0641850
40187.3, 0.0641530
40501.2, 0.0645640
40820.0, 0.0656790
41144.0, 0.0649460
41473.2, 0.0617960
41807.6, 0.0578120
42147.5, 0.0536120
42493.0, 0.0505000
42844.2, 0.0508810
43201.2, 0.0537540
43564.3, 0.0580000
43933.5, 0.0624360
44309.0, 0.0669400
44691.0, 0.0699400
45079.6, 0.0721540
45475.0, 0.0751380
45877.5, 0.0772390
46287.1, 0.0796460
46704.2, 0.0813540
47128.7, 0.0816250
47561.1, 0.0825580
48001.5, 0.0835420
48450.1, 0.0840830
48907.2, 0.0846760
49373.0, 0.0839940
49847.7, 0.0842230
50331.5, 0.0846530
50825.0, 0.0853760
51328.2, 0.0869980
51841.5, 0.0875550
52365.1, 0.0898980
52899.4, 0.0920320
53444.8, 0.0877300
54001.5, 0.0853470
54570.1, 0.0848390
55150.6, 0.0856170
55743.6, 0.0851600
56349.5, 0.0851880
56968.7, 0.0852200
57601.7, 0.0844860
58248.9, 0.0831020
58910.9, 0.0850230
59588.1, 0.0879970
60281.0, 0.0900400
60990.2, 0.0894410
61716.3, 0.0915230
62459.8, 0.0913750
63221.6, 0.0893480
64002.1, 0.0876540
64802.1, 0.0880070
65622.1, 0.0886380
66463.4, 0.0889780
67326.6, 0.0860930
68212.4, 0.0877800
69121.9, 0.0869070
70056.0, 0.0855310
71015.7, 0.0818240
72002.0, 0.0825870
73016.3, 0.0865850
74059.4, 0.0987120
75132.7, 0.0936970
76237.6, 0.0845860
77375.5, 0.0863880
78547.9, 0.0881660
79756.3, 0.0846660
81002.5, 0.0797230
82288.5, 0.0820100
83615.7, 0.0847610
84986.5, 0.0851000
86402.9, 0.0829660
87867.4, 0.0845300
89382.4, 0.0840820
90950.5, 0.0795980
92574.6, 0.0748850
94257.2, 0.0765230
96002.7, 0.0820220
97814.1, 0.0877290
99695.1, 0.0958310
101650.0, 0.0792800
103683.0, 0.0854520
105799.0, 0.0899920
108003.0, 0.0884400
110301.0, 0.0829490
112699.0, 0.0805140
115204.0, 0.0815110
117822.0, 0.0787210
120562.0, 0.0813740
123433.0, 0.0872910
126443.0, 0.0904800
129604.0, 0.0868790
132926.0, 0.0906330
136424.0, 0.0963730
140111.0, 0.0913920
144003.0, 0.103335
148118.0, 0.107639
152474.0, 0.109695
157095.0, 0.0985870
162004.0, 0.0564350
167231.0, 0.0351530
172805.0, 0.0460000
178764.0, 0.0461320
185148.0, 0.194445
192005.0, 0.226671
199390.0, 0.128529
207366.0, 0.127755
216006.0, 0.127755
