Database of Origin, USGS Spectral Database
Sample Description, See USGS database for additional info
Date Added,2016-08-10 05:21:39.851297

Data ID,USGS_ort05          
Sample ID, orthoclase_nmnh142137.17360
Mineral Name, orthoclase
Material Class,Tectosilicate

Wavelength
1602.52, 0.732977
1603.02, 0.733409
1603.51, 0.734027
1604.01, 0.733965
1604.5, 0.733965
1605.0, 0.734027
1605.5, 0.734335
1606.0, 0.734768
1606.49, 0.734768
1606.99, 0.735015
1607.49, 0.735262
1607.99, 0.735509
1608.49, 0.736064
1608.99, 0.736249
1609.49, 0.736249
1609.99, 0.736311
1610.49, 0.736558
1610.99, 0.736805
1611.49, 0.736990
1611.99, 0.737237
1612.49, 0.737731
1612.99, 0.737669
1613.49, 0.737916
1614.0, 0.738040
1614.5, 0.738410
1615.0, 0.738904
1615.51, 0.739089
1616.01, 0.738966
1616.51, 0.739213
1617.02, 0.739707
1617.52, 0.739892
1618.03, 0.739707
1618.53, 0.740201
1619.04, 0.740510
1619.54, 0.740571
1620.05, 0.740633
1620.55, 0.741127
1621.06, 0.741312
1621.57, 0.741497
1622.08, 0.741744
1622.58, 0.741930
1623.09, 0.742177
1623.6, 0.742177
1624.11, 0.742609
1624.62, 0.743041
1625.13, 0.743535
1625.64, 0.743658
1626.15, 0.743535
1626.66, 0.743720
1627.17, 0.743658
1627.68, 0.743720
1628.19, 0.744276
1628.7, 0.744523
1629.21, 0.744770
1629.72, 0.745017
1630.24, 0.745017
1630.75, 0.745325
1631.26, 0.745510
1631.78, 0.745757
1632.29, 0.745943
1632.8, 0.745819
1633.32, 0.746004
1633.83, 0.746251
1634.35, 0.746498
1634.86, 0.746807
1635.38, 0.746869
1635.9, 0.747301
1636.41, 0.747424
1636.93, 0.747671
1637.45, 0.747980
1637.96, 0.747857
1638.48, 0.747795
1639.0, 0.748289
1639.52, 0.748474
1640.04, 0.748351
1640.56, 0.748474
1641.08, 0.748906
1641.59, 0.749338
1642.11, 0.749400
1642.63, 0.749277
1643.16, 0.749215
1643.68, 0.749647
1644.2, 0.749894
1644.72, 0.749956
1645.24, 0.750264
1645.76, 0.750573
1646.29, 0.750758
1646.81, 0.750758
1647.33, 0.751191
1647.86, 0.751129
1648.38, 0.750882
1648.9, 0.750820
1649.43, 0.751129
1649.95, 0.751191
1650.48, 0.751561
1651.0, 0.751684
1651.53, 0.752055
1652.06, 0.752117
1652.58, 0.752055
1653.11, 0.751993
1653.64, 0.752302
1654.17, 0.752611
1654.69, 0.752487
1655.22, 0.752858
1655.75, 0.753043
1656.28, 0.753290
1656.81, 0.753475
1657.34, 0.753537
1657.87, 0.753598
1658.4, 0.753845
1658.93, 0.754031
1659.46, 0.753907
1659.99, 0.754339
1660.52, 0.754648
1661.05, 0.754771
1661.59, 0.754895
1662.12, 0.755204
1662.65, 0.755327
1663.19, 0.755327
1663.72, 0.755821
1664.26, 0.756130
1664.79, 0.756130
1665.32, 0.756377
1665.86, 0.756562
1666.39, 0.756685
1666.93, 0.756871
1667.47, 0.757118
1668.0, 0.757241
1668.54, 0.757488
1669.08, 0.757426
1669.61, 0.757735
1670.15, 0.758044
1670.69, 0.758291
1671.23, 0.758291
1671.77, 0.758414
1672.31, 0.758723
1672.85, 0.758970
1673.39, 0.759032
1673.93, 0.759464
1674.47, 0.759402
1675.01, 0.759525
1675.55, 0.759587
1676.09, 0.759587
1676.64, 0.760081
1677.18, 0.760328
1677.72, 0.760390
1678.26, 0.760637
1678.81, 0.761069
1679.35, 0.761192
1679.89, 0.761131
1680.44, 0.761563
1680.98, 0.761563
1681.53, 0.761933
1682.07, 0.762057
1682.62, 0.762242
1683.17, 0.762366
1683.71, 0.762489
1684.26, 0.762736
1684.81, 0.763168
1685.36, 0.763292
1685.9, 0.763415
1686.45, 0.763353
1687.0, 0.763477
1687.55, 0.763477
1688.1, 0.763847
1688.65, 0.764094
1689.2, 0.764526
1689.75, 0.764526
1690.3, 0.764650
1690.85, 0.764650
1691.41, 0.765082
1691.96, 0.765452
1692.51, 0.765699
1693.06, 0.765885
1693.61, 0.766008
1694.17, 0.765885
1694.72, 0.766070
1695.28, 0.766132
1695.83, 0.766317
1696.39, 0.766687
1696.94, 0.766811
1697.5, 0.766749
1698.05, 0.766811
1698.61, 0.766811
1699.17, 0.767119
1699.72, 0.767490
1700.28, 0.767613
1700.84, 0.767799
1701.4, 0.767922
1701.95, 0.767922
1702.51, 0.768169
1703.07, 0.768231
1703.63, 0.768293
1704.19, 0.768354
1704.75, 0.768478
1705.31, 0.768601
1705.88, 0.768848
1706.44, 0.768972
1707.0, 0.769095
1707.56, 0.769342
1708.12, 0.769713
1708.69, 0.769713
1709.25, 0.769651
1709.81, 0.769713
1710.38, 0.770206
1710.94, 0.770330
1711.51, 0.770330
1712.07, 0.770268
1712.64, 0.770515
1713.2, 0.770700
1713.77, 0.770886
1714.34, 0.770577
1714.9, 0.770700
1715.47, 0.771133
1716.04, 0.771318
1716.61, 0.771503
1717.18, 0.771688
1717.74, 0.771503
1718.31, 0.771565
1718.88, 0.771997
1719.45, 0.772429
1720.02, 0.772614
1720.59, 0.772614
1721.17, 0.772429
1721.74, 0.772306
1722.31, 0.772429
1722.88, 0.772738
1723.45, 0.773047
1724.03, 0.773355
1724.6, 0.773355
1725.18, 0.773170
1725.75, 0.773293
1726.33, 0.774034
1726.9, 0.773911
1727.48, 0.774158
1728.05, 0.773973
1728.63, 0.773849
1729.2, 0.774158
1729.78, 0.774590
1730.36, 0.774281
1730.94, 0.774158
1731.51, 0.774652
1732.09, 0.775146
1732.67, 0.775207
1733.25, 0.775269
1733.83, 0.775207
1734.41, 0.775331
1734.99, 0.775454
1735.57, 0.775701
1736.15, 0.775701
1736.73, 0.775825
1737.32, 0.776010
1737.9, 0.776133
1738.48, 0.776442
1739.07, 0.776813
1739.65, 0.776813
1740.23, 0.776751
1740.82, 0.776751
1741.4, 0.777060
1741.99, 0.777307
1742.57, 0.777492
1743.16, 0.777430
1743.74, 0.777677
1744.33, 0.777800
1744.92, 0.777986
1745.51, 0.778171
1746.09, 0.778356
1746.68, 0.778233
1747.27, 0.778665
1747.86, 0.778912
1748.45, 0.779282
1749.04, 0.779282
1749.63, 0.779467
1750.22, 0.779467
1750.81, 0.779529
1751.4, 0.779591
1751.99, 0.779961
1752.59, 0.779838
1753.18, 0.780023
1753.77, 0.780332
1754.37, 0.780579
1754.96, 0.780887
1755.56, 0.781134
1756.15, 0.781011
1756.74, 0.780949
1757.34, 0.781258
1757.94, 0.781443
1758.53, 0.781628
1759.13, 0.782061
1759.73, 0.781875
1760.32, 0.781814
1760.92, 0.782122
1761.52, 0.782493
1762.12, 0.782554
1762.72, 0.782678
1763.32, 0.782925
1763.92, 0.783110
1764.52, 0.783481
1765.12, 0.783728
1765.72, 0.783604
1766.32, 0.783666
1766.92, 0.783728
1767.53, 0.784036
1768.13, 0.784160
1768.73, 0.784592
1769.34, 0.784592
1769.94, 0.784839
1770.55, 0.785086
1771.15, 0.785024
1771.76, 0.784777
1772.36, 0.785086
1772.97, 0.785394
1773.57, 0.785703
1774.18, 0.785827
1774.79, 0.785888
1775.4, 0.785827
1776.0, 0.786074
1776.61, 0.785888
1777.22, 0.785827
1777.83, 0.786012
1778.44, 0.786444
1779.05, 0.786691
1779.66, 0.786814
1780.27, 0.786876
1780.88, 0.786876
1781.5, 0.786629
1782.11, 0.786876
1782.72, 0.787123
1783.33, 0.787370
1783.95, 0.787555
1784.56, 0.787679
1785.18, 0.787864
1785.79, 0.787988
1786.41, 0.787741
1787.02, 0.787926
1787.64, 0.788049
1788.26, 0.788049
1788.87, 0.788049
1789.49, 0.787926
1790.11, 0.787926
1790.73, 0.788111
1791.35, 0.788358
1791.96, 0.788420
1792.58, 0.788543
1793.21, 0.788667
1793.83, 0.788790
1794.45, 0.788790
1795.07, 0.788728
1795.69, 0.788667
1796.31, 0.788914
1796.93, 0.788914
1797.56, 0.789037
1798.18, 0.789284
1798.8, 0.789593
1799.43, 0.789593
1800.05, 0.789716
1800.68, 0.789593
1801.3, 0.789284
1801.93, 0.789531
1802.56, 0.789716
1803.18, 0.789840
1803.81, 0.790148
1804.44, 0.790148
1805.07, 0.790087
1805.7, 0.790025
1806.33, 0.790148
1806.95, 0.790272
1807.58, 0.790334
1808.22, 0.790395
1808.85, 0.790642
1809.48, 0.790642
1810.11, 0.790457
1810.74, 0.790581
1811.38, 0.790828
1812.01, 0.790889
1812.64, 0.790828
1813.28, 0.791198
1813.91, 0.791136
1814.55, 0.791013
1815.18, 0.791136
1815.82, 0.791322
1816.45, 0.791198
1817.09, 0.791198
1817.73, 0.791322
1818.36, 0.791568
1819.0, 0.791816
1819.64, 0.791877
1820.28, 0.791692
1820.92, 0.791877
1821.56, 0.792124
1822.2, 0.792371
1822.84, 0.792495
1823.48, 0.792803
1824.12, 0.792742
1824.76, 0.792927
1825.41, 0.792556
1826.05, 0.792062
1826.69, 0.792803
1827.34, 0.793482
1827.98, 0.793359
1828.63, 0.793112
1829.27, 0.793482
1829.92, 0.793544
1830.56, 0.793297
1831.21, 0.793606
1831.86, 0.793976
1832.5, 0.794162
1833.15, 0.794162
1833.8, 0.794038
1834.45, 0.794100
1835.1, 0.794100
1835.75, 0.793791
1836.4, 0.794100
1837.05, 0.794409
1837.7, 0.794409
1838.35, 0.794902
1839.01, 0.794964
1839.66, 0.794470
1840.31, 0.795026
1840.96, 0.795520
1841.62, 0.795026
1842.27, 0.795643
1842.93, 0.796261
1843.58, 0.796384
1844.24, 0.796446
1844.9, 0.796631
1845.55, 0.797002
1846.21, 0.796446
1846.87, 0.795705
1847.53, 0.796076
1848.18, 0.796508
1848.84, 0.797002
1849.5, 0.797496
1850.16, 0.797372
1850.82, 0.797742
1851.48, 0.798113
1852.14, 0.797866
1852.81, 0.797681
1853.47, 0.797434
1854.13, 0.797619
1854.8, 0.798422
1855.46, 0.798669
1856.12, 0.798113
1856.79, 0.798051
1857.45, 0.798669
1858.12, 0.798730
1858.79, 0.798298
1859.45, 0.797989
1860.12, 0.798607
1860.79, 0.799101
1861.46, 0.799471
1862.12, 0.799286
1862.79, 0.799286
1863.46, 0.799224
1864.13, 0.799409
1864.8, 0.799842
1865.48, 0.799965
1866.15, 0.799780
1866.82, 0.799224
1867.49, 0.798545
1868.16, 0.798977
1868.84, 0.799533
1869.51, 0.799471
1870.19, 0.798854
1870.86, 0.798730
1871.54, 0.799471
1872.21, 0.799163
1872.89, 0.798730
1873.56, 0.799409
1874.24, 0.800089
1874.92, 0.799965
1875.6, 0.799842
1876.28, 0.799842
1876.96, 0.800027
1877.64, 0.800583
1878.32, 0.800706
1879.0, 0.800706
1879.68, 0.800768
1880.36, 0.800768
1881.04, 0.800706
1881.73, 0.800953
1882.41, 0.801015
1883.09, 0.800891
1883.78, 0.800336
1884.46, 0.800274
1885.15, 0.800583
1885.83, 0.800830
1886.52, 0.800521
1887.21, 0.800583
1887.89, 0.800891
1888.58, 0.801015
1889.27, 0.800830
1889.96, 0.800459
1890.65, 0.800459
1891.34, 0.800521
1892.03, 0.800521
1892.72, 0.800768
1893.41, 0.800830
1894.1, 0.800953
1894.79, 0.801200
1895.49, 0.801385
1896.18, 0.801385
1896.87, 0.801200
1897.57, 0.800706
1898.26, 0.800397
1898.96, 0.799903
1899.65, 0.799965
1900.35, 0.800521
1901.05, 0.800891
1901.74, 0.801076
1902.44, 0.800768
1903.14, 0.800706
1903.84, 0.800953
1904.54, 0.800583
1905.24, 0.800274
1905.94, 0.800644
1906.64, 0.800768
1907.34, 0.801138
1908.04, 0.801385
1908.75, 0.801200
1909.45, 0.801262
1910.15, 0.801323
1910.86, 0.801509
1911.56, 0.801509
1912.27, 0.801632
1912.97, 0.801262
1913.68, 0.801076
1914.39, 0.801385
1915.09, 0.801694
1915.8, 0.801817
1916.51, 0.801941
1917.22, 0.802188
1917.93, 0.802620
1918.64, 0.802435
1919.35, 0.802003
1920.06, 0.801694
1920.77, 0.801941
1921.48, 0.802496
1922.19, 0.802929
1922.91, 0.803052
1923.62, 0.802743
1924.33, 0.802990
1925.05, 0.803423
1925.76, 0.803484
1926.48, 0.803484
1927.19, 0.803546
1927.91, 0.803731
1928.63, 0.803670
1929.35, 0.803978
1930.07, 0.804225
1930.78, 0.804287
1931.5, 0.804287
1932.22, 0.804287
1932.94, 0.804349
1933.66, 0.804596
1934.39, 0.804719
1935.11, 0.804657
1935.83, 0.804719
1936.55, 0.805028
1937.28, 0.805337
1938.0, 0.805398
1938.73, 0.805337
1939.45, 0.805460
1940.18, 0.805707
1940.9, 0.805707
1941.63, 0.805769
1942.36, 0.806016
1943.09, 0.806201
1943.81, 0.806386
1944.54, 0.806757
1945.27, 0.806757
1946.0, 0.806571
1946.73, 0.806448
1947.47, 0.806510
1948.2, 0.806633
1948.93, 0.806880
1949.66, 0.807127
1950.4, 0.807189
1951.13, 0.807250
1951.86, 0.807250
1952.6, 0.807312
1953.34, 0.807497
1954.07, 0.807621
1954.81, 0.807559
1955.55, 0.807374
1956.29, 0.807250
1957.02, 0.807621
1957.76, 0.807930
1958.5, 0.807868
1959.24, 0.807991
1959.98, 0.807991
1960.72, 0.808053
1961.47, 0.807991
1962.21, 0.807806
1962.95, 0.807930
1963.7, 0.808177
1964.44, 0.808362
1965.18, 0.808238
1965.93, 0.808115
1966.67, 0.808053
1967.42, 0.808300
1968.17, 0.808238
1968.92, 0.808238
1969.66, 0.808362
1970.41, 0.808423
1971.16, 0.808238
1971.91, 0.808423
1972.66, 0.808362
1973.41, 0.808238
1974.16, 0.808238
1974.92, 0.808300
1975.67, 0.808238
1976.42, 0.808362
1977.18, 0.808423
1977.93, 0.808177
1978.69, 0.808362
1979.44, 0.808423
1980.2, 0.808547
1980.95, 0.808547
1981.71, 0.808423
1982.47, 0.808671
1983.23, 0.808671
1983.99, 0.808609
1984.74, 0.808485
1985.51, 0.808609
1986.27, 0.808609
1987.03, 0.808609
1987.79, 0.808732
1988.55, 0.808609
1989.32, 0.808609
1990.08, 0.808794
1990.84, 0.808856
1991.61, 0.808979
1992.37, 0.808794
1993.14, 0.808671
1993.9, 0.808671
1994.67, 0.808547
1995.44, 0.808732
1996.21, 0.809041
1996.98, 0.809041
1997.75, 0.809103
1998.52, 0.808979
1999.29, 0.808856
2000.06, 0.808856
2000.83, 0.808979
2001.6, 0.809103
2002.38, 0.809288
2003.15, 0.809226
2003.93, 0.809350
2004.7, 0.809411
2005.48, 0.809350
2006.25, 0.809597
2007.03, 0.809597
2007.81, 0.809411
2008.58, 0.809535
2009.36, 0.809658
2010.14, 0.809905
2010.92, 0.809967
2011.7, 0.810029
2012.48, 0.809905
2013.26, 0.809782
2014.05, 0.809967
2014.83, 0.810276
2015.61, 0.810461
2016.4, 0.810523
2017.18, 0.810461
2017.97, 0.810276
2018.75, 0.810399
2019.54, 0.810831
2020.32, 0.811264
2021.11, 0.811140
2021.9, 0.811202
2022.69, 0.811449
2023.48, 0.811264
2024.27, 0.811325
2025.06, 0.811511
2025.85, 0.811572
2026.64, 0.811634
2027.44, 0.811634
2028.23, 0.811757
2029.02, 0.811943
2029.82, 0.812066
2030.61, 0.812128
2031.41, 0.812004
2032.2, 0.812251
2033.0, 0.812437
2033.8, 0.812251
2034.6, 0.812375
2035.4, 0.812869
2036.2, 0.812992
2037.0, 0.812807
2037.8, 0.812560
2038.6, 0.812684
2039.4, 0.812931
2040.2, 0.812931
2041.01, 0.812869
2041.81, 0.813177
2042.61, 0.813177
2043.42, 0.813054
2044.22, 0.813239
2045.03, 0.813301
2045.84, 0.813486
2046.65, 0.813610
2047.46, 0.813671
2048.26, 0.813795
2049.07, 0.813918
2049.88, 0.813671
2050.69, 0.813486
2051.51, 0.813610
2052.32, 0.813610
2053.13, 0.813795
2053.94, 0.814104
2054.76, 0.814104
2055.57, 0.813918
2056.39, 0.813980
2057.2, 0.814042
2058.02, 0.814104
2058.84, 0.814165
2059.66, 0.814351
2060.48, 0.814227
2061.29, 0.814104
2062.11, 0.814165
2062.94, 0.814227
2063.76, 0.814042
2064.58, 0.814104
2065.4, 0.814165
2066.22, 0.814165
2067.05, 0.814227
2067.87, 0.814104
2068.7, 0.813918
2069.52, 0.813857
2070.35, 0.813918
2071.18, 0.814227
2072.0, 0.814227
2072.83, 0.814165
2073.66, 0.813980
2074.49, 0.814104
2075.32, 0.814104
2076.15, 0.814042
2076.98, 0.814042
2077.82, 0.814042
2078.65, 0.814165
2079.48, 0.813980
2080.32, 0.813671
2081.15, 0.813610
2081.99, 0.813610
2082.83, 0.813795
2083.66, 0.814042
2084.5, 0.813918
2085.34, 0.813610
2086.18, 0.813610
2087.02, 0.813733
2087.86, 0.813795
2088.7, 0.813671
2089.54, 0.813610
2090.39, 0.813610
2091.23, 0.813548
2092.07, 0.813548
2092.92, 0.813795
2093.76, 0.813548
2094.61, 0.813363
2095.45, 0.813363
2096.3, 0.813548
2097.15, 0.813548
2098.0, 0.813486
2098.85, 0.813486
2099.7, 0.813363
2100.55, 0.813301
2101.4, 0.813301
2102.25, 0.813116
2103.1, 0.813301
2103.96, 0.813301
2104.81, 0.813424
2105.67, 0.813301
2106.52, 0.813301
2107.38, 0.813424
2108.24, 0.813671
2109.09, 0.813733
2109.95, 0.813795
2110.81, 0.813733
2111.67, 0.813671
2112.53, 0.813610
2113.39, 0.813548
2114.25, 0.813671
2115.12, 0.813671
2115.98, 0.813548
2116.84, 0.813733
2117.71, 0.813857
2118.58, 0.813857
2119.44, 0.813857
2120.31, 0.813918
2121.18, 0.813733
2122.04, 0.814042
2122.91, 0.814227
2123.78, 0.814412
2124.65, 0.814227
2125.52, 0.814289
2126.4, 0.814351
2127.27, 0.814412
2128.14, 0.814536
2129.02, 0.814783
2129.89, 0.814721
2130.77, 0.814536
2131.64, 0.814659
2132.52, 0.815030
2133.4, 0.815030
2134.27, 0.814968
2135.15, 0.814968
2136.03, 0.814906
2136.91, 0.815153
2137.79, 0.815030
2138.68, 0.814968
2139.56, 0.815215
2140.44, 0.815524
2141.33, 0.815709
2142.21, 0.815647
2143.1, 0.815524
2143.99, 0.815585
2144.87, 0.815771
2145.76, 0.816018
2146.65, 0.816018
2147.54, 0.816079
2148.43, 0.816203
2149.32, 0.816203
2150.21, 0.816203
2151.1, 0.815956
2151.99, 0.815832
2152.89, 0.816079
2153.78, 0.816141
2154.68, 0.816265
2155.57, 0.816450
2156.47, 0.816450
2157.37, 0.816203
2158.27, 0.816265
2159.16, 0.816450
2160.06, 0.816573
2160.96, 0.816697
2161.86, 0.816820
2162.77, 0.816882
2163.67, 0.816697
2164.57, 0.816511
2165.48, 0.816388
2166.38, 0.816697
2167.29, 0.816697
2168.2, 0.816573
2169.1, 0.816511
2170.01, 0.816697
2170.92, 0.816697
2171.83, 0.816820
2172.74, 0.816697
2173.65, 0.816635
2174.56, 0.816450
2175.47, 0.816573
2176.39, 0.816573
2177.3, 0.816388
2178.22, 0.816450
2179.13, 0.816450
2180.05, 0.816265
2180.96, 0.816203
2181.88, 0.816079
2182.8, 0.816018
2183.72, 0.816079
2184.64, 0.816018
2185.56, 0.815771
2186.48, 0.815709
2187.41, 0.815585
2188.33, 0.815832
2189.25, 0.815771
2190.18, 0.815585
2191.1, 0.815462
2192.03, 0.815400
2192.96, 0.815338
2193.89, 0.815338
2194.82, 0.815400
2195.74, 0.815153
2196.68, 0.815030
2197.61, 0.815030
2198.54, 0.815030
2199.47, 0.814721
2200.4, 0.814474
2201.34, 0.814474
2202.28, 0.814412
2203.21, 0.814351
2204.15, 0.814474
2205.08, 0.814536
2206.02, 0.814474
2206.96, 0.814412
2207.9, 0.814289
2208.84, 0.814165
2209.78, 0.814165
2210.73, 0.813980
2211.67, 0.813795
2212.61, 0.813795
2213.56, 0.813795
2214.5, 0.813795
2215.45, 0.813733
2216.4, 0.813671
2217.35, 0.813733
2218.3, 0.813795
2219.24, 0.813733
2220.2, 0.813671
2221.15, 0.813671
2222.1, 0.813857
2223.05, 0.813610
2224.0, 0.813548
2224.96, 0.813301
2225.91, 0.813239
2226.87, 0.813177
2227.83, 0.813363
2228.79, 0.813424
2229.74, 0.813363
2230.7, 0.813239
2231.66, 0.813424
2232.63, 0.813424
2233.59, 0.813363
2234.55, 0.813424
2235.51, 0.813610
2236.48, 0.813424
2237.44, 0.813301
2238.41, 0.813301
2239.38, 0.813424
2240.34, 0.813610
2241.31, 0.813486
2242.28, 0.813363
2243.25, 0.813486
2244.22, 0.813486
2245.19, 0.813733
2246.17, 0.813857
2247.14, 0.813857
2248.12, 0.813671
2249.09, 0.813795
2250.07, 0.813980
2251.04, 0.813980
2252.02, 0.813795
2253.0, 0.813918
2253.98, 0.814042
2254.96, 0.814289
2255.94, 0.814412
2256.92, 0.814351
2257.91, 0.814289
2258.89, 0.814412
2259.88, 0.814351
2260.86, 0.814351
2261.85, 0.814536
2262.83, 0.814844
2263.82, 0.814844
2264.81, 0.814783
2265.8, 0.814721
2266.79, 0.814783
2267.78, 0.814906
2268.78, 0.814906
2269.77, 0.814968
2270.76, 0.814844
2271.76, 0.814844
2272.75, 0.814968
2273.75, 0.814968
2274.75, 0.815030
2275.75, 0.815091
2276.75, 0.815215
2277.75, 0.815215
2278.75, 0.815153
2279.75, 0.815153
2280.75, 0.815215
2281.76, 0.815215
2282.76, 0.815338
2283.77, 0.815462
2284.77, 0.815400
2285.78, 0.815400
2286.79, 0.815338
2287.8, 0.815277
2288.81, 0.815400
2289.82, 0.815277
2290.83, 0.815277
2291.84, 0.815215
2292.86, 0.814968
2293.87, 0.814906
2294.89, 0.814906
2295.91, 0.814783
2296.92, 0.814721
2297.94, 0.814659
2298.96, 0.814721
2299.98, 0.814597
2301.0, 0.814412
2302.02, 0.814351
2303.04, 0.814351
2304.07, 0.814165
2305.09, 0.814165
2306.12, 0.814227
2307.15, 0.814289
2308.17, 0.814289
2309.2, 0.814351
2310.23, 0.814289
2311.26, 0.814412
2312.29, 0.814289
2313.32, 0.814289
2314.35, 0.814165
2315.39, 0.814165
2316.42, 0.814289
2317.46, 0.814351
2318.5, 0.814351
2319.53, 0.814289
2320.57, 0.814042
2321.61, 0.813918
2322.65, 0.813918
2323.69, 0.813857
2324.73, 0.813671
2325.78, 0.813857
2326.82, 0.813733
2327.86, 0.813610
2328.91, 0.813486
2329.96, 0.813424
2331.01, 0.813671
2332.05, 0.813610
2333.1, 0.813424
2334.15, 0.813177
2335.21, 0.812931
2336.26, 0.812869
2337.31, 0.812931
2338.36, 0.812807
2339.42, 0.812807
2340.48, 0.812622
2341.53, 0.812622
2342.59, 0.812684
2343.65, 0.812375
2344.71, 0.812313
2345.77, 0.812437
2346.83, 0.812313
2347.9, 0.812190
2348.96, 0.812190
2350.02, 0.812313
2351.09, 0.812128
2352.16, 0.811943
2353.23, 0.811943
2354.29, 0.811943
2355.36, 0.811943
2356.43, 0.811881
2357.51, 0.812004
2358.58, 0.812066
2359.65, 0.812251
2360.73, 0.812066
2361.8, 0.812251
2362.88, 0.812313
2363.96, 0.812251
2365.03, 0.812190
2366.11, 0.812128
2367.19, 0.812066
2368.27, 0.811881
2369.36, 0.811943
2370.44, 0.812004
2371.53, 0.812128
2372.61, 0.812004
2373.7, 0.812128
2374.78, 0.812560
2375.87, 0.812560
2376.96, 0.812498
2378.05, 0.812745
2379.14, 0.812807
2380.24, 0.812807
2381.33, 0.812869
2382.42, 0.812931
2383.52, 0.812807
2384.61, 0.812807
2385.71, 0.812807
2386.81, 0.812931
2387.91, 0.813054
2389.01, 0.813116
2390.11, 0.813177
2391.22, 0.813301
2392.32, 0.813486
2393.42, 0.813486
2394.53, 0.813486
2395.64, 0.813424
2396.74, 0.813548
2397.85, 0.813733
2398.96, 0.813795
2400.07, 0.813857
2401.18, 0.813980
2402.3, 0.813857
2403.41, 0.813918
2404.52, 0.814104
2405.64, 0.814351
2406.76, 0.814351
2407.88, 0.814412
2408.99, 0.814412
2410.11, 0.814597
2411.23, 0.814597
2412.36, 0.814412
2413.48, 0.814474
2414.6, 0.814474
2415.73, 0.814536
2416.85, 0.814536
2417.98, 0.814597
2419.11, 0.814597
2420.24, 0.814659
2421.37, 0.814536
2422.5, 0.814597
2423.64, 0.814536
2424.77, 0.814289
2425.9, 0.814165
2427.04, 0.814227
2428.18, 0.814289
2429.31, 0.814227
2430.45, 0.814104
2431.59, 0.813918
2432.73, 0.813980
2433.88, 0.813980
2435.02, 0.813980
2436.16, 0.813980
2437.31, 0.813857
2438.45, 0.813918
2439.6, 0.813980
2440.75, 0.813733
2441.9, 0.813486
2443.05, 0.813424
2444.2, 0.813486
2445.35, 0.813424
2446.51, 0.813363
2447.67, 0.813116
2448.82, 0.813054
2449.98, 0.812931
2451.14, 0.812992
2452.3, 0.812869
2453.46, 0.812622
2454.62, 0.812560
2455.78, 0.812437
2456.94, 0.812190
2458.11, 0.812190
2459.28, 0.812066
2460.44, 0.811943
2461.61, 0.811943
2462.78, 0.811696
2463.95, 0.811511
2465.12, 0.811387
2466.3, 0.811387
2467.47, 0.811264
2468.65, 0.810955
2469.82, 0.810708
2471.0, 0.810708
2472.18, 0.810646
2473.36, 0.810523
2474.54, 0.810523
2475.72, 0.810399
2476.9, 0.810399
2478.08, 0.810276
2479.27, 0.810152
2480.46, 0.810152
2481.64, 0.809967
2482.83, 0.809782
2484.02, 0.809597
2485.21, 0.809473
2486.4, 0.809226
2487.6, 0.809164
2488.79, 0.809164
2489.99, 0.809103
2491.18, 0.808979
2492.38, 0.809041
2493.58, 0.808917
2494.78, 0.808732
2495.98, 0.808547
2497.18, 0.808609
2498.39, 0.808609
2499.59, 0.808609
2500.8, 0.808547
2502.01, 0.808362
2503.21, 0.808300
2504.42, 0.808362
2505.63, 0.808238
2506.84, 0.808238
2508.06, 0.808485
2509.27, 0.808300
2510.49, 0.808300
2511.7, 0.808238
2512.92, 0.808053
2514.14, 0.807991
2515.36, 0.807991
2516.58, 0.808115
2517.8, 0.808115
2519.03, 0.808177
2520.25, 0.808300
2521.48, 0.808547
2522.7, 0.808547
2523.93, 0.808485
2525.16, 0.808485
2526.39, 0.808547
2527.62, 0.808547
2528.86, 0.808609
2530.09, 0.808547
2531.33, 0.808423
2532.56, 0.808609
2533.8, 0.808979
2535.04, 0.808794
2536.28, 0.808732
2537.52, 0.809411
2538.76, 0.809658
2540.01, 0.809782
2541.25, 0.809411
2542.5, 0.808794
2543.75, 0.809164
2544.99, 0.809843
2546.24, 0.809843
2547.49, 0.809597
2548.75, 0.810029
2550.0, 0.809782
2551.26, 0.809103
2552.51, 0.808856
2553.77, 0.810152
2555.03, 0.811078
2556.29, 0.811202
2557.55, 0.811202
2558.81, 0.810461
2560.08, 0.808053
2561.34, 0.806386
2562.61, 0.806571
2563.88, 0.807312
2565.14, 0.809597
2566.41, 0.811449
2567.68, 0.810584
2568.96, 0.808485
2570.23, 0.809226
2571.51, 0.810029
2572.78, 0.807189
2574.06, 0.808547
2575.34, 0.809782
2576.62, 0.808856
2577.9, 0.810276
2579.18, 0.811140
2580.47, 0.809473
2581.75, 0.808794
2583.04, 0.806139
2584.32, 0.806880
2585.61, 0.809164
2586.9, 0.807806
2588.2, 0.808609
2589.49, 0.809843
2590.78, 0.810770
2592.08, 0.808671
2593.37, 0.800830
2594.67, 0.795705
2595.97, 0.803299
2597.27, 0.809597
2598.57, 0.811140
2599.88, 0.810090
2601.18, 0.808856
2602.49, 0.807868
2603.79, 0.805645
2605.1, 0.802929
2606.41, 0.805028
2607.72, 0.807374
2609.03, 0.807806
2610.35, 0.808547
2611.66, 0.809103
2612.98, 0.808547
2614.3, 0.808485
2615.62, 0.805028
2616.94, 0.803670
2618.26, 0.805954
2619.58, 0.803361
2620.91, 0.804781
2622.23, 0.809041
2623.56, 0.809164
2624.89, 0.807003
2626.22, 0.803793
2627.55, 0.805892
2628.88, 0.804287
2630.21, 0.801076
2631.55, 0.804781
2632.89, 0.806139
2634.22, 0.806077
2635.56, 0.807559
2636.9, 0.807806
2638.25, 0.807744
2639.59, 0.807250
2640.93, 0.806695
2642.28, 0.806139
2643.63, 0.806139
2644.98, 0.804719
2646.33, 0.805151
2647.68, 0.806139
2649.03, 0.806139
2650.39, 0.804781
2651.74, 0.802682
2653.1, 0.802867
2654.46, 0.803423
2655.82, 0.803423
2657.18, 0.804410
2658.54, 0.802496
2659.9, 0.801756
2661.27, 0.802064
2662.64, 0.801509
2664.01, 0.796137
2665.38, 0.792495
2666.74, 0.793421
2668.12, 0.796384
2669.49, 0.791260
2670.87, 0.792186
2672.24, 0.799224
2673.62, 0.799718
2675.0, 0.796508
2676.38, 0.793791
2677.76, 0.794470
2679.15, 0.795149
2680.54, 0.797742
2681.92, 0.797496
2683.31, 0.796076
2684.7, 0.795582
2686.09, 0.794717
2687.48, 0.794347
2688.88, 0.793668
2690.27, 0.792433
2691.67, 0.789284
2693.07, 0.783974
2694.47, 0.782184
2695.87, 0.782740
2697.27, 0.782431
2698.67, 0.779961
2700.08, 0.775825
2701.49, 0.772738
2702.9, 0.771935
2704.31, 0.770206
2705.72, 0.769219
2707.13, 0.767799
2708.54, 0.765329
2709.96, 0.762612
2711.38, 0.764156
2712.8, 0.768354
2714.22, 0.768725
2715.64, 0.767428
2717.06, 0.764588
2718.49, 0.760019
2719.91, 0.753598
2721.34, 0.754833
2722.77, 0.755018
2724.2, 0.751808
2725.63, 0.753660
2727.07, 0.755265
2728.5, 0.754278
2729.94, 0.752055
2731.38, 0.749956
2732.82, 0.746930
2734.26, 0.742670
2735.7, 0.741374
2737.15, 0.739213
2738.59, 0.733162
2740.04, 0.729643
2741.49, 0.730755
2742.94, 0.732298
2744.39, 0.731557
2745.84, 0.729767
2747.3, 0.727791
2748.76, 0.725754
2750.21, 0.723469
2751.67, 0.720691
2753.14, 0.716801
2754.6, 0.710133
2756.06, 0.708960
2757.53, 0.710751
2759.0, 0.709207
2760.46, 0.705997
2761.94, 0.702478
2763.41, 0.702292
2764.88, 0.703527
2766.36, 0.702910
2767.83, 0.701737
2769.31, 0.700440
2770.79, 0.699144
2772.27, 0.699761
2773.76, 0.699885
2775.24, 0.698650
2776.73, 0.697168
2778.22, 0.696304
2779.71, 0.695254
2781.2, 0.693896
2782.69, 0.693278
2784.18, 0.692352
2785.68, 0.689883
2787.18, 0.688463
2788.68, 0.689142
2790.18, 0.689512
2791.68, 0.688771
2793.19, 0.687907
2794.69, 0.687104
2796.2, 0.686240
2797.71, 0.685376
2799.22, 0.684573
2800.73, 0.682844
2802.24, 0.680560
2803.76, 0.680066
2805.28, 0.680622
2806.8, 0.680251
2808.32, 0.679572
2809.84, 0.679078
2811.36, 0.678523
2812.89, 0.677596
2814.42, 0.676670
2815.94, 0.676115
2817.48, 0.675250
2819.01, 0.674139
2820.54, 0.673398
2822.08, 0.673089
2823.61, 0.672904
2825.15, 0.672287
2826.69, 0.671361
2828.23, 0.670743
2829.78, 0.670249
2831.32, 0.669323
2832.87, 0.668459
2834.42, 0.667780
2835.97, 0.667286
2837.52, 0.666730
2839.08, 0.666422
2840.63, 0.666051
2842.19, 0.665557
2843.75, 0.665002
2845.31, 0.664322
2846.87, 0.663767
2848.44, 0.663026
2850.0, 0.662717
2851.57, 0.662408
2853.14, 0.661791
2854.71, 0.661174
2856.28, 0.661112
2857.86, 0.660618
2859.43, 0.660124
2861.01, 0.659939
2862.59, 0.659568
2864.17, 0.659136
2865.76, 0.658704
2867.34, 0.658457
2868.93, 0.658210
2870.52, 0.657654
2872.11, 0.657346
2873.7, 0.657161
2875.29, 0.656975
2876.89, 0.656728
2878.49, 0.656728
2880.08, 0.656481
2881.69, 0.656234
2883.29, 0.655926
2884.89, 0.655617
2886.5, 0.655432
2888.11, 0.655123
2889.72, 0.655123
2891.33, 0.655061
2892.94, 0.654938
2894.56, 0.654814
2896.17, 0.654629
2897.79, 0.654567
2899.42, 0.654382
2901.04, 0.654259
2902.66, 0.654259
2904.29, 0.654197
2905.92, 0.654197
2907.55, 0.654197
2909.18, 0.654135
2910.81, 0.654012
2912.45, 0.653950
2914.08, 0.653827
2915.72, 0.653888
2917.36, 0.653827
2919.01, 0.653703
2920.65, 0.653765
2922.3, 0.653703
2923.94, 0.653580
2925.59, 0.653641
2927.25, 0.653765
2928.9, 0.653703
2930.56, 0.653888
2932.21, 0.653827
2933.87, 0.653765
2935.53, 0.653827
2937.2, 0.653950
2938.86, 0.654012
2940.53, 0.653950
2942.2, 0.653827
2943.87, 0.653888
2945.54, 0.654012
2947.22, 0.654074
2948.89, 0.654259
2950.57, 0.654259
2952.25, 0.654320
2953.93, 0.654444
2955.62, 0.654444
2957.3, 0.654506
2958.99, 0.654444
2960.68, 0.654506
2962.37, 0.654814
2964.07, 0.655000
2965.76, 0.655123
2967.46, 0.655247
2969.16, 0.655247
2970.86, 0.655432
2972.56, 0.655555
2974.27, 0.655555
2975.98, 0.655679
2977.69, 0.655802
2979.4, 0.655987
2981.11, 0.656049
2982.83, 0.656111
2984.54, 0.656234
2986.26, 0.656234
2987.98, 0.656420
2989.71, 0.656667
2991.43, 0.656914
2993.16, 0.657099
2994.89, 0.657284
2996.62, 0.657284
2998.35, 0.657346
3000.09, 0.657531
3001.83, 0.657654
3003.57, 0.657778
3005.31, 0.657963
3007.05, 0.658210
3008.79, 0.658395
3010.54, 0.658457
3012.29, 0.658642
3014.04, 0.658766
3015.8, 0.658889
3017.55, 0.658889
3019.31, 0.659074
3021.07, 0.659260
3022.83, 0.659260
3024.59, 0.659383
3026.36, 0.659568
3028.13, 0.659877
3029.9, 0.660001
3031.67, 0.660186
3033.44, 0.660309
3035.22, 0.660433
3037.0, 0.660556
3038.78, 0.660680
3040.56, 0.660865
3042.34, 0.660927
3044.13, 0.661112
3045.92, 0.661544
3047.71, 0.661791
3049.5, 0.661729
3051.3, 0.661853
3053.09, 0.662038
3054.89, 0.662347
3056.69, 0.662594
3058.5, 0.662964
3060.3, 0.663149
3062.11, 0.663458
3063.92, 0.663890
3065.73, 0.664075
3067.55, 0.664322
3069.36, 0.664755
3071.18, 0.665125
3073.0, 0.665372
3074.82, 0.665681
3076.65, 0.666051
3078.48, 0.666422
3080.31, 0.666854
3082.14, 0.667162
3083.97, 0.667533
3085.8, 0.667965
3087.64, 0.668335
3089.48, 0.668768
3091.33, 0.669323
3093.17, 0.669756
3095.02, 0.670126
3096.87, 0.670558
3098.72, 0.671052
3100.57, 0.671422
3102.43, 0.671855
3104.28, 0.672472
3106.14, 0.672966
3108.01, 0.673398
3109.87, 0.673892
3111.74, 0.674509
3113.61, 0.674942
3115.48, 0.675436
3117.35, 0.676176
3119.23, 0.676609
3121.1, 0.676979
3122.98, 0.677535
3124.87, 0.678090
3126.75, 0.678646
3128.64, 0.679202
3130.53, 0.679757
3132.42, 0.680251
3134.31, 0.680807
3136.21, 0.681363
3138.11, 0.681857
3140.01, 0.682350
3141.91, 0.682906
3143.82, 0.683338
3145.73, 0.683832
3147.64, 0.684450
3149.55, 0.685067
3151.46, 0.685561
3153.38, 0.686117
3155.3, 0.686611
3157.22, 0.687166
3159.14, 0.687784
3161.07, 0.688216
3163.0, 0.688895
3164.93, 0.689512
3166.86, 0.689944
3168.8, 0.690377
3170.74, 0.690994
3172.68, 0.691488
3174.62, 0.691858
3176.56, 0.692167
3178.51, 0.692784
3180.46, 0.693278
3182.42, 0.693649
3184.37, 0.694328
3186.33, 0.694760
3188.29, 0.695007
3190.25, 0.695439
3192.21, 0.695872
3194.18, 0.696427
3196.15, 0.697045
3198.12, 0.697538
3200.09, 0.697847
3202.07, 0.698341
3204.05, 0.698712
3206.03, 0.699020
3208.02, 0.699391
3210.0, 0.699885
3211.99, 0.700379
3213.98, 0.700811
3215.98, 0.701243
3217.97, 0.701799
3219.97, 0.702231
3221.97, 0.702539
3223.98, 0.702786
3225.98, 0.703219
3227.99, 0.703651
3230.0, 0.704145
3232.02, 0.704577
3234.03, 0.704824
3236.05, 0.705132
3238.07, 0.705441
3240.1, 0.705688
3242.12, 0.705997
3244.15, 0.706306
3246.18, 0.706553
3248.22, 0.706738
3250.25, 0.707046
3252.29, 0.707355
3254.33, 0.707787
3256.38, 0.708034
3258.43, 0.708466
3260.47, 0.708837
3262.53, 0.709146
3264.58, 0.709516
3266.64, 0.709948
3268.7, 0.710319
3270.76, 0.710689
3272.82, 0.710874
3274.89, 0.711245
3276.96, 0.711553
3279.04, 0.711862
3281.11, 0.712047
3283.19, 0.712233
3285.27, 0.712480
3287.35, 0.712727
3289.44, 0.712973
3291.53, 0.713220
3293.62, 0.713220
3295.71, 0.713282
3297.81, 0.713406
3299.91, 0.713714
3302.01, 0.713961
3304.11, 0.714270
3306.22, 0.714517
3308.33, 0.714826
3310.44, 0.715073
3312.56, 0.715196
3314.68, 0.715134
3316.8, 0.715073
3318.92, 0.715073
3321.05, 0.715011
3323.18, 0.714887
3325.31, 0.714826
3327.44, 0.714764
3329.58, 0.714826
3331.72, 0.714702
3333.86, 0.714579
3336.01, 0.714517
3338.16, 0.714393
3340.31, 0.714147
3342.46, 0.713653
3344.61, 0.712788
3346.77, 0.711800
3348.94, 0.710751
3351.1, 0.709701
3353.27, 0.708281
3355.44, 0.706429
3357.61, 0.704083
3359.79, 0.701366
3361.97, 0.698218
3364.15, 0.694575
3366.33, 0.690438
3368.52, 0.686796
3370.71, 0.684017
3372.9, 0.682350
3375.1, 0.681301
3377.3, 0.680992
3379.5, 0.681548
3381.71, 0.682783
3383.91, 0.684141
3386.12, 0.685067
3388.34, 0.685314
3390.55, 0.684697
3392.77, 0.683153
3394.99, 0.680807
3397.22, 0.677596
3399.45, 0.673954
3401.68, 0.670249
3403.91, 0.666607
3406.15, 0.662964
3408.39, 0.659815
3410.63, 0.657346
3412.87, 0.655926
3415.12, 0.655555
3417.37, 0.656481
3419.63, 0.658766
3421.88, 0.662285
3424.14, 0.666483
3426.41, 0.670990
3428.67, 0.675683
3430.94, 0.680313
3433.21, 0.684511
3435.49, 0.688216
3437.77, 0.691303
3440.05, 0.693896
3442.33, 0.696304
3444.62, 0.698526
3446.91, 0.700749
3449.2, 0.702910
3451.5, 0.704824
3453.8, 0.706676
3456.1, 0.708466
3458.41, 0.710010
3460.72, 0.711245
3463.03, 0.712109
3465.34, 0.712356
3467.66, 0.712109
3469.98, 0.711739
3472.31, 0.711368
3474.63, 0.711121
3476.96, 0.710874
3479.3, 0.710627
3481.64, 0.710380
3483.97, 0.709516
3486.32, 0.708466
3488.66, 0.706861
3491.01, 0.705009
3493.36, 0.703033
3495.72, 0.701058
3498.08, 0.699946
3500.44, 0.700070
3502.81, 0.701675
3505.18, 0.704824
3507.55, 0.709022
3509.92, 0.713900
3512.3, 0.719580
3514.68, 0.725013
3517.06, 0.729088
3519.45, 0.732422
3521.84, 0.734891
3524.24, 0.736743
3526.64, 0.738349
3529.04, 0.739830
3531.44, 0.740757
3533.85, 0.741559
3536.26, 0.742362
3538.67, 0.742979
3541.09, 0.743535
3543.51, 0.744152
3545.93, 0.744708
3548.36, 0.745078
3550.79, 0.745449
3553.22, 0.745819
3555.66, 0.746190
3558.1, 0.746684
3560.54, 0.746869
3562.99, 0.747116
3565.44, 0.747486
3567.9, 0.747671
3570.35, 0.747857
3572.81, 0.748227
3575.28, 0.748412
3577.75, 0.748721
3580.22, 0.748906
3582.69, 0.749091
3585.17, 0.749277
3587.65, 0.749277
3590.14, 0.749338
3592.62, 0.749524
3595.11, 0.749894
3597.61, 0.750203
3600.11, 0.750079
3602.61, 0.750079
3605.11, 0.750264
3607.62, 0.750388
3610.14, 0.750511
3612.65, 0.750635
3615.17, 0.750697
3617.69, 0.750758
3620.22, 0.750944
3622.75, 0.751005
3625.28, 0.751005
3627.82, 0.751005
3630.36, 0.751067
3632.9, 0.751005
3635.45, 0.751005
3638.0, 0.751252
3640.56, 0.751252
3643.12, 0.751129
3645.68, 0.751129
3648.24, 0.751252
3650.81, 0.751252
3653.39, 0.751499
3655.96, 0.751684
3658.54, 0.751931
3661.13, 0.751993
3663.71, 0.752055
3666.3, 0.752178
3668.9, 0.752302
3671.5, 0.752425
3674.1, 0.752981
3676.7, 0.753475
3679.31, 0.753475
3681.93, 0.753475
3684.54, 0.753784
3687.17, 0.753907
3689.79, 0.754216
3692.42, 0.754463
3695.05, 0.754895
3697.69, 0.755080
3700.32, 0.755204
3702.97, 0.755451
3705.61, 0.755636
3708.27, 0.755821
3710.92, 0.756068
3713.58, 0.756253
3716.24, 0.756253
3718.91, 0.756562
3721.58, 0.756747
3724.25, 0.756809
3726.93, 0.756932
3729.61, 0.757118
3732.29, 0.757303
3734.98, 0.757365
3737.67, 0.757550
3740.37, 0.757797
3743.07, 0.757982
3745.78, 0.758105
3748.49, 0.758229
3751.2, 0.758538
3753.91, 0.758661
3756.63, 0.758538
3759.36, 0.758538
3762.09, 0.758785
3764.82, 0.758970
3767.55, 0.759155
3770.29, 0.759402
3773.04, 0.759217
3775.78, 0.759278
3778.54, 0.759217
3781.29, 0.759155
3784.05, 0.759217
3786.82, 0.759402
3789.59, 0.759217
3792.36, 0.759278
3795.13, 0.759155
3797.92, 0.758970
3800.7, 0.758908
3803.49, 0.759032
3806.28, 0.758785
3809.08, 0.758661
3811.88, 0.758476
3814.68, 0.758476
3817.49, 0.758167
3820.31, 0.758044
3823.12, 0.757858
3825.94, 0.757673
3828.77, 0.757488
3831.6, 0.757303
3834.43, 0.756994
3837.27, 0.756438
3840.11, 0.756130
3842.96, 0.756068
3845.81, 0.755821
3848.67, 0.755451
3851.53, 0.755142
3854.39, 0.754895
3857.26, 0.754648
3860.13, 0.754216
3863.01, 0.753598
3865.89, 0.753351
3868.77, 0.752981
3871.66, 0.752611
3874.55, 0.752055
3877.45, 0.751684
3880.35, 0.751499
3883.26, 0.751067
3886.17, 0.750511
3889.09, 0.750326
3892.01, 0.749894
3894.93, 0.749524
3897.86, 0.748968
3900.79, 0.748474
3903.73, 0.747918
3906.67, 0.747548
3909.62, 0.747239
3912.57, 0.746930
3915.52, 0.746622
3918.48, 0.746437
3921.45, 0.746375
3924.42, 0.746375
3927.39, 0.746190
3930.37, 0.745819
3933.35, 0.745757
3936.34, 0.745881
3939.33, 0.745819
3942.32, 0.745943
3945.32, 0.745819
3948.33, 0.745696
3951.34, 0.745757
3954.35, 0.745819
3957.37, 0.745696
3960.39, 0.745572
3963.42, 0.745572
3966.45, 0.745634
3969.49, 0.745634
3972.53, 0.745757
3975.58, 0.745819
3978.63, 0.745943
3981.68, 0.746066
3984.75, 0.746437
3987.81, 0.746498
3990.88, 0.746498
3993.95, 0.746498
3997.03, 0.746560
4000.12, 0.746684
4003.21, 0.746930
4006.3, 0.746684
4009.4, 0.746437
4012.5, 0.746622
4015.61, 0.746869
4018.72, 0.746745
4021.84, 0.746745
4024.96, 0.746560
4028.09, 0.746560
4031.22, 0.746498
4034.36, 0.746684
4037.5, 0.746622
4040.65, 0.746375
4043.8, 0.746190
4046.96, 0.746004
4050.12, 0.745757
4053.29, 0.745572
4056.46, 0.745202
4059.64, 0.744955
4062.82, 0.744708
4066.0, 0.744399
4069.19, 0.744090
4072.39, 0.744090
4075.59, 0.743782
4078.8, 0.743535
4082.01, 0.742979
4085.23, 0.742917
4088.45, 0.742609
4091.68, 0.742485
4094.91, 0.742362
4098.15, 0.741991
4101.39, 0.741621
4104.63, 0.741436
4107.89, 0.741312
4111.14, 0.741003
4114.41, 0.740757
4117.67, 0.740695
4120.95, 0.740201
4124.23, 0.739707
4127.51, 0.739583
4130.8, 0.739336
4134.09, 0.738843
4137.39, 0.738719
4140.7, 0.738534
4144.01, 0.738225
4147.32, 0.737793
4150.64, 0.737484
4153.97, 0.737176
4157.3, 0.736805
4160.64, 0.736311
4163.98, 0.735941
4167.33, 0.735447
4170.68, 0.734891
4174.04, 0.734459
4177.4, 0.734027
4180.77, 0.733533
4184.14, 0.733101
4187.52, 0.732236
4190.91, 0.731742
4194.3, 0.731310
4197.69, 0.730816
4201.1, 0.730137
4204.5, 0.729458
4207.92, 0.728779
4211.34, 0.728594
4214.76, 0.728285
4218.19, 0.727915
4221.62, 0.727359
4225.06, 0.726433
4228.51, 0.725630
4231.96, 0.725198
4235.42, 0.724334
4238.88, 0.723037
4242.35, 0.721679
4245.83, 0.720074
4249.31, 0.718345
4252.79, 0.716925
4256.28, 0.715381
4259.78, 0.714332
4263.29, 0.713159
4266.79, 0.712171
4270.31, 0.711307
4273.83, 0.710319
4277.35, 0.708960
4280.89, 0.707355
4284.42, 0.705750
4287.97, 0.704268
4291.52, 0.702539
4295.07, 0.700749
4298.63, 0.698773
4302.2, 0.697168
4305.78, 0.695686
4309.35, 0.693834
4312.94, 0.691488
4316.53, 0.689512
4320.13, 0.687722
4323.73, 0.685931
4327.34, 0.684017
4330.96, 0.682165
4334.58, 0.680251
4338.21, 0.678461
4341.84, 0.676300
4345.48, 0.674509
4349.12, 0.672843
4352.77, 0.671175
4356.43, 0.669076
4360.1, 0.667039
4363.76, 0.665372
4367.44, 0.663952
4371.12, 0.661914
4374.81, 0.660186
4378.51, 0.658581
4382.21, 0.657099
4385.92, 0.654938
4389.63, 0.653086
4393.35, 0.651233
4397.08, 0.649505
4400.81, 0.647591
4404.55, 0.645986
4408.29, 0.644195
4412.04, 0.642528
4415.8, 0.640799
4419.57, 0.639194
4423.34, 0.637280
4427.12, 0.635243
4430.9, 0.633514
4434.69, 0.631847
4438.49, 0.629501
4442.29, 0.627525
4446.1, 0.625303
4449.92, 0.623204
4453.74, 0.621228
4457.57, 0.619561
4461.41, 0.617400
4465.25, 0.615116
4469.1, 0.612955
4472.95, 0.610732
4476.82, 0.608386
4480.69, 0.606410
4484.56, 0.604188
4488.44, 0.601718
4492.33, 0.599619
4496.23, 0.597396
4500.13, 0.595112
4504.04, 0.592766
4507.96, 0.590420
4511.88, 0.588259
4515.81, 0.586160
4519.75, 0.583999
4523.69, 0.581406
4527.65, 0.578565
4531.6, 0.576281
4535.57, 0.573997
4539.54, 0.571280
4543.52, 0.568502
4547.5, 0.565724
4551.5, 0.562822
4555.5, 0.560105
4559.5, 0.557636
4563.52, 0.554796
4567.54, 0.552017
4571.56, 0.549424
4575.6, 0.547078
4579.64, 0.544547
4583.69, 0.541830
4587.75, 0.539114
4591.81, 0.536891
4595.88, 0.534668
4599.96, 0.532322
4604.04, 0.530038
4608.14, 0.527877
4612.24, 0.525593
4616.34, 0.523432
4620.46, 0.521333
4624.58, 0.519727
4628.71, 0.517999
4632.84, 0.516455
4636.99, 0.514912
4641.14, 0.513492
4645.3, 0.512010
4649.47, 0.510528
4653.64, 0.509046
4657.82, 0.507935
4662.01, 0.506824
4666.21, 0.505774
4670.41, 0.504416
4674.62, 0.503675
4678.84, 0.503057
4683.07, 0.502193
4687.3, 0.501391
4691.54, 0.500650
4695.79, 0.499909
4700.05, 0.499600
4704.31, 0.499230
4708.59, 0.499168
4712.87, 0.498674
4717.15, 0.498242
4721.45, 0.498242
4725.76, 0.498180
4730.07, 0.497748
4734.39, 0.497748
4738.72, 0.497130
4743.05, 0.496390
4747.39, 0.495834
4751.75, 0.495587
4756.1, 0.494908
4760.47, 0.494043
4764.85, 0.493056
4769.23, 0.492747
4773.62, 0.492191
4778.02, 0.491265
4782.43, 0.490895
4786.85, 0.490895
4791.27, 0.490216
4795.7, 0.490154
4800.14, 0.489351
4804.59, 0.488302
4809.05, 0.487499
4813.51, 0.487746
4817.99, 0.487561
4822.47, 0.487252
4826.96, 0.486449
4831.46, 0.485647
4835.96, 0.485091
4840.48, 0.484227
4845.0, 0.483795
4849.54, 0.483115
4854.08, 0.482004
4858.63, 0.481757
4863.18, 0.481387
4867.75, 0.481387
4872.33, 0.481510
4876.91, 0.481695
4881.5, 0.481325
4886.1, 0.480955
4890.71, 0.480584
4895.33, 0.480028
4899.96, 0.480831
4904.59, 0.481695
4909.24, 0.481572
4913.89, 0.481634
4918.55, 0.481387
4923.22, 0.481078
4927.9, 0.481695
4932.59, 0.482498
4937.29, 0.483239
4942.0, 0.483115
4946.71, 0.482498
4951.44, 0.482560
4956.17, 0.482683
4960.91, 0.483609
4965.67, 0.483980
4970.43, 0.484103
4975.2, 0.483733
4979.98, 0.483301
4984.76, 0.482375
4989.56, 0.481757
4994.37, 0.481078
4999.18, 0.479473
5004.01, 0.477744
5008.84, 0.476386
5013.69, 0.473978
5018.54, 0.471817
5023.4, 0.470582
5028.28, 0.468730
5033.16, 0.465705
5038.05, 0.462618
5042.95, 0.459654
5047.86, 0.457617
5052.78, 0.454653
5057.71, 0.450764
5062.65, 0.446936
5067.6, 0.444219
5072.56, 0.440885
5077.53, 0.437304
5082.5, 0.433662
5087.49, 0.429340
5092.49, 0.425759
5097.5, 0.421869
5102.51, 0.417548
5107.54, 0.413967
5112.58, 0.410509
5117.62, 0.406867
5122.68, 0.402915
5127.75, 0.398964
5132.82, 0.395198
5137.91, 0.391555
5143.01, 0.386678
5148.12, 0.382541
5153.23, 0.378775
5158.36, 0.374824
5163.5, 0.370625
5168.65, 0.366427
5173.81, 0.362537
5178.98, 0.359697
5184.15, 0.355314
5189.34, 0.351424
5194.54, 0.347596
5199.75, 0.343583
5204.98, 0.339879
5210.21, 0.336421
5215.45, 0.332346
5220.7, 0.328148
5225.96, 0.324876
5231.23, 0.322159
5236.52, 0.318455
5241.81, 0.314874
5247.12, 0.311849
5252.44, 0.309009
5257.76, 0.305922
5263.1, 0.303699
5268.45, 0.301291
5273.81, 0.298636
5279.18, 0.295611
5284.56, 0.293203
5289.95, 0.290363
5295.36, 0.288141
5300.77, 0.286844
5306.2, 0.285733
5311.63, 0.283942
5317.08, 0.281164
5322.54, 0.279250
5328.01, 0.277398
5333.49, 0.275484
5338.98, 0.273879
5344.49, 0.271965
5350.0, 0.270112
5355.53, 0.268569
5361.07, 0.267211
5366.62, 0.266346
5372.18, 0.264988
5377.75, 0.262518
5383.34, 0.260481
5388.93, 0.259061
5394.54, 0.257332
5400.16, 0.255665
5405.79, 0.253813
5411.44, 0.252208
5417.09, 0.250232
5422.76, 0.247639
5428.43, 0.246404
5434.12, 0.244243
5439.83, 0.242762
5445.54, 0.241156
5451.26, 0.239057
5457.0, 0.236588
5462.75, 0.234118
5468.52, 0.231772
5474.29, 0.230105
5480.08, 0.228623
5485.88, 0.227018
5491.69, 0.224301
5497.51, 0.222326
5503.35, 0.219671
5509.2, 0.217201
5515.06, 0.214732
5520.93, 0.212571
5526.82, 0.210225
5532.71, 0.207879
5538.63, 0.205779
5544.55, 0.203495
5550.49, 0.200964
5556.44, 0.199111
5562.4, 0.196951
5568.37, 0.194913
5574.36, 0.192320
5580.36, 0.190530
5586.37, 0.189357
5592.4, 0.188430
5598.44, 0.186455
5604.49, 0.184850
5610.56, 0.183862
5616.63, 0.183059
5622.73, 0.181948
5628.83, 0.180589
5634.95, 0.179478
5641.08, 0.178676
5647.23, 0.178429
5653.39, 0.177935
5659.56, 0.177317
5665.74, 0.177749
5671.94, 0.177749
5678.15, 0.177564
5684.38, 0.177935
5690.62, 0.178367
5696.87, 0.178676
5703.14, 0.178614
5709.42, 0.177935
5715.72, 0.178058
5722.03, 0.178614
5728.35, 0.179602
5734.69, 0.179725
5741.03, 0.179849
5747.4, 0.179416
5753.78, 0.179849
5760.17, 0.179416
5766.58, 0.178552
5773.0, 0.179293
5779.44, 0.180157
5785.88, 0.180713
5792.35, 0.180589
5798.83, 0.180096
5805.32, 0.180281
5811.83, 0.180096
5818.35, 0.178984
5824.89, 0.178552
5831.45, 0.180281
5838.01, 0.181330
5844.59, 0.182010
5851.19, 0.182689
5857.8, 0.182503
5864.43, 0.182010
5871.07, 0.182071
5877.73, 0.179787
5884.4, 0.180343
5891.09, 0.180528
5897.79, 0.180096
5904.5, 0.181577
5911.23, 0.181639
5917.98, 0.180836
5924.75, 0.179910
5931.53, 0.176823
5938.32, 0.175280
5945.13, 0.176082
5951.96, 0.175403
5958.8, 0.173736
5965.65, 0.171452
5972.53, 0.170155
5979.42, 0.169353
5986.32, 0.167439
5993.24, 0.166451
6000.18, 0.165834
6007.13, 0.164475
6014.1, 0.162623
6021.08, 0.161574
6028.09, 0.160586
6035.1, 0.159474
6042.14, 0.156017
6049.19, 0.152992
6056.25, 0.154720
6063.34, 0.155400
6070.44, 0.153609
6077.55, 0.153362
6084.69, 0.153609
6091.84, 0.153794
6099.0, 0.153424
6106.19, 0.151757
6113.39, 0.150399
6120.61, 0.152004
6127.84, 0.152745
6135.09, 0.151572
6142.36, 0.150831
6149.65, 0.150337
6156.95, 0.149534
6164.27, 0.149226
6171.61, 0.149164
6178.97, 0.147744
6186.34, 0.146632
6193.73, 0.147373
6201.14, 0.147250
6208.57, 0.147065
6216.01, 0.146139
6223.47, 0.145274
6230.95, 0.144719
6238.45, 0.143978
6245.97, 0.143545
6253.5, 0.143607
6261.06, 0.143360
6268.63, 0.143237
6276.21, 0.143175
6283.82, 0.143175
6291.45, 0.142928
6299.1, 0.143052
6306.76, 0.143052
6314.44, 0.143545
6322.14, 0.143484
6329.86, 0.143360
6337.6, 0.142434
6345.35, 0.142002
6353.13, 0.143978
6360.92, 0.144780
6368.74, 0.144410
6376.57, 0.145521
6384.43, 0.146139
6392.3, 0.146447
6400.19, 0.146262
6408.1, 0.144039
6416.03, 0.143731
6423.98, 0.146447
6431.95, 0.147620
6439.94, 0.148793
6447.95, 0.149164
6455.98, 0.149596
6464.03, 0.149843
6472.1, 0.149226
6480.19, 0.147867
6488.31, 0.146386
6496.44, 0.146077
6504.59, 0.148053
6512.76, 0.148732
6520.95, 0.148546
6529.16, 0.148793
6537.4, 0.148855
6545.65, 0.148176
6553.92, 0.147620
6562.22, 0.147126
6570.54, 0.145645
6578.88, 0.145830
6587.23, 0.145768
6595.61, 0.145583
6604.02, 0.145274
6612.44, 0.144410
6620.89, 0.143299
6629.35, 0.141076
6637.84, 0.139594
6646.35, 0.140767
6654.88, 0.141446
6663.44, 0.140644
6672.01, 0.139347
6680.61, 0.137865
6689.23, 0.137248
6697.88, 0.136384
6706.54, 0.135272
6715.23, 0.133791
6723.94, 0.133050
6732.67, 0.133050
6741.42, 0.132062
6750.2, 0.130704
6759.0, 0.129901
6767.82, 0.128357
6776.67, 0.126629
6785.54, 0.125085
6794.44, 0.124036
6803.35, 0.123912
6812.29, 0.123295
6821.26, 0.122060
6830.24, 0.121443
6839.25, 0.121010
6848.29, 0.119714
6857.35, 0.117368
6866.43, 0.116442
6875.54, 0.117553
6884.67, 0.117183
6893.82, 0.116503
6903.0, 0.115824
6912.2, 0.115454
6921.43, 0.114960
6930.69, 0.113972
6939.96, 0.112861
6949.27, 0.111626
6958.59, 0.109897
6967.95, 0.109465
6977.33, 0.109095
6986.73, 0.107613
6996.16, 0.106316
7005.61, 0.105143
7015.09, 0.103661
7024.6, 0.102180
7034.13, 0.100636
7043.69, 0.0980430
7053.27, 0.0972410
7062.88, 0.0967470
7072.52, 0.0953270
7082.18, 0.0934130
7091.87, 0.0918070
7101.58, 0.0904490
7111.32, 0.0887820
7121.09, 0.0864980
7130.88, 0.0845840
7140.71, 0.0829170
7150.56, 0.0806940
7160.43, 0.0787800
7170.33, 0.0773600
7180.27, 0.0757550
7190.23, 0.0742110
7200.21, 0.0722360
7210.23, 0.0703220
7220.27, 0.0686550
7230.34, 0.0664320
7240.44, 0.0643330
7250.56, 0.0630370
7260.72, 0.0615550
7270.9, 0.0593320
7281.12, 0.0572950
7291.36, 0.0561220
7301.63, 0.0548870
7311.93, 0.0529730
7322.25, 0.0511820
7332.61, 0.0498240
7343.0, 0.0483420
7353.41, 0.0470460
7363.86, 0.0459960
7374.33, 0.0445760
7384.83, 0.0424770
7395.37, 0.0406250
7405.93, 0.0390200
7416.53, 0.0374140
7427.15, 0.0364880
7437.81, 0.0356240
7448.5, 0.0344510
7459.22, 0.0328460
7469.96, 0.0311790
7480.74, 0.0295730
7491.55, 0.0285240
7502.39, 0.0273510
7513.27, 0.0260540
7524.17, 0.0252520
7535.11, 0.0238320
7546.08, 0.0222880
7557.08, 0.0211770
7568.11, 0.0200650
7579.17, 0.0187070
7590.27, 0.0177810
7601.4, 0.0171020
7612.56, 0.0160520
7623.76, 0.0153730
7634.98, 0.0146320
7646.24, 0.0140150
7657.54, 0.0132740
7668.87, 0.0124100
7680.23, 0.0113600
7691.62, 0.0106810
7703.05, 0.0104340
7714.51, 0.00963100
7726.01, 0.00919900
7737.54, 0.00889100
7749.11, 0.00827300
7760.71, 0.00777900
7772.35, 0.00734700
7784.02, 0.00691500
7795.72, 0.00654400
7807.46, 0.00716200
7819.23, 0.00722400
7831.04, 0.00679100
7842.89, 0.00629700
7854.77, 0.00654400
7866.69, 0.00697700
7878.65, 0.00716200
7890.64, 0.00716200
7902.67, 0.00753200
7914.74, 0.00747100
7926.84, 0.00740900
7938.98, 0.00765600
7951.16, 0.00815000
7963.37, 0.00827300
7975.62, 0.00895200
7987.91, 0.0100020
8000.24, 0.0109280
8012.6, 0.0117310
8025.01, 0.0125950
8037.45, 0.0134590
8049.93, 0.0150030
8062.45, 0.0166080
8075.01, 0.0180280
8087.61, 0.0196330
8100.24, 0.0221030
8112.91, 0.0248190
8125.63, 0.0273510
8138.39, 0.0301910
8151.18, 0.0336480
8164.02, 0.0366740
8176.9, 0.0403160
8189.81, 0.0443290
8202.77, 0.0484660
8215.77, 0.0533430
8228.82, 0.0585910
8241.9, 0.0626660
8255.02, 0.0671110
8268.19, 0.0720510
8281.39, 0.0766810
8294.65, 0.0802620
8307.94, 0.0842130
8321.28, 0.0876090
8334.66, 0.0903870
8348.08, 0.0927330
8361.54, 0.0952030
8375.05, 0.0969940
8388.6, 0.0989070
8402.2, 0.100451
8415.84, 0.101871
8429.52, 0.102982
8443.25, 0.103785
8457.02, 0.104526
8470.84, 0.105267
8484.7, 0.106193
8498.61, 0.107242
8512.57, 0.107736
8526.57, 0.108230
8540.62, 0.108909
8554.71, 0.109835
8568.85, 0.110082
8583.04, 0.110144
8597.27, 0.110329
8611.55, 0.110576
8625.88, 0.111070
8640.26, 0.111564
8654.68, 0.111626
8669.16, 0.111688
8683.68, 0.111502
8698.25, 0.111255
8712.87, 0.110206
8727.53, 0.109403
8742.25, 0.108662
8757.02, 0.108230
8771.83, 0.106934
8786.7, 0.105699
8801.62, 0.104896
8816.59, 0.103847
8831.61, 0.102056
8846.68, 0.100574
8861.8, 0.0992160
8876.97, 0.0982280
8892.2, 0.0974870
8907.48, 0.0965610
8922.81, 0.0961290
8938.2, 0.0955120
8953.63, 0.0951410
8969.13, 0.0953270
8984.67, 0.0943390
9000.27, 0.0947710
9015.92, 0.0955740
9031.63, 0.0951410
9047.39, 0.0950800
9063.21, 0.0958200
9079.08, 0.0965610
9095.01, 0.0968700
9111.0, 0.0973020
9127.04, 0.0981670
9143.13, 0.0983520
9159.28, 0.0992160
9175.49, 0.100019
9191.76, 0.100636
9208.09, 0.102118
9224.47, 0.103538
9240.92, 0.104896
9257.42, 0.106625
9273.98, 0.108415
9290.6, 0.109527
9307.28, 0.110823
9324.02, 0.112058
9340.82, 0.113046
9357.68, 0.115207
9374.6, 0.117121
9391.58, 0.119776
9408.62, 0.123480
9425.73, 0.126752
9442.9, 0.129469
9460.13, 0.131197
9477.42, 0.132185
9494.78, 0.132000
9512.2, 0.131444
9529.69, 0.131506
9547.24, 0.130271
9564.86, 0.128481
9582.54, 0.128543
9600.28, 0.128913
9618.1, 0.128110
9635.97, 0.127246
9653.92, 0.125394
9671.93, 0.124653
9690.01, 0.124468
9708.16, 0.124036
9726.37, 0.122924
9744.65, 0.122307
9763.0, 0.121690
9781.43, 0.121566
9799.92, 0.121319
9818.48, 0.120949
9837.1, 0.120763
9855.8, 0.121134
9874.58, 0.119899
9893.42, 0.118973
9912.34, 0.117923
9931.33, 0.117615
9950.39, 0.117121
9969.52, 0.116318
9988.74, 0.115330
10008.0, 0.115269
10027.4, 0.114651
10046.8, 0.112861
10066.3, 0.111132
10085.9, 0.110144
10105.6, 0.108971
10125.3, 0.107489
10145.1, 0.106501
10165.0, 0.106131
10185.0, 0.105143
10205.0, 0.104217
10225.2, 0.103291
10245.4, 0.102982
10265.7, 0.102427
10286.0, 0.102427
10306.5, 0.102241
10327.0, 0.101871
10347.6, 0.101192
10368.3, 0.100821
10389.1, 0.100389
10409.9, 0.100760
10430.9, 0.101007
10451.9, 0.101809
10473.0, 0.103106
10494.2, 0.103600
10515.5, 0.103538
10536.9, 0.103847
10558.4, 0.103970
10579.9, 0.104217
10601.5, 0.104341
10623.3, 0.105575
10645.1, 0.107366
10667.0, 0.108539
10689.0, 0.108662
10711.1, 0.109588
10733.2, 0.110700
10755.5, 0.111502
10777.9, 0.112490
10800.3, 0.113540
10822.9, 0.113293
10845.5, 0.113663
10868.2, 0.114219
10891.1, 0.115207
10914.0, 0.116071
10937.0, 0.116565
10960.2, 0.116997
10983.4, 0.117615
11006.7, 0.117738
11030.1, 0.118603
11053.6, 0.119220
11077.3, 0.119529
11101.0, 0.120023
11124.8, 0.120640
11148.7, 0.120949
11172.7, 0.121628
11196.9, 0.122677
11221.1, 0.123850
11245.4, 0.124653
11269.9, 0.125517
11294.4, 0.126197
11319.1, 0.127184
11343.9, 0.128049
11368.8, 0.129037
11393.7, 0.129469
11418.8, 0.130086
11444.0, 0.130518
11469.4, 0.132185
11494.8, 0.131938
11520.3, 0.131753
11546.0, 0.132803
11571.8, 0.133420
11597.7, 0.133667
11623.7, 0.134593
11649.8, 0.134346
11676.0, 0.134346
11702.4, 0.134655
11728.9, 0.135334
11755.5, 0.136075
11782.2, 0.137186
11809.0, 0.137742
11836.0, 0.138668
11863.0, 0.139100
11890.3, 0.139656
11917.6, 0.139965
11945.0, 0.141138
11972.6, 0.142619
12000.4, 0.144101
12028.2, 0.143978
12056.2, 0.143422
12084.3, 0.143052
12112.5, 0.143731
12140.9, 0.142805
12169.4, 0.141261
12198.0, 0.138236
12226.8, 0.135890
12255.7, 0.132494
12284.7, 0.128851
12313.9, 0.125147
12343.2, 0.120393
12372.7, 0.115516
12402.3, 0.112058
12432.0, 0.108601
12461.9, 0.106255
12491.9, 0.104094
12522.1, 0.102550
12552.4, 0.101933
12582.9, 0.102735
12613.5, 0.101933
12644.3, 0.101439
12675.2, 0.101562
12706.3, 0.103353
12737.5, 0.104155
12768.9, 0.104649
12800.4, 0.104279
12832.1, 0.104958
12863.9, 0.104588
12895.9, 0.105081
12928.1, 0.106810
12960.4, 0.107366
12992.9, 0.107181
13025.5, 0.108292
13058.3, 0.108168
13091.3, 0.109156
13124.4, 0.109588
13157.8, 0.110453
13191.2, 0.111441
13224.9, 0.112675
13258.7, 0.114096
13292.7, 0.116442
13326.9, 0.116812
13361.2, 0.117368
13395.7, 0.118541
13430.4, 0.119776
13465.3, 0.120516
13500.4, 0.120887
13535.7, 0.120640
13571.1, 0.121875
13606.7, 0.122739
13642.5, 0.123233
13678.5, 0.122739
13714.7, 0.123418
13751.1, 0.123665
13787.6, 0.123542
13824.4, 0.123727
13861.4, 0.125517
13898.5, 0.125579
13935.9, 0.126505
13973.5, 0.126876
14011.2, 0.127184
14049.2, 0.127370
14087.4, 0.128728
14125.8, 0.128481
14164.3, 0.129345
14203.2, 0.129716
14242.2, 0.129839
14281.4, 0.129037
14320.9, 0.130271
14360.5, 0.132494
14400.4, 0.133173
14440.5, 0.132741
14480.9, 0.134161
14521.4, 0.134531
14562.2, 0.135396
14603.3, 0.135211
14644.5, 0.134964
14686.0, 0.134778
14727.7, 0.135643
14769.7, 0.135828
14811.9, 0.136322
14854.3, 0.135272
14897.0, 0.135211
14939.9, 0.136445
14983.1, 0.138174
15026.5, 0.137186
15070.2, 0.137804
15114.2, 0.138298
15158.3, 0.138606
15202.8, 0.139409
15247.5, 0.141879
15292.5, 0.143299
15337.7, 0.145953
15383.2, 0.147744
15429.0, 0.149287
15475.1, 0.149843
15521.4, 0.150769
15568.0, 0.152374
15614.9, 0.153918
15662.1, 0.154967
15709.6, 0.156511
15757.3, 0.156881
15805.4, 0.158301
15853.7, 0.160462
15902.3, 0.161821
15951.2, 0.161944
16000.5, 0.165031
16050.0, 0.167995
16099.8, 0.169785
16150.0, 0.170155
16200.5, 0.173181
16251.3, 0.176515
16302.4, 0.181948
16353.8, 0.185776
16405.5, 0.187998
16457.6, 0.189418
16510.0, 0.192629
16562.8, 0.194358
16615.9, 0.196457
16669.3, 0.198865
16723.1, 0.200593
16777.2, 0.199914
16831.7, 0.200778
16886.5, 0.201705
16941.7, 0.202260
16997.2, 0.201705
17053.1, 0.203125
17109.4, 0.203433
17166.1, 0.203865
17223.1, 0.204359
17280.5, 0.206644
17338.3, 0.208805
17396.5, 0.211027
17455.1, 0.211398
17514.0, 0.214176
17573.4, 0.215781
17633.2, 0.217201
17693.4, 0.216707
17754.0, 0.217448
17815.0, 0.218621
17876.4, 0.219918
17938.3, 0.220720
18000.5, 0.222511
18063.3, 0.222264
18126.4, 0.224425
18190.0, 0.228253
18254.1, 0.232266
18318.6, 0.233871
18383.5, 0.235723
18449.0, 0.237699
18514.9, 0.242638
18581.2, 0.245910
18648.0, 0.247948
18715.4, 0.250047
18783.2, 0.255171
18851.5, 0.257332
18920.3, 0.259308
18989.6, 0.261778
19059.4, 0.266223
19129.7, 0.269186
19200.6, 0.271162
19272.0, 0.271903
19343.9, 0.273261
19416.3, 0.271594
19489.3, 0.273138
19562.8, 0.273323
19637.0, 0.275052
19711.6, 0.276472
19786.8, 0.277274
19862.6, 0.278015
19939.0, 0.281349
20016.0, 0.284621
20093.6, 0.290363
20171.8, 0.294006
20250.6, 0.298389
20330.0, 0.302156
20410.0, 0.307589
20490.7, 0.310676
20572.0, 0.315924
20654.0, 0.318887
20736.6, 0.320925
20819.9, 0.322715
20903.8, 0.329383
20988.5, 0.333273
21073.8, 0.334878
21159.8, 0.336174
21246.5, 0.341978
21334.0, 0.342533
21422.1, 0.342040
21511.0, 0.345250
21600.7, 0.349819
21691.0, 0.350498
21782.1, 0.354017
21874.0, 0.356672
21966.7, 0.359512
22060.2, 0.360623
22154.5, 0.361796
22249.6, 0.361611
22345.5, 0.364760
22442.2, 0.366859
22539.8, 0.369267
22638.2, 0.370193
22737.5, 0.372416
22837.7, 0.373959
22938.7, 0.376305
23040.7, 0.375750
23143.5, 0.376429
23247.3, 0.375503
23352.1, 0.377417
23457.7, 0.379886
23564.4, 0.383282
23672.0, 0.383899
23780.5, 0.388777
23890.1, 0.390012
24000.7, 0.392852
24112.3, 0.394951
24225.0, 0.396186
24338.7, 0.395630
24453.5, 0.398408
24569.4, 0.399087
24686.4, 0.401866
24804.5, 0.402298
24923.8, 0.404582
