Database of Origin, USGS Spectral Database
Sample Description, See USGS database for additional info
Date Added,2016-08-03 21:26:04.505074

Data ID,USGS_coo03          
Sample ID, cookeite_car1.6131
Mineral Name, cookeite
Material Class,Phyllosilicate

Wavelength
248.1, 0.256553
253.6, 0.260234
258.6, 0.264962
263.6, 0.263890
268.6, 0.272453
273.1, 0.279183
277.1, 0.287058
281.1, 0.299042
285.1, 0.304905
289.1, 0.316061
293.1, 0.323286
297.1, 0.330857
301.1, 0.342479
305.1, 0.357521
309.1, 0.378176
313.1, 0.368226
317.1, 0.382129
321.1, 0.376350
325.1, 0.380666
329.1, 0.381328
333.1, 0.385994
337.1, 0.400881
341.1, 0.390667
345.1, 0.389857
349.1, 0.405139
353.1, 0.399075
357.1, 0.399221
360.6, 0.404051
363.6, 0.405426
366.6, 0.408149
369.6, 0.415250
372.6, 0.417711
375.6, 0.420386
378.6, 0.424214
381.1, 0.433664
383.1, 0.432484
385.1, 0.437930
387.1, 0.439270
389.1, 0.449817
391.1, 0.450498
393.1, 0.452070
395.1, 0.457197
397.1, 0.464567
399.1, 0.466013
401.1, 0.468719
403.1, 0.473265
405.1, 0.477967
407.1, 0.479912
409.1, 0.485140
411.1, 0.488658
412.8, 0.495838
415.8, 0.498744
418.8, 0.505113
421.8, 0.507268
424.8, 0.511373
427.8, 0.518057
430.8, 0.520749
433.8, 0.532282
436.8, 0.538195
439.8, 0.546491
448.8, 0.564933
451.3, 0.570149
453.3, 0.568894
455.3, 0.571707
457.3, 0.573379
459.3, 0.577633
461.3, 0.573726
463.3, 0.579011
465.3, 0.576774
467.3, 0.581547
469.3, 0.576882
471.3, 0.581464
473.3, 0.584442
475.3, 0.583901
477.3, 0.585772
479.3, 0.589134
481.3, 0.590753
483.3, 0.594123
485.3, 0.593813
487.3, 0.594987
489.3, 0.597649
491.3, 0.599612
493.3, 0.601921
495.3, 0.605798
497.3, 0.610322
499.3, 0.611792
501.3, 0.614208
503.3, 0.617222
505.3, 0.618229
507.3, 0.623139
509.3, 0.621303
511.3, 0.627277
513.3, 0.632526
515.3, 0.634126
517.3, 0.636434
519.3, 0.641630
521.3, 0.640987
523.3, 0.646372
525.3, 0.648658
527.3, 0.650374
529.3, 0.647399
531.3, 0.654173
533.3, 0.657303
535.3, 0.657483
537.3, 0.663446
539.3, 0.658232
541.3, 0.664438
543.3, 0.665880
545.3, 0.667653
547.3, 0.671796
549.3, 0.672577
551.3, 0.675760
553.3, 0.677524
555.3, 0.674764
557.3, 0.678536
559.3, 0.677749
561.3, 0.682837
563.3, 0.678380
565.3, 0.681065
567.3, 0.679190
569.3, 0.682802
571.3, 0.683633
573.3, 0.687208
575.3, 0.688933
577.3, 0.685739
579.3, 0.686606
581.3, 0.687268
583.3, 0.690813
585.3, 0.689605
587.3, 0.687721
589.3, 0.691399
591.3, 0.692595
593.3, 0.692047
595.3, 0.690980
597.3, 0.689794
599.3, 0.690952
601.1, 0.694643
602.7, 0.691860
604.3, 0.692258
605.9, 0.693157
607.5, 0.693239
609.1, 0.693711
610.7, 0.695207
612.3, 0.695807
613.9, 0.695936
615.5, 0.697176
617.1, 0.693381
618.7, 0.696831
620.3, 0.695423
621.9, 0.697730
623.5, 0.700337
625.1, 0.700296
626.7, 0.698615
628.3, 0.697555
629.9, 0.700885
631.7, 0.700803
633.7, 0.697082
635.7, 0.702505
637.7, 0.701470
639.7, 0.701470
641.7, 0.701289
643.7, 0.702134
645.7, 0.701663
647.7, 0.701467
649.7, 0.701612
651.7, 0.707156
653.7, 0.708261
655.7, 0.705973
657.7, 0.707467
659.7, 0.707467
661.7, 0.706019
663.7, 0.706445
665.7, 0.714433
667.7, 0.707994
670.2, 0.707797
673.2, 0.710508
676.2, 0.707277
679.2, 0.713539
682.2, 0.711592
685.2, 0.712004
688.2, 0.712734
691.2, 0.715884
694.2, 0.712550
697.2, 0.716227
700.2, 0.714419
706.0, 0.712696
708.0, 0.719942
714.0, 0.718924
716.0, 0.720242
718.0, 0.720747
720.0, 0.723436
722.0, 0.721881
724.0, 0.725005
726.0, 0.724281
728.0, 0.722091
730.0, 0.723896
732.0, 0.723178
734.0, 0.724473
736.0, 0.722475
738.0, 0.722988
740.0, 0.725646
742.0, 0.722838
744.0, 0.730418
746.0, 0.721894
748.0, 0.725729
750.5, 0.724819
753.5, 0.727441
756.5, 0.728493
759.5, 0.725448
762.5, 0.727992
765.5, 0.724746
768.5, 0.728933
771.5, 0.723752
774.5, 0.724521
777.5, 0.727867
781.0, 0.728281
785.0, 0.726565
789.0, 0.726378
793.0, 0.729141
797.0, 0.729053
801.5, 0.727527
806.5, 0.729502
811.5, 0.728153
816.5, 0.727910
822.0, 0.726524
828.0, 0.727630
835.0, 0.726648
843.0, 0.726227
851.0, 0.719118
859.0, 0.716354
871.0, 0.724193
883.0, 0.720479
894.0, 0.722264
904.0, 0.721915
914.0, 0.716243
924.0, 0.721661
933.0, 0.714124
941.0, 0.715535
949.0, 0.712178
957.0, 0.711318
964.0, 0.720808
970.0, 0.714317
976.0, 0.718890
982.0, 0.719349
988.0, 0.720671
994.0, 0.719755
1000.0, 0.718014
1006.0, 0.721535
1012.0, 0.719702
1018.0, 0.723770
1023.5, 0.728456
1028.5, 0.717915
1033.5, 0.722454
1038.5, 0.717457
1043.5, 0.726154
1048.5, 0.720481
1053.5, 0.726786
1058.5, 0.717987
1063.5, 0.725812
1068.5, 0.725626
1073.5, 0.722552
1078.5, 0.724048
1083.5, 0.721250
1088.5, 0.723490
1093.5, 0.729192
1098.5, 0.724371
1103.5, 0.727404
1108.5, 0.728207
1113.5, 0.731694
1118.5, 0.729599
1123.5, 0.728857
1128.5, 0.730164
1133.5, 0.731156
1138.5, 0.733504
1143.5, 0.735974
1148.5, 0.733843
1153.5, 0.737197
1158.5, 0.731091
1163.5, 0.729234
1168.5, 0.732139
1173.5, 0.730747
1178.5, 0.735882
1183.5, 0.733375
1188.5, 0.736391
1193.5, 0.729378
1198.5, 0.732497
1203.5, 0.730653
1208.5, 0.735289
1213.5, 0.734135
1218.5, 0.732483
1223.5, 0.730441
1228.5, 0.738116
1233.5, 0.733459
1238.5, 0.733858
1243.5, 0.735542
1248.5, 0.729264
1253.5, 0.733475
1258.5, 0.728592
1263.5, 0.731713
1268.5, 0.728986
1273.5, 0.729879
1278.5, 0.727651
1283.5, 0.732613
1288.5, 0.728498
1293.5, 0.726349
1298.5, 0.726105
1303.5, 0.723928
1308.5, 0.726133
1313.5, 0.716483
1318.5, 0.718087
1323.5, 0.720249
1328.5, 0.720008
1333.5, 0.716273
1338.5, 0.720520
1343.5, 0.718766
1348.5, 0.715565
1353.5, 0.714903
1358.5, 0.708090
1363.5, 0.711794
1368.5, 0.705535
1373.5, 0.686210
1378.5, 0.660945
1383.5, 0.622441
1388.5, 0.586171
1393.5, 0.550439
1398.5, 0.529759
1403.5, 0.526351
1408.5, 0.556673
1413.5, 0.587044
1418.5, 0.616992
1423.5, 0.617620
1428.5, 0.613310
1433.5, 0.621895
1438.5, 0.627211
1443.5, 0.639167
1448.5, 0.638500
1453.5, 0.644529
1458.5, 0.640831
1463.5, 0.632616
1468.5, 0.641228
1473.5, 0.636148
1478.5, 0.644769
1483.5, 0.647664
1488.5, 0.649020
1493.5, 0.660715
1498.5, 0.662159
1503.5, 0.668200
1508.5, 0.672484
1513.5, 0.672695
1518.5, 0.674385
1523.5, 0.673670
1528.5, 0.668874
1534.0, 0.668076
1540.0, 0.664749
1546.0, 0.663697
1552.0, 0.661947
1558.0, 0.649569
1564.0, 0.649152
1570.5, 0.644048
1577.5, 0.640695
1584.5, 0.640370
1591.5, 0.639563
1598.5, 0.638566
1605.5, 0.645010
1612.5, 0.647066
1619.5, 0.653482
1626.5, 0.661892
1633.5, 0.661634
1640.5, 0.668442
1647.5, 0.676555
1654.5, 0.676612
1661.5, 0.683098
1668.5, 0.684375
1676.0, 0.688495
1684.0, 0.697382
1692.0, 0.693721
1700.0, 0.702315
1708.0, 0.708963
1716.0, 0.712053
1724.0, 0.707764
1732.0, 0.706212
1740.0, 0.712182
1748.0, 0.712870
1756.0, 0.712105
1764.0, 0.709458
1772.0, 0.703582
1780.0, 0.703674
1788.0, 0.697584
1796.0, 0.695917
1805.0, 0.679577
1815.0, 0.675295
1825.0, 0.667241
1835.0, 0.662484
1845.0, 0.667064
1855.0, 0.684084
1865.0, 0.689409
1875.0, 0.686309
1885.0, 0.681601
1895.0, 0.659939
1905.0, 0.642210
1915.0, 0.643887
1925.0, 0.654766
1935.0, 0.650764
1945.0, 0.646746
1955.0, 0.649499
1965.0, 0.638209
1975.0, 0.630826
1985.0, 0.620378
1995.0, 0.598743
2005.0, 0.595981
2015.0, 0.579479
2025.0, 0.591861
2035.0, 0.593304
2045.0, 0.603325
2055.0, 0.606438
2065.0, 0.614517
2075.0, 0.618327
2085.0, 0.610681
2095.0, 0.610585
2105.0, 0.620773
2115.0, 0.610025
2125.0, 0.613444
2135.0, 0.599881
2145.0, 0.571508
2155.0, 0.508113
2165.0, 0.437530
2175.0, 0.399893
2185.0, 0.390433
2195.0, 0.390739
2205.0, 0.389913
2215.0, 0.380335
2225.0, 0.412721
2235.0, 0.431555
2245.0, 0.435020
2255.0, 0.441827
2265.0, 0.449564
2275.0, 0.464645
2285.0, 0.473884
2295.0, 0.459247
2305.0, 0.431246
2315.0, 0.414159
2325.0, 0.400813
2335.0, 0.376174
2345.0, 0.348453
2355.0, 0.325010
2365.0, 0.326730
2375.0, 0.340706
2386.0, 0.360541
2400.0, 0.368789
2418.0, 0.376791
2440.0, 0.361378
2466.0, 0.359691
2496.0, 0.352623
2528.0, 0.347366
2560.0, 0.333233
2592.0, 0.296996
2624.0, 0.292740
2656.0, 0.273994
2688.0, 0.170987
