Database of Origin, USGS Spectral Database
Sample Description, See USGS database for additional info
Date Added,2016-08-10 05:30:01.091795

Data ID,USGS_pyr12          
Sample ID, pyrophyllite_pys1a.18801
Mineral Name, pyrophyllite
Material Class,Phyllosilicate

Wavelength
1342.35, 0.655629
1342.7, 0.655752
1343.05, 0.655445
1343.39, 0.655690
1343.74, 0.655997
1344.09, 0.656365
1344.44, 0.656672
1344.79, 0.656672
1345.14, 0.656611
1345.48, 0.656242
1345.83, 0.656181
1346.18, 0.655445
1346.53, 0.654647
1346.88, 0.654893
1347.23, 0.654832
1347.58, 0.655138
1347.93, 0.655445
1348.28, 0.655506
1348.64, 0.655936
1348.99, 0.655813
1349.34, 0.655936
1349.69, 0.656672
1350.04, 0.657040
1350.39, 0.657101
1350.74, 0.656856
1351.1, 0.656611
1351.45, 0.656733
1351.8, 0.656549
1352.15, 0.656058
1352.51, 0.656611
1352.86, 0.656058
1353.21, 0.655629
1353.56, 0.655629
1353.92, 0.655752
1354.27, 0.655506
1354.63, 0.654954
1354.98, 0.654954
1355.33, 0.654279
1355.69, 0.653666
1356.04, 0.654647
1356.4, 0.653911
1356.75, 0.652378
1357.11, 0.652500
1357.46, 0.652378
1357.82, 0.651151
1358.18, 0.650782
1358.53, 0.650353
1358.89, 0.648390
1359.24, 0.645813
1359.6, 0.644464
1359.96, 0.643114
1360.31, 0.640476
1360.67, 0.637715
1361.03, 0.636304
1361.39, 0.635936
1361.74, 0.636427
1362.1, 0.636243
1362.46, 0.637531
1362.82, 0.640353
1363.18, 0.640783
1363.53, 0.639188
1363.89, 0.638206
1364.25, 0.637225
1364.61, 0.637715
1364.97, 0.638636
1365.33, 0.638881
1365.69, 0.639863
1366.05, 0.640169
1366.41, 0.640599
1366.77, 0.640537
1367.13, 0.640415
1367.49, 0.640231
1367.85, 0.640537
1368.21, 0.640047
1368.57, 0.640047
1368.93, 0.640599
1369.3, 0.640721
1369.66, 0.640292
1370.02, 0.640292
1370.38, 0.639801
1370.74, 0.638145
1371.11, 0.638083
1371.47, 0.638329
1371.83, 0.637715
1372.19, 0.636979
1372.56, 0.637041
1372.92, 0.636979
1373.29, 0.636856
1373.65, 0.635998
1374.01, 0.634955
1374.38, 0.634218
1374.74, 0.633666
1375.11, 0.633544
1375.47, 0.633482
1375.84, 0.632807
1376.2, 0.632255
1376.57, 0.630722
1376.93, 0.629679
1377.3, 0.629433
1377.67, 0.628881
1378.03, 0.627777
1378.4, 0.626243
1378.76, 0.625384
1379.13, 0.624955
1379.5, 0.624893
1379.87, 0.623912
1380.23, 0.620906
1380.6, 0.619004
1380.97, 0.619188
1381.34, 0.619004
1381.7, 0.618145
1382.07, 0.615569
1382.44, 0.612378
1382.81, 0.611704
1383.18, 0.611704
1383.55, 0.610293
1383.92, 0.607777
1384.29, 0.605262
1384.66, 0.602195
1385.03, 0.599557
1385.4, 0.597225
1385.77, 0.593483
1386.14, 0.588882
1386.51, 0.584158
1386.88, 0.579557
1387.25, 0.573729
1387.62, 0.565999
1387.99, 0.558024
1388.36, 0.550049
1388.74, 0.539865
1389.11, 0.527534
1389.48, 0.513056
1389.85, 0.496737
1390.23, 0.477964
1390.6, 0.455327
1390.97, 0.429683
1391.35, 0.400420
1391.72, 0.368028
1392.09, 0.334778
1392.47, 0.303919
1392.84, 0.279012
1393.21, 0.262203
1393.59, 0.256006
1393.96, 0.261528
1394.34, 0.277049
1394.71, 0.299625
1395.09, 0.326373
1395.46, 0.354286
1395.84, 0.381034
1396.22, 0.405757
1396.59, 0.428824
1396.97, 0.449499
1397.35, 0.467228
1397.72, 0.482259
1398.1, 0.495081
1398.48, 0.506921
1398.85, 0.517350
1399.23, 0.526184
1399.61, 0.534405
1399.99, 0.541583
1400.37, 0.547043
1400.74, 0.552809
1401.12, 0.558576
1401.5, 0.563116
1401.88, 0.566735
1402.26, 0.569005
1402.64, 0.570416
1403.02, 0.571521
1403.4, 0.571950
1403.78, 0.571827
1404.16, 0.571643
1404.54, 0.570171
1404.92, 0.569435
1405.3, 0.570600
1405.68, 0.571459
1406.06, 0.572502
1406.44, 0.573974
1406.83, 0.575201
1407.21, 0.576735
1407.59, 0.579005
1407.97, 0.580477
1408.35, 0.581643
1408.74, 0.581950
1409.12, 0.581950
1409.5, 0.583054
1409.89, 0.584342
1410.27, 0.584649
1410.65, 0.585447
1411.04, 0.586244
1411.42, 0.587226
1411.81, 0.588269
1412.19, 0.589127
1412.58, 0.589986
1412.96, 0.590416
1413.35, 0.590416
1413.73, 0.590600
1414.12, 0.590845
1414.5, 0.591397
1414.89, 0.591888
1415.28, 0.592624
1415.66, 0.593115
1416.05, 0.593729
1416.44, 0.593483
1416.82, 0.593299
1417.21, 0.593667
1417.6, 0.593851
1417.98, 0.593974
1418.37, 0.593974
1418.76, 0.593054
1419.15, 0.592808
1419.54, 0.593238
1419.93, 0.592992
1420.32, 0.592808
1420.71, 0.592686
1421.09, 0.592502
1421.48, 0.592134
1421.88, 0.591827
1422.27, 0.591213
1422.66, 0.589864
1423.05, 0.588943
1423.44, 0.588575
1423.83, 0.588453
1424.22, 0.588330
1424.61, 0.588023
1425.0, 0.587103
1425.39, 0.586735
1425.78, 0.586367
1426.18, 0.585937
1426.57, 0.585324
1426.96, 0.585140
1427.36, 0.584649
1427.75, 0.584220
1428.14, 0.583852
1428.54, 0.583238
1428.93, 0.583054
1429.32, 0.583115
1429.72, 0.583115
1430.11, 0.582870
1430.51, 0.582379
1430.9, 0.581827
1431.3, 0.582072
1431.69, 0.582134
1432.09, 0.582441
1432.48, 0.582747
1432.88, 0.583361
1433.28, 0.583177
1433.67, 0.582931
1434.07, 0.583177
1434.46, 0.582931
1434.86, 0.582870
1435.26, 0.582993
1435.66, 0.583361
1436.05, 0.583422
1436.45, 0.583115
1436.85, 0.583054
1437.25, 0.582625
1437.65, 0.582195
1438.05, 0.582625
1438.44, 0.583054
1438.84, 0.582931
1439.24, 0.582931
1439.64, 0.582870
1440.04, 0.582625
1440.44, 0.582747
1440.84, 0.582870
1441.24, 0.582747
1441.65, 0.582441
1442.05, 0.582502
1442.45, 0.582318
1442.85, 0.582072
1443.25, 0.581766
1443.65, 0.581336
1444.05, 0.581336
1444.46, 0.581520
1444.86, 0.581091
1445.26, 0.580723
1445.67, 0.581091
1446.07, 0.581398
1446.47, 0.581152
1446.88, 0.581275
1447.28, 0.581459
1447.68, 0.581643
1448.09, 0.581459
1448.49, 0.581152
1448.9, 0.580845
1449.3, 0.580845
1449.71, 0.580784
1450.11, 0.580600
1450.52, 0.580232
1450.93, 0.579680
1451.33, 0.579496
1451.74, 0.579066
1452.14, 0.578698
1452.55, 0.578269
1452.96, 0.578085
1453.36, 0.578023
1453.77, 0.577594
1454.18, 0.577287
1454.59, 0.576981
1455.0, 0.576919
1455.41, 0.575999
1455.81, 0.575386
1456.22, 0.575263
1456.63, 0.575876
1457.04, 0.575754
1457.45, 0.575447
1457.86, 0.575140
1458.27, 0.575140
1458.68, 0.574895
1459.09, 0.574772
1459.5, 0.574833
1459.91, 0.574711
1460.32, 0.574772
1460.74, 0.574772
1461.15, 0.574711
1461.56, 0.574465
1461.97, 0.574588
1462.39, 0.574404
1462.8, 0.574343
1463.21, 0.574281
1463.62, 0.574036
1464.04, 0.573974
1464.45, 0.573790
1464.86, 0.573974
1465.28, 0.573852
1465.69, 0.573913
1466.11, 0.573913
1466.52, 0.574036
1466.94, 0.574036
1467.35, 0.574281
1467.77, 0.574343
1468.18, 0.574404
1468.6, 0.573974
1469.02, 0.573913
1469.43, 0.573913
1469.85, 0.574220
1470.27, 0.573974
1470.68, 0.573852
1471.1, 0.573852
1471.52, 0.573974
1471.94, 0.574159
1472.35, 0.574220
1472.77, 0.573913
1473.19, 0.573790
1473.61, 0.573606
1474.03, 0.573729
1474.45, 0.574159
1474.87, 0.574527
1475.29, 0.574097
1475.71, 0.573668
1476.13, 0.573668
1476.55, 0.573913
1476.97, 0.574036
1477.39, 0.574097
1477.81, 0.574097
1478.23, 0.573974
1478.65, 0.573729
1479.07, 0.573668
1479.5, 0.573790
1479.92, 0.573974
1480.34, 0.574281
1480.76, 0.574588
1481.19, 0.574281
1481.61, 0.574036
1482.03, 0.574281
1482.46, 0.574527
1482.88, 0.574711
1483.31, 0.574465
1483.73, 0.574281
1484.16, 0.574404
1484.58, 0.574465
1485.01, 0.574404
1485.43, 0.574527
1485.86, 0.575201
1486.28, 0.574956
1486.71, 0.574527
1487.14, 0.574527
1487.56, 0.574711
1487.99, 0.574956
1488.42, 0.575201
1488.84, 0.575386
1489.27, 0.575386
1489.7, 0.575079
1490.13, 0.575263
1490.56, 0.575324
1490.98, 0.575079
1491.41, 0.575140
1491.84, 0.575017
1492.27, 0.575017
1492.7, 0.575570
1493.13, 0.575692
1493.56, 0.575570
1493.99, 0.575570
1494.42, 0.575754
1494.85, 0.576060
1495.29, 0.576060
1495.72, 0.576183
1496.15, 0.576183
1496.58, 0.575938
1497.01, 0.576122
1497.44, 0.576183
1497.88, 0.576367
1498.31, 0.576306
1498.74, 0.576122
1499.18, 0.576183
1499.61, 0.576183
1500.04, 0.576183
1500.48, 0.576367
1500.91, 0.576306
1501.35, 0.576122
1501.78, 0.576244
1502.22, 0.576367
1502.65, 0.576306
1503.09, 0.576490
1503.53, 0.576612
1503.96, 0.576735
1504.4, 0.576981
1504.83, 0.577103
1505.27, 0.577042
1505.71, 0.577042
1506.15, 0.577042
1506.58, 0.577165
1507.02, 0.576919
1507.46, 0.576735
1507.9, 0.576858
1508.34, 0.577165
1508.78, 0.577226
1509.21, 0.577103
1509.66, 0.577287
1510.09, 0.577410
1510.53, 0.577226
1510.97, 0.577103
1511.42, 0.576919
1511.86, 0.577165
1512.3, 0.577349
1512.74, 0.577349
1513.18, 0.577410
1513.62, 0.577594
1514.06, 0.577717
1514.51, 0.577410
1514.95, 0.577349
1515.39, 0.577778
1515.83, 0.577901
1516.28, 0.577717
1516.72, 0.577717
1517.16, 0.578023
1517.61, 0.578085
1518.05, 0.578023
1518.5, 0.578023
1518.94, 0.578085
1519.39, 0.578146
1519.83, 0.578453
1520.28, 0.578514
1520.73, 0.578330
1521.17, 0.578330
1521.62, 0.578637
1522.07, 0.578514
1522.51, 0.578514
1522.96, 0.578208
1523.41, 0.578269
1523.85, 0.578269
1524.3, 0.578453
1524.75, 0.578698
1525.2, 0.578821
1525.65, 0.578821
1526.1, 0.579005
1526.55, 0.579250
1527.0, 0.579434
1527.45, 0.579619
1527.9, 0.579803
1528.35, 0.579619
1528.8, 0.579496
1529.25, 0.579496
1529.7, 0.579557
1530.15, 0.579741
1530.6, 0.580048
1531.05, 0.580171
1531.51, 0.580293
1531.96, 0.580232
1532.41, 0.580600
1532.87, 0.580723
1533.32, 0.580907
1533.77, 0.580968
1534.23, 0.580968
1534.68, 0.580968
1535.14, 0.581275
1535.59, 0.581459
1536.05, 0.581459
1536.5, 0.581704
1536.96, 0.581827
1537.41, 0.581827
1537.87, 0.582195
1538.32, 0.582686
1538.78, 0.582809
1539.24, 0.582931
1539.7, 0.583238
1540.15, 0.583361
1540.61, 0.583790
1541.07, 0.583729
1541.53, 0.583545
1541.98, 0.583668
1542.44, 0.583913
1542.9, 0.584036
1543.36, 0.584158
1543.82, 0.583974
1544.28, 0.584097
1544.74, 0.584097
1545.2, 0.584220
1545.66, 0.584588
1546.12, 0.584649
1546.59, 0.584894
1547.05, 0.585201
1547.51, 0.584956
1547.97, 0.585263
1548.43, 0.585385
1548.9, 0.585508
1549.36, 0.585324
1549.82, 0.585324
1550.29, 0.585692
1550.75, 0.586060
1551.21, 0.586244
1551.68, 0.586244
1552.14, 0.586244
1552.61, 0.586612
1553.07, 0.586796
1553.54, 0.586735
1554.0, 0.586735
1554.47, 0.587226
1554.93, 0.587471
1555.4, 0.588023
1555.87, 0.588146
1556.34, 0.588146
1556.8, 0.588207
1557.27, 0.588637
1557.74, 0.588882
1558.21, 0.588882
1558.68, 0.589189
1559.14, 0.589373
1559.61, 0.589434
1560.08, 0.589496
1560.55, 0.589618
1561.02, 0.589802
1561.49, 0.590109
1561.96, 0.590048
1562.43, 0.589986
1562.9, 0.590232
1563.38, 0.590355
1563.85, 0.590355
1564.32, 0.590661
1564.79, 0.590907
1565.26, 0.591152
1565.74, 0.591091
1566.21, 0.591275
1566.68, 0.591336
1567.16, 0.591520
1567.63, 0.591643
1568.1, 0.591765
1568.58, 0.592072
1569.05, 0.592072
1569.53, 0.592318
1570.0, 0.592624
1570.48, 0.592686
1570.96, 0.592808
1571.43, 0.592870
1571.91, 0.592624
1572.39, 0.592808
1572.86, 0.593115
1573.34, 0.592931
1573.82, 0.592686
1574.3, 0.593054
1574.77, 0.593176
1575.25, 0.593299
1575.73, 0.593667
1576.21, 0.593790
1576.69, 0.593851
1577.17, 0.594342
1577.65, 0.594281
1578.13, 0.594465
1578.61, 0.594465
1579.09, 0.594649
1579.57, 0.594833
1580.05, 0.594956
1580.54, 0.595140
1581.02, 0.595324
1581.5, 0.595201
1581.98, 0.595078
1582.47, 0.595324
1582.95, 0.595814
1583.43, 0.595753
1583.92, 0.595814
1584.4, 0.595753
1584.88, 0.595876
1585.37, 0.595814
1585.85, 0.596121
1586.34, 0.596183
1586.82, 0.596121
1587.31, 0.596489
1587.8, 0.596551
1588.28, 0.596489
1588.77, 0.596796
1589.26, 0.596919
1589.74, 0.596735
1590.23, 0.596980
1590.72, 0.597532
1591.21, 0.597778
1591.7, 0.597900
1592.19, 0.597839
1592.67, 0.597839
1593.16, 0.598084
1593.65, 0.598084
1594.14, 0.598268
1594.63, 0.598452
1595.12, 0.598391
1595.61, 0.599005
1596.11, 0.599066
1596.6, 0.598698
1597.09, 0.598821
1597.58, 0.599189
1598.08, 0.599679
1598.57, 0.599863
1599.06, 0.599618
1599.55, 0.599618
1600.05, 0.599863
1600.54, 0.600170
1601.04, 0.600232
1601.53, 0.600354
1602.03, 0.600538
1602.52, 0.600845
1603.02, 0.600845
1603.51, 0.600906
1604.01, 0.601090
1604.5, 0.601213
1605.0, 0.601704
1605.5, 0.601704
1606.0, 0.601520
1606.49, 0.601520
1606.99, 0.601949
1607.49, 0.602624
1607.99, 0.602931
1608.49, 0.603176
1608.99, 0.603238
1609.49, 0.603054
1609.99, 0.603054
1610.49, 0.603299
1610.99, 0.603728
1611.49, 0.603974
1611.99, 0.604096
1612.49, 0.604465
1612.99, 0.604710
1613.49, 0.604587
1614.0, 0.604587
1614.5, 0.604955
1615.0, 0.605201
1615.51, 0.605507
1616.01, 0.605507
1616.51, 0.605692
1617.02, 0.605937
1617.52, 0.605998
1618.03, 0.605937
1618.53, 0.606244
1619.04, 0.606673
1619.54, 0.606919
1620.05, 0.606796
1620.55, 0.606857
1621.06, 0.606919
1621.57, 0.607348
1622.08, 0.607900
1622.58, 0.607777
1623.09, 0.607655
1623.6, 0.607900
1624.11, 0.608207
1624.62, 0.608145
1625.13, 0.608330
1625.64, 0.608698
1626.15, 0.608882
1626.66, 0.608882
1627.17, 0.608882
1627.68, 0.609004
1628.19, 0.609188
1628.7, 0.609434
1629.21, 0.609556
1629.72, 0.609741
1630.24, 0.609618
1630.75, 0.609679
1631.26, 0.609986
1631.78, 0.610231
1632.29, 0.610231
1632.8, 0.610415
1633.32, 0.610293
1633.83, 0.610354
1634.35, 0.610783
1634.86, 0.611152
1635.38, 0.611090
1635.9, 0.610906
1636.41, 0.611029
1636.93, 0.611336
1637.45, 0.611336
1637.96, 0.611090
1638.48, 0.611274
1639.0, 0.611704
1639.52, 0.611888
1640.04, 0.612010
1640.56, 0.612194
1641.08, 0.612133
1641.59, 0.612072
1642.11, 0.612133
1642.63, 0.612317
1643.16, 0.612501
1643.68, 0.612685
1644.2, 0.612747
1644.72, 0.612747
1645.24, 0.613053
1645.76, 0.613237
1646.29, 0.613237
1646.81, 0.613544
1647.33, 0.613728
1647.86, 0.613544
1648.38, 0.613421
1648.9, 0.613360
1649.43, 0.613421
1649.95, 0.613421
1650.48, 0.613483
1651.0, 0.613789
1651.53, 0.614035
1652.06, 0.613851
1652.58, 0.613851
1653.11, 0.613851
1653.64, 0.613851
1654.17, 0.614096
1654.69, 0.614096
1655.22, 0.614587
1655.75, 0.614771
1656.28, 0.614771
1656.81, 0.614771
1657.34, 0.614648
1657.87, 0.614832
1658.4, 0.615201
1658.93, 0.615507
1659.46, 0.615446
1659.99, 0.615507
1660.52, 0.615630
1661.05, 0.615937
1661.59, 0.615937
1662.12, 0.615998
1662.65, 0.616305
1663.19, 0.616489
1663.72, 0.616550
1664.26, 0.616550
1664.79, 0.616550
1665.32, 0.616673
1665.86, 0.616980
1666.39, 0.617286
1666.93, 0.617470
1667.47, 0.617593
1668.0, 0.617532
1668.54, 0.617593
1669.08, 0.618023
1669.61, 0.618145
1670.15, 0.617961
1670.69, 0.618023
1671.23, 0.618145
1671.77, 0.618207
1672.31, 0.618513
1672.85, 0.618943
1673.39, 0.619065
1673.93, 0.619127
1674.47, 0.619250
1675.01, 0.619372
1675.55, 0.619556
1676.09, 0.619495
1676.64, 0.619679
1677.18, 0.619679
1677.72, 0.619802
1678.26, 0.620047
1678.81, 0.620231
1679.35, 0.620415
1679.89, 0.620292
1680.44, 0.620415
1680.98, 0.620292
1681.53, 0.620476
1682.07, 0.620599
1682.62, 0.620722
1683.17, 0.620722
1683.71, 0.620660
1684.26, 0.620845
1684.81, 0.621029
1685.36, 0.620845
1685.9, 0.620722
1686.45, 0.620845
1687.0, 0.621151
1687.55, 0.621335
1688.1, 0.621765
1688.65, 0.621888
1689.2, 0.622072
1689.75, 0.622133
1690.3, 0.622378
1690.85, 0.622501
1691.41, 0.622685
1691.96, 0.622992
1692.51, 0.623114
1693.06, 0.623360
1693.61, 0.623667
1694.17, 0.623728
1694.72, 0.623728
1695.28, 0.623851
1695.83, 0.624219
1696.39, 0.624464
1696.94, 0.624464
1697.5, 0.624525
1698.05, 0.624771
1698.61, 0.624587
1699.17, 0.624648
1699.72, 0.624771
1700.28, 0.624832
1700.84, 0.625078
1701.4, 0.625078
1701.95, 0.624893
1702.51, 0.624832
1703.07, 0.625078
1703.63, 0.625323
1704.19, 0.625139
1704.75, 0.625139
1705.31, 0.625323
1705.88, 0.625323
1706.44, 0.625384
1707.0, 0.625507
1707.56, 0.625814
1708.12, 0.625936
1708.69, 0.625875
1709.25, 0.625875
1709.81, 0.625936
1710.38, 0.626059
1710.94, 0.626366
1711.51, 0.626673
1712.07, 0.626673
1712.64, 0.626427
1713.2, 0.626427
1713.77, 0.626550
1714.34, 0.626550
1714.9, 0.626489
1715.47, 0.626489
1716.04, 0.626489
1716.61, 0.626427
1717.18, 0.626734
1717.74, 0.626795
1718.31, 0.626795
1718.88, 0.626918
1719.45, 0.626734
1720.02, 0.626550
1720.59, 0.626918
1721.17, 0.626979
1721.74, 0.626734
1722.31, 0.626611
1722.88, 0.626673
1723.45, 0.626795
1724.03, 0.626489
1724.6, 0.626427
1725.18, 0.626550
1725.75, 0.626857
1726.33, 0.627041
1726.9, 0.626857
1727.48, 0.627102
1728.05, 0.627102
1728.63, 0.626795
1729.2, 0.626918
1729.78, 0.627348
1730.36, 0.627593
1730.94, 0.627654
1731.51, 0.627716
1732.09, 0.627593
1732.67, 0.627716
1733.25, 0.627777
1733.83, 0.627838
1734.41, 0.628022
1734.99, 0.628084
1735.57, 0.628452
1736.15, 0.628758
1736.73, 0.628697
1737.32, 0.628758
1737.9, 0.628820
1738.48, 0.628820
1739.07, 0.628820
1739.65, 0.628943
1740.23, 0.629311
1740.82, 0.629556
1741.4, 0.629679
1741.99, 0.629556
1742.57, 0.629679
1743.16, 0.629679
1743.74, 0.629924
1744.33, 0.629863
1744.92, 0.629863
1745.51, 0.630170
1746.09, 0.630538
1746.68, 0.630538
1747.27, 0.630599
1747.86, 0.630722
1748.45, 0.630783
1749.04, 0.630783
1749.63, 0.631212
1750.22, 0.631090
1750.81, 0.631151
1751.4, 0.631274
1751.99, 0.631458
1752.59, 0.631581
1753.18, 0.631765
1753.77, 0.631949
1754.37, 0.632194
1754.96, 0.632378
1755.56, 0.632439
1756.15, 0.632317
1756.74, 0.632623
1757.34, 0.632869
1757.94, 0.632930
1758.53, 0.633114
1759.13, 0.633176
1759.73, 0.633237
1760.32, 0.633605
1760.92, 0.633789
1761.52, 0.633789
1762.12, 0.633728
1762.72, 0.633789
1763.32, 0.634034
1763.92, 0.634096
1764.52, 0.634034
1765.12, 0.634341
1765.72, 0.634587
1766.32, 0.634893
1766.92, 0.634955
1767.53, 0.635261
1768.13, 0.635139
1768.73, 0.635200
1769.34, 0.635139
1769.94, 0.635323
1770.55, 0.635507
1771.15, 0.635691
1771.76, 0.635752
1772.36, 0.635691
1772.97, 0.635875
1773.57, 0.636182
1774.18, 0.636059
1774.79, 0.636120
1775.4, 0.636182
1776.0, 0.636366
1776.61, 0.636304
1777.22, 0.636427
1777.83, 0.636182
1778.44, 0.636120
1779.05, 0.636488
1779.66, 0.636795
1780.27, 0.636795
1780.88, 0.636550
1781.5, 0.636427
1782.11, 0.636734
1782.72, 0.636856
1783.33, 0.637041
1783.95, 0.636918
1784.56, 0.636734
1785.18, 0.636734
1785.79, 0.636856
1786.41, 0.636918
1787.02, 0.636918
1787.64, 0.636856
1788.26, 0.636795
1788.87, 0.636611
1789.49, 0.636550
1790.11, 0.636734
1790.73, 0.636611
1791.35, 0.636427
1791.96, 0.636488
1792.58, 0.636488
1793.21, 0.636611
1793.83, 0.636856
1794.45, 0.636918
1795.07, 0.636611
1795.69, 0.636488
1796.31, 0.636366
1796.93, 0.636243
1797.56, 0.636304
1798.18, 0.636366
1798.8, 0.636243
1799.43, 0.635936
1800.05, 0.635752
1800.68, 0.635752
1801.3, 0.635814
1801.93, 0.635936
1802.56, 0.635875
1803.18, 0.635875
1803.81, 0.635629
1804.44, 0.635445
1805.07, 0.635629
1805.7, 0.635507
1806.33, 0.635507
1806.95, 0.635691
1807.58, 0.635814
1808.22, 0.635875
1808.85, 0.636120
1809.48, 0.636182
1810.11, 0.635998
1810.74, 0.636059
1811.38, 0.636366
1812.01, 0.636611
1812.64, 0.636611
1813.28, 0.636795
1813.91, 0.637102
1814.55, 0.637163
1815.18, 0.636795
1815.82, 0.636672
1816.45, 0.636856
1817.09, 0.637163
1817.73, 0.637470
1818.36, 0.637347
1819.0, 0.637409
1819.64, 0.636918
1820.28, 0.636243
1820.92, 0.636734
1821.56, 0.636918
1822.2, 0.637409
1822.84, 0.637961
1823.48, 0.638267
1824.12, 0.638329
1824.76, 0.638390
1825.41, 0.637531
1826.05, 0.636182
1826.69, 0.637347
1827.34, 0.638390
1827.98, 0.637961
1828.63, 0.638083
1829.27, 0.638452
1829.92, 0.638083
1830.56, 0.637163
1831.21, 0.637286
1831.86, 0.637899
1832.5, 0.638145
1833.15, 0.638636
1833.8, 0.638758
1834.45, 0.637961
1835.1, 0.637347
1835.75, 0.636734
1836.4, 0.636979
1837.05, 0.637286
1837.7, 0.637225
1838.35, 0.638697
1839.01, 0.638452
1839.66, 0.637470
1840.31, 0.638390
1840.96, 0.638329
1841.62, 0.636795
1842.27, 0.637899
1842.93, 0.639556
1843.58, 0.639863
1844.24, 0.639740
1844.9, 0.639985
1845.55, 0.639985
1846.21, 0.638329
1846.87, 0.636672
1847.53, 0.637163
1848.18, 0.637777
1848.84, 0.639126
1849.5, 0.640047
1850.16, 0.640108
1850.82, 0.640292
1851.48, 0.640721
1852.14, 0.640292
1852.81, 0.639249
1853.47, 0.637899
1854.13, 0.638574
1854.8, 0.640415
1855.46, 0.640660
1856.12, 0.639494
1856.79, 0.639126
1857.45, 0.640231
1858.12, 0.640783
1858.79, 0.640047
1859.45, 0.638083
1860.12, 0.638452
1860.79, 0.639556
1861.46, 0.640353
1862.12, 0.640599
1862.79, 0.640537
1863.46, 0.639863
1864.13, 0.639556
1864.8, 0.640231
1865.48, 0.640721
1866.15, 0.640537
1866.82, 0.639494
1867.49, 0.637838
1868.16, 0.638390
1868.84, 0.639556
1869.51, 0.639372
1870.19, 0.637715
1870.86, 0.636304
1871.54, 0.638206
1872.21, 0.638145
1872.89, 0.636182
1873.56, 0.637347
1874.24, 0.638942
1874.92, 0.638697
1875.6, 0.638820
1876.28, 0.638206
1876.96, 0.637531
1877.64, 0.638574
1878.32, 0.639188
1879.0, 0.639126
1879.68, 0.639065
1880.36, 0.639188
1881.04, 0.638942
1881.73, 0.639126
1882.41, 0.639004
1883.09, 0.638452
1883.78, 0.637531
1884.46, 0.637899
1885.15, 0.638390
1885.83, 0.638329
1886.52, 0.637899
1887.21, 0.638083
1887.89, 0.638452
1888.58, 0.638267
1889.27, 0.637347
1889.96, 0.636366
1890.65, 0.636734
1891.34, 0.636918
1892.03, 0.636734
1892.72, 0.637102
1893.41, 0.636918
1894.1, 0.637041
1894.79, 0.637286
1895.49, 0.637041
1896.18, 0.636734
1896.87, 0.636182
1897.57, 0.635814
1898.26, 0.635752
1898.96, 0.634341
1899.65, 0.633360
1900.35, 0.634525
1901.05, 0.635814
1901.74, 0.635752
1902.44, 0.634218
1903.14, 0.634341
1903.84, 0.635445
1904.54, 0.634218
1905.24, 0.633053
1905.94, 0.633728
1906.64, 0.634218
1907.34, 0.635077
1908.04, 0.635568
1908.75, 0.635629
1909.45, 0.635875
1910.15, 0.635875
1910.86, 0.635691
1911.56, 0.635568
1912.27, 0.635936
1912.97, 0.634832
1913.68, 0.634403
1914.39, 0.635445
1915.09, 0.635936
1915.8, 0.635752
1916.51, 0.635998
1917.22, 0.636366
1917.93, 0.636366
1918.64, 0.635936
1919.35, 0.634893
1920.06, 0.633850
1920.77, 0.634218
1921.48, 0.636120
1922.19, 0.636550
1922.91, 0.636243
1923.62, 0.635814
1924.33, 0.635875
1925.05, 0.636366
1925.76, 0.636304
1926.48, 0.636059
1927.19, 0.635936
1927.91, 0.635875
1928.63, 0.635875
1929.35, 0.636488
1930.07, 0.636672
1930.78, 0.636550
1931.5, 0.636427
1932.22, 0.636550
1932.94, 0.636611
1933.66, 0.636734
1934.39, 0.636795
1935.11, 0.636611
1935.83, 0.636366
1936.55, 0.636243
1937.28, 0.636243
1938.0, 0.636182
1938.73, 0.636059
1939.45, 0.636120
1940.18, 0.636120
1940.9, 0.636243
1941.63, 0.636488
1942.36, 0.636243
1943.09, 0.635936
1943.81, 0.635752
1944.54, 0.635936
1945.27, 0.635875
1946.0, 0.635752
1946.73, 0.635691
1947.47, 0.635384
1948.2, 0.635077
1948.93, 0.635077
1949.66, 0.635200
1950.4, 0.635139
1951.13, 0.635200
1951.86, 0.635139
1952.6, 0.634832
1953.34, 0.634832
1954.07, 0.634955
1954.81, 0.634893
1955.55, 0.634771
1956.29, 0.634771
1957.02, 0.635016
1957.76, 0.635200
1958.5, 0.635077
1959.24, 0.635139
1959.98, 0.635139
1960.72, 0.635077
1961.47, 0.635077
1962.21, 0.635077
1962.95, 0.635016
1963.7, 0.635077
1964.44, 0.635200
1965.18, 0.635323
1965.93, 0.635507
1966.67, 0.635200
1967.42, 0.635200
1968.17, 0.635200
1968.92, 0.635261
1969.66, 0.635323
1970.41, 0.635261
1971.16, 0.635077
1971.91, 0.634893
1972.66, 0.634832
1973.41, 0.634771
1974.16, 0.634648
1974.92, 0.634525
1975.67, 0.634587
1976.42, 0.634587
1977.18, 0.634525
1977.93, 0.634525
1978.69, 0.634587
1979.44, 0.634280
1980.2, 0.634218
1980.95, 0.634218
1981.71, 0.634096
1982.47, 0.634034
1983.23, 0.633850
1983.99, 0.633850
1984.74, 0.633666
1985.51, 0.633728
1986.27, 0.633605
1987.03, 0.633544
1987.79, 0.633298
1988.55, 0.633176
1989.32, 0.633114
1990.08, 0.632991
1990.84, 0.632685
1991.61, 0.632869
1992.37, 0.632930
1993.14, 0.632746
1993.9, 0.632501
1994.67, 0.632439
1995.44, 0.632562
1996.21, 0.632439
1996.98, 0.632439
1997.75, 0.632501
1998.52, 0.632378
1999.29, 0.632378
2000.06, 0.632439
2000.83, 0.632317
2001.6, 0.632194
2002.38, 0.632133
2003.15, 0.632194
2003.93, 0.632255
2004.7, 0.632010
2005.48, 0.631887
2006.25, 0.631949
2007.03, 0.631949
2007.81, 0.631887
2008.58, 0.631826
2009.36, 0.631581
2010.14, 0.631396
2010.92, 0.631335
2011.7, 0.631396
2012.48, 0.631458
2013.26, 0.631335
2014.05, 0.631212
2014.83, 0.631090
2015.61, 0.631028
2016.4, 0.631090
2017.18, 0.631212
2017.97, 0.631274
2018.75, 0.631335
2019.54, 0.631519
2020.32, 0.631335
2021.11, 0.631335
2021.9, 0.631642
2022.69, 0.631765
2023.48, 0.631765
2024.27, 0.631703
2025.06, 0.631458
2025.85, 0.631519
2026.64, 0.631765
2027.44, 0.631949
2028.23, 0.632010
2029.02, 0.631949
2029.82, 0.632194
2030.61, 0.632255
2031.41, 0.632317
2032.2, 0.632439
2033.0, 0.632439
2033.8, 0.632562
2034.6, 0.632807
2035.4, 0.633114
2036.2, 0.633360
2037.0, 0.633482
2037.8, 0.633482
2038.6, 0.633666
2039.4, 0.633605
2040.2, 0.633544
2041.01, 0.633605
2041.81, 0.633666
2042.61, 0.633666
2043.42, 0.633360
2044.22, 0.633053
2045.03, 0.632746
2045.84, 0.632623
2046.65, 0.632317
2047.46, 0.631826
2048.26, 0.631396
2049.07, 0.630599
2049.88, 0.629679
2050.69, 0.628574
2051.51, 0.627409
2052.32, 0.626059
2053.13, 0.624648
2053.94, 0.622869
2054.76, 0.621090
2055.57, 0.618803
2056.39, 0.617197
2057.2, 0.615404
2058.02, 0.613118
2058.84, 0.610460
2059.66, 0.608359
2060.48, 0.606443
2061.29, 0.604528
2062.11, 0.603044
2062.94, 0.601932
2063.76, 0.601190
2064.58, 0.599707
2065.4, 0.598595
2066.22, 0.598100
2067.05, 0.597668
2067.87, 0.597297
2068.7, 0.597730
2069.52, 0.597421
2070.35, 0.596123
2071.18, 0.594949
2072.0, 0.593465
2072.83, 0.591488
2073.66, 0.589139
2074.49, 0.586606
2075.32, 0.584134
2076.15, 0.580240
2076.98, 0.576470
2077.82, 0.571959
2078.65, 0.567324
2079.48, 0.562442
2080.32, 0.556818
2081.15, 0.551874
2081.99, 0.547733
2082.83, 0.544334
2083.66, 0.541986
2084.5, 0.540750
2085.34, 0.540935
2086.18, 0.541059
2087.02, 0.542110
2087.86, 0.544705
2088.7, 0.547981
2089.54, 0.552430
2090.39, 0.557251
2091.23, 0.561886
2092.07, 0.566088
2092.92, 0.570970
2093.76, 0.576594
2094.61, 0.581662
2095.45, 0.586420
2096.3, 0.590684
2097.15, 0.594516
2098.0, 0.597544
2098.85, 0.600572
2099.7, 0.603353
2100.55, 0.605578
2101.4, 0.606814
2102.25, 0.608112
2103.1, 0.609595
2103.96, 0.610213
2104.81, 0.609904
2105.67, 0.610090
2106.52, 0.610893
2107.38, 0.611449
2108.24, 0.610955
2109.09, 0.610337
2109.95, 0.610090
2110.81, 0.609224
2111.67, 0.608236
2112.53, 0.607679
2113.39, 0.606876
2114.25, 0.605578
2115.12, 0.604528
2115.98, 0.603106
2116.84, 0.601685
2117.71, 0.600140
2118.58, 0.598409
2119.44, 0.597544
2120.31, 0.596926
2121.18, 0.595814
2122.04, 0.594145
2122.91, 0.591488
2123.78, 0.588521
2124.65, 0.586297
2125.52, 0.583577
2126.4, 0.580982
2127.27, 0.579128
2128.14, 0.577706
2129.02, 0.576223
2129.89, 0.574122
2130.77, 0.572330
2131.64, 0.570847
2132.52, 0.569363
2133.4, 0.567942
2134.27, 0.566026
2135.15, 0.563987
2136.03, 0.562009
2136.91, 0.560526
2137.79, 0.559352
2138.68, 0.558487
2139.56, 0.557251
2140.44, 0.556694
2141.33, 0.556076
2142.21, 0.554346
2143.1, 0.551071
2143.99, 0.547548
2144.87, 0.543346
2145.76, 0.538340
2146.65, 0.533581
2147.54, 0.528575
2148.43, 0.522952
2149.32, 0.516710
2150.21, 0.509788
2151.1, 0.502001
2151.99, 0.492670
2152.89, 0.482720
2153.78, 0.472894
2154.68, 0.462758
2155.57, 0.452809
2156.47, 0.443786
2157.37, 0.434516
2158.27, 0.423392
2159.16, 0.409178
2160.06, 0.391565
2160.96, 0.371109
2161.86, 0.349541
2162.77, 0.330012
2163.67, 0.314686
2164.57, 0.303253
2165.48, 0.294848
2166.38, 0.289533
2167.29, 0.287246
2168.2, 0.288915
2169.1, 0.295280
2170.01, 0.305972
2170.92, 0.321236
2171.83, 0.338355
2172.74, 0.356215
2173.65, 0.373643
2174.56, 0.390329
2175.47, 0.406520
2176.39, 0.421538
2177.3, 0.435196
2178.22, 0.448853
2179.13, 0.462140
2180.05, 0.473635
2180.96, 0.484079
2181.88, 0.493658
2182.8, 0.502001
2183.72, 0.509417
2184.64, 0.515845
2185.56, 0.521901
2186.48, 0.526660
2187.41, 0.531418
2188.33, 0.535806
2189.25, 0.539514
2190.18, 0.542604
2191.1, 0.545014
2192.03, 0.546806
2192.96, 0.548784
2193.89, 0.549958
2194.82, 0.550885
2195.74, 0.551565
2196.68, 0.551812
2197.61, 0.551627
2198.54, 0.551071
2199.47, 0.551009
2200.4, 0.551071
2201.34, 0.550700
2202.28, 0.551071
2203.21, 0.552677
2204.15, 0.554284
2205.08, 0.554964
2206.02, 0.555335
2206.96, 0.555891
2207.9, 0.555582
2208.84, 0.555088
2209.78, 0.554222
2210.73, 0.552554
2211.67, 0.550885
2212.61, 0.549340
2213.56, 0.547610
2214.5, 0.546312
2215.45, 0.544705
2216.4, 0.542357
2217.35, 0.540503
2218.3, 0.538525
2219.24, 0.537042
2220.2, 0.536239
2221.15, 0.536548
2222.1, 0.537536
2223.05, 0.540256
2224.0, 0.544087
2224.96, 0.547919
2225.91, 0.551689
2226.87, 0.554531
2227.83, 0.556509
2228.79, 0.557807
2229.74, 0.558919
2230.7, 0.559414
2231.66, 0.560032
2232.63, 0.560897
2233.59, 0.560650
2234.55, 0.559908
2235.51, 0.559414
2236.48, 0.559043
2237.44, 0.558796
2238.41, 0.558363
2239.38, 0.557621
2240.34, 0.556694
2241.31, 0.556262
2242.28, 0.555891
2243.25, 0.555026
2244.22, 0.553852
2245.19, 0.552801
2246.17, 0.551689
2247.14, 0.550700
2248.12, 0.549649
2249.09, 0.548537
2250.07, 0.546992
2251.04, 0.545509
2252.02, 0.544458
2253.0, 0.543160
2253.98, 0.542048
2254.96, 0.540874
2255.94, 0.539699
2256.92, 0.538711
2257.91, 0.536980
2258.89, 0.535435
2259.88, 0.534632
2260.86, 0.533581
2261.85, 0.532345
2262.83, 0.530924
2263.82, 0.529564
2264.81, 0.528143
2265.8, 0.526907
2266.79, 0.525176
2267.78, 0.523508
2268.78, 0.522210
2269.77, 0.520912
2270.76, 0.518873
2271.76, 0.516586
2272.75, 0.514670
2273.75, 0.513002
2274.75, 0.510901
2275.75, 0.507811
2276.75, 0.504844
2277.75, 0.502187
2278.75, 0.499653
2279.75, 0.496625
2280.75, 0.493411
2281.76, 0.490136
2282.76, 0.486799
2283.77, 0.483338
2284.77, 0.480001
2285.78, 0.477158
2286.79, 0.475242
2287.8, 0.473573
2288.81, 0.471905
2289.82, 0.470483
2290.83, 0.469433
2291.84, 0.468506
2292.86, 0.467146
2293.87, 0.465478
2294.89, 0.464303
2295.91, 0.463253
2296.92, 0.462079
2297.94, 0.460348
2298.96, 0.458432
2299.98, 0.455960
2301.0, 0.453612
2302.02, 0.451449
2303.04, 0.449162
2304.07, 0.446752
2305.09, 0.444466
2306.12, 0.442488
2307.15, 0.439769
2308.17, 0.437482
2309.2, 0.435196
2310.23, 0.431797
2311.26, 0.427841
2312.29, 0.423763
2313.32, 0.419498
2314.35, 0.414925
2315.39, 0.410228
2316.42, 0.405779
2317.46, 0.401762
2318.5, 0.399043
2319.53, 0.397621
2320.57, 0.397312
2321.61, 0.398425
2322.65, 0.400835
2323.69, 0.404605
2324.73, 0.408869
2325.78, 0.413936
2326.82, 0.419622
2327.86, 0.425740
2328.91, 0.431920
2329.96, 0.437729
2331.01, 0.442364
2332.05, 0.446876
2333.1, 0.450584
2334.15, 0.453427
2335.21, 0.455775
2336.26, 0.457382
2337.31, 0.458062
2338.36, 0.458494
2339.42, 0.458000
2340.48, 0.456208
2341.53, 0.453797
2342.59, 0.450584
2343.65, 0.446690
2344.71, 0.442982
2345.77, 0.439892
2346.83, 0.437853
2347.9, 0.436864
2348.96, 0.436988
2350.02, 0.438471
2351.09, 0.439583
2352.16, 0.440572
2353.23, 0.441623
2354.29, 0.442859
2355.36, 0.443909
2356.43, 0.444651
2357.51, 0.445640
2358.58, 0.446258
2359.65, 0.446381
2360.73, 0.446999
2361.8, 0.447988
2362.88, 0.448421
2363.96, 0.449595
2365.03, 0.450893
2366.11, 0.452129
2367.19, 0.453983
2368.27, 0.455960
2369.36, 0.457938
2370.44, 0.459854
2371.53, 0.461584
2372.61, 0.462264
2373.7, 0.462202
2374.78, 0.461090
2375.87, 0.459174
2376.96, 0.456208
2378.05, 0.451758
2379.14, 0.446938
2380.24, 0.442364
2381.33, 0.438038
2382.42, 0.433589
2383.52, 0.429819
2384.61, 0.427223
2385.71, 0.424442
2386.81, 0.421229
2387.91, 0.418571
2389.01, 0.415976
2390.11, 0.413627
2391.22, 0.412206
2392.32, 0.412330
2393.42, 0.413380
2394.53, 0.414678
2395.64, 0.415667
2396.74, 0.417026
2397.85, 0.418201
2398.96, 0.418571
2400.07, 0.418448
2401.18, 0.417892
2402.3, 0.417335
2403.41, 0.417150
2404.52, 0.416903
2405.64, 0.416717
2406.76, 0.416903
2407.88, 0.417088
2408.99, 0.417892
2410.11, 0.418757
2411.23, 0.419128
2412.36, 0.419313
2413.48, 0.419622
2414.6, 0.419375
2415.73, 0.419189
2416.85, 0.418880
2417.98, 0.417953
2419.11, 0.416347
2420.24, 0.414245
2421.37, 0.411341
2422.5, 0.408560
2423.64, 0.406459
2424.77, 0.405037
2425.9, 0.403554
2427.04, 0.402133
2428.18, 0.401082
2429.31, 0.400526
2430.45, 0.399846
2431.59, 0.399290
2432.73, 0.399784
2433.88, 0.400773
2435.02, 0.402009
2436.16, 0.403801
2437.31, 0.406150
2438.45, 0.408189
2439.6, 0.410043
2440.75, 0.411650
2441.9, 0.412268
2443.05, 0.412515
2444.2, 0.411835
2445.35, 0.410908
2446.51, 0.410476
2447.67, 0.410414
2448.82, 0.410290
2449.98, 0.409919
2451.14, 0.409425
2452.3, 0.407880
2453.46, 0.405408
2454.62, 0.402812
2455.78, 0.400711
2456.94, 0.399908
2458.11, 0.400773
2459.28, 0.402936
2460.44, 0.404852
2461.61, 0.405902
2462.78, 0.405902
2463.95, 0.405161
2465.12, 0.403739
2466.3, 0.402071
2467.47, 0.401020
2468.65, 0.400526
2469.82, 0.400031
2471.0, 0.399722
2472.18, 0.399043
2473.36, 0.398239
2474.54, 0.396756
2475.72, 0.394037
2476.9, 0.390329
2478.08, 0.385756
2479.27, 0.380564
2480.46, 0.375250
2481.64, 0.371356
2482.83, 0.369255
2484.02, 0.368019
2485.21, 0.367216
2486.4, 0.365794
2487.6, 0.364373
2488.79, 0.362766
2489.99, 0.360479
2491.18, 0.357884
2492.38, 0.355659
2493.58, 0.354238
2494.78, 0.353990
2495.98, 0.354052
2497.18, 0.353743
2498.39, 0.352260
2499.59, 0.350282
2500.8, 0.347934
2502.01, 0.345833
2503.21, 0.344164
2504.42, 0.342743
2505.63, 0.341507
2506.84, 0.340394
2508.06, 0.339035
2509.27, 0.338293
2510.49, 0.338664
2511.7, 0.339591
2512.92, 0.341136
2514.14, 0.343114
2515.36, 0.345524
2516.58, 0.348181
2517.8, 0.350653
2519.03, 0.353681
2520.25, 0.357328
2521.48, 0.361283
2522.7, 0.365485
2523.93, 0.369935
2525.16, 0.373643
2526.39, 0.376424
2527.62, 0.378958
2528.86, 0.381182
2530.09, 0.382727
2531.33, 0.384025
2532.56, 0.385694
2533.8, 0.387053
2535.04, 0.386992
2536.28, 0.386003
2537.52, 0.385632
2538.76, 0.385014
2540.01, 0.383593
2541.25, 0.381244
2542.5, 0.377351
2543.75, 0.373210
2544.99, 0.367957
2546.24, 0.361097
2547.49, 0.355288
2548.75, 0.352631
2550.0, 0.351827
2551.26, 0.353805
2552.51, 0.358873
2553.77, 0.366659
2555.03, 0.372901
2556.29, 0.375126
2557.55, 0.374632
2558.81, 0.373334
2560.08, 0.370676
2561.34, 0.368884
2562.61, 0.369564
2563.88, 0.369749
2565.14, 0.370244
2566.41, 0.369811
2567.68, 0.365918
2568.96, 0.358996
2570.23, 0.354856
2571.51, 0.354299
2572.78, 0.353496
2574.06, 0.359058
2575.34, 0.365547
2576.62, 0.368390
2577.9, 0.371851
2579.18, 0.372654
2580.47, 0.368575
2581.75, 0.364002
2583.04, 0.355968
2584.32, 0.349046
2585.61, 0.344350
2586.9, 0.335945
2588.2, 0.329703
2589.49, 0.325748
2590.78, 0.322534
2592.08, 0.316663
2593.37, 0.304550
2594.67, 0.291140
2595.97, 0.288915
2597.27, 0.288853
2598.57, 0.287432
2599.88, 0.286937
2601.18, 0.287926
2602.49, 0.288730
2603.79, 0.286937
2605.1, 0.282611
2606.41, 0.281623
2607.72, 0.282241
2609.03, 0.282673
2610.35, 0.285331
2611.66, 0.290398
2612.98, 0.297196
2614.3, 0.305786
2615.62, 0.310607
2616.94, 0.316107
2618.26, 0.325068
2619.58, 0.328529
2620.91, 0.333905
2622.23, 0.341939
2623.56, 0.345956
2624.89, 0.346513
2626.22, 0.344906
2627.55, 0.347996
2628.88, 0.348367
2630.21, 0.345709
2631.55, 0.349355
2632.89, 0.351209
2634.22, 0.351518
2635.56, 0.353249
2636.9, 0.353434
2638.25, 0.353002
2639.59, 0.352569
2640.93, 0.352384
2642.28, 0.352569
2643.63, 0.353187
2644.98, 0.353002
2646.33, 0.354361
2647.68, 0.356586
2649.03, 0.357204
2650.39, 0.355844
2651.74, 0.352445
2653.1, 0.350530
2654.46, 0.348861
2655.82, 0.346265
2657.18, 0.344720
2658.54, 0.340456
2659.9, 0.336439
2661.27, 0.333782
2662.64, 0.330754
2664.01, 0.323029
2665.38, 0.315365
2666.74, 0.311719
2668.12, 0.310545
2669.49, 0.302696
2670.87, 0.297443
2672.24, 0.299483
2673.62, 0.296764
2675.0, 0.290707
2676.38, 0.283971
2677.76, 0.280510
2679.15, 0.276802
2680.54, 0.274454
2681.92, 0.269633
2683.31, 0.262774
2684.7, 0.256223
2686.09, 0.249116
2687.48, 0.241638
2688.88, 0.233913
2690.27, 0.224952
2691.67, 0.214075
2693.07, 0.200974
2694.47, 0.190159
2695.87, 0.181692
2697.27, 0.173473
2698.67, 0.164821
2700.08, 0.154438
2701.49, 0.143623
2702.9, 0.133982
2704.31, 0.124156
2705.72, 0.114268
2707.13, 0.103639
2708.54, 0.0923290
2709.96, 0.0813290
2711.38, 0.0711940
2712.8, 0.0623560
2714.22, 0.0540130
2715.64, 0.0486980
2717.06, 0.0503670
2718.49, 0.0579070
2719.91, 0.0618000
2721.34, 0.0593280
2722.77, 0.0564850
2724.2, 0.0561140
2725.63, 0.0596370
2727.07, 0.0656320
2728.5, 0.0726770
2729.94, 0.0795370
2731.38, 0.0851600
2732.82, 0.0903520
2734.26, 0.0962230
2735.7, 0.103577
2737.15, 0.109201
2738.59, 0.110807
2740.04, 0.109015
2741.49, 0.104195
2742.94, 0.0994980
2744.39, 0.102897
2745.84, 0.114886
2747.3, 0.128173
2748.76, 0.137814
2750.21, 0.143067
2751.67, 0.147331
2753.14, 0.153511
2754.6, 0.160742
2756.06, 0.171680
2757.53, 0.184226
2759.0, 0.194114
2760.46, 0.201592
2761.94, 0.208575
2763.41, 0.218030
2764.88, 0.226991
2766.36, 0.232121
2767.83, 0.237127
2769.31, 0.243616
2770.79, 0.249857
2772.27, 0.257644
2773.76, 0.265060
2775.24, 0.268150
2776.73, 0.264937
2778.22, 0.259560
2779.71, 0.257644
2781.2, 0.259993
2782.69, 0.262465
2784.18, 0.264628
2785.68, 0.266296
2787.18, 0.268768
2788.68, 0.275937
2790.18, 0.282611
2791.68, 0.287246
2793.19, 0.290584
2794.69, 0.293921
2796.2, 0.297196
2797.71, 0.299297
2799.22, 0.299236
2800.73, 0.297320
2802.24, 0.294353
2803.76, 0.293983
2805.28, 0.295342
2806.8, 0.295960
2808.32, 0.296022
2809.84, 0.296825
2811.36, 0.299730
2812.89, 0.303253
2814.42, 0.305292
2815.94, 0.307331
2817.48, 0.310298
2819.01, 0.312584
2820.54, 0.314068
2822.08, 0.315304
2823.61, 0.315551
2825.15, 0.315304
2826.69, 0.314809
2828.23, 0.314377
2829.78, 0.313511
2831.32, 0.311596
2832.87, 0.308444
2834.42, 0.304612
2835.97, 0.300842
2837.52, 0.297691
2839.08, 0.295219
2840.63, 0.292314
2842.19, 0.288791
2843.75, 0.285454
2845.31, 0.282920
2846.87, 0.281252
2848.44, 0.280387
2850.0, 0.280078
2851.57, 0.279769
2853.14, 0.278656
2854.71, 0.276926
2856.28, 0.275134
2857.86, 0.274145
2859.43, 0.274207
2861.01, 0.274330
2862.59, 0.273650
2864.17, 0.272167
2865.76, 0.270066
2867.34, 0.267594
2868.93, 0.265864
2870.52, 0.265555
2872.11, 0.267347
2873.7, 0.271117
2875.29, 0.276184
2876.89, 0.282055
2878.49, 0.288050
2880.08, 0.293241
2881.69, 0.297011
2883.29, 0.298679
2884.89, 0.298123
2886.5, 0.295528
2888.11, 0.292747
2889.72, 0.291758
2891.33, 0.292685
2892.94, 0.295651
2894.56, 0.299050
2896.17, 0.301337
2897.79, 0.303438
2899.42, 0.306281
2901.04, 0.307826
2902.66, 0.308135
2904.29, 0.309124
2905.92, 0.311101
2907.55, 0.313388
2909.18, 0.315304
2910.81, 0.315922
2912.45, 0.314315
2914.08, 0.310730
2915.72, 0.306219
2917.36, 0.301646
2919.01, 0.297629
2920.65, 0.295589
2922.3, 0.296084
2923.94, 0.299174
2925.59, 0.303562
2927.25, 0.308506
2928.9, 0.313450
2930.56, 0.317590
2932.21, 0.321051
2933.87, 0.323585
2935.53, 0.325686
2937.2, 0.327293
2938.86, 0.328714
2940.53, 0.329950
2942.2, 0.330568
2943.87, 0.330877
2945.54, 0.330568
2947.22, 0.329765
2948.89, 0.328467
2950.57, 0.326551
2952.25, 0.324203
2953.93, 0.321793
2955.62, 0.319444
2957.3, 0.316910
2958.99, 0.314377
2960.68, 0.312090
2962.37, 0.309803
2964.07, 0.307826
2965.76, 0.306157
2967.46, 0.304056
2969.16, 0.301522
2970.86, 0.299236
2972.56, 0.297505
2974.27, 0.296207
2975.98, 0.296084
2977.69, 0.296949
2979.4, 0.298679
2981.11, 0.300781
2982.83, 0.302820
2984.54, 0.304674
2986.26, 0.306157
2987.98, 0.307640
2989.71, 0.309494
2991.43, 0.311287
2993.16, 0.312893
2994.89, 0.314315
2996.62, 0.315551
2998.35, 0.316169
3000.09, 0.316663
3001.83, 0.316972
3003.57, 0.317219
3005.31, 0.317899
3007.05, 0.319259
3008.79, 0.320927
3010.54, 0.322905
3012.29, 0.325315
3014.04, 0.328343
3015.8, 0.331310
3017.55, 0.334214
3019.31, 0.337057
3021.07, 0.339282
3022.83, 0.340765
3024.59, 0.342187
3026.36, 0.342928
3028.13, 0.343114
3029.9, 0.343175
3031.67, 0.343732
3033.44, 0.344782
3035.22, 0.346080
3037.0, 0.347563
3038.78, 0.348737
3040.56, 0.349788
3042.34, 0.350900
3044.13, 0.351827
3045.92, 0.352322
3047.71, 0.352878
3049.5, 0.353434
3051.3, 0.353867
3053.09, 0.354238
3054.89, 0.354856
3056.69, 0.355412
3058.5, 0.355474
3060.3, 0.355412
3062.11, 0.355597
3063.92, 0.356030
3065.73, 0.356833
3067.55, 0.357637
3069.36, 0.358440
3071.18, 0.359305
3073.0, 0.360294
3074.82, 0.361345
3076.65, 0.362395
3078.48, 0.363260
3080.31, 0.364311
3082.14, 0.365423
3083.97, 0.366350
3085.8, 0.367154
3087.64, 0.368019
3089.48, 0.368575
3091.33, 0.369255
3093.17, 0.369749
3095.02, 0.370120
3096.87, 0.370491
3098.72, 0.370924
3100.57, 0.371356
3102.43, 0.371912
3104.28, 0.372592
3106.14, 0.373705
3108.01, 0.374941
3109.87, 0.376362
3111.74, 0.377907
3113.61, 0.379514
3115.48, 0.380935
3117.35, 0.382109
3119.23, 0.383469
3121.1, 0.384458
3122.98, 0.385138
3124.87, 0.385941
3126.75, 0.386744
3128.64, 0.387610
3130.53, 0.388104
3132.42, 0.388475
3134.31, 0.389031
3136.21, 0.389464
3138.11, 0.389896
3140.01, 0.390391
3141.91, 0.390761
3143.82, 0.390885
3145.73, 0.390947
3147.64, 0.391194
3149.55, 0.391132
3151.46, 0.391009
3153.38, 0.390947
3155.3, 0.390761
3157.22, 0.390391
3159.14, 0.390082
3161.07, 0.389958
3163.0, 0.390143
3164.93, 0.390452
3166.86, 0.390761
3168.8, 0.391132
3170.74, 0.391750
3172.68, 0.392739
3174.62, 0.393728
3176.56, 0.394655
3178.51, 0.395767
3180.46, 0.397003
3182.42, 0.398301
3184.37, 0.399599
3186.33, 0.400897
3188.29, 0.401824
3190.25, 0.402442
3192.21, 0.403183
3194.18, 0.403739
3196.15, 0.404110
3198.12, 0.404666
3200.09, 0.405346
3202.07, 0.405593
3204.05, 0.406026
3206.03, 0.406397
3208.02, 0.406768
3210.0, 0.407262
3211.99, 0.407880
3213.98, 0.408436
3215.98, 0.408869
3217.97, 0.409301
3219.97, 0.409796
3221.97, 0.410228
3223.98, 0.410476
3225.98, 0.410846
3227.99, 0.411155
3230.0, 0.411464
3232.02, 0.411897
3234.03, 0.412268
3236.05, 0.412453
3238.07, 0.412700
3240.1, 0.413071
3242.12, 0.413504
3244.15, 0.414060
3246.18, 0.414925
3248.22, 0.415790
3250.25, 0.416532
3252.29, 0.416903
3254.33, 0.417274
3256.38, 0.417892
3258.43, 0.418448
3260.47, 0.418757
3262.53, 0.419128
3264.58, 0.419375
3266.64, 0.419622
3268.7, 0.419746
3270.76, 0.419746
3272.82, 0.419807
3274.89, 0.419807
3276.96, 0.419684
3279.04, 0.419622
3281.11, 0.419375
3283.19, 0.419375
3285.27, 0.419437
3287.35, 0.419313
3289.44, 0.419498
3291.53, 0.419993
3293.62, 0.420364
3295.71, 0.420858
3297.81, 0.421538
3299.91, 0.422341
3302.01, 0.423206
3304.11, 0.424010
3306.22, 0.424937
3308.33, 0.425740
3310.44, 0.426358
3312.56, 0.427038
3314.68, 0.427780
3316.8, 0.428150
3318.92, 0.428459
3321.05, 0.428892
3323.18, 0.429386
3325.31, 0.429819
3327.44, 0.430128
3329.58, 0.430622
3331.72, 0.431055
3333.86, 0.431364
3336.01, 0.431920
3338.16, 0.432415
3340.31, 0.432971
3342.46, 0.433403
3344.61, 0.433774
3346.77, 0.434207
3348.94, 0.434701
3351.1, 0.435010
3353.27, 0.435257
3355.44, 0.435566
3357.61, 0.435814
3359.79, 0.435937
3361.97, 0.436184
3364.15, 0.436308
3366.33, 0.436308
3368.52, 0.436679
3370.71, 0.436864
3372.9, 0.436926
3375.1, 0.437173
3377.3, 0.437482
3379.5, 0.437791
3381.71, 0.438347
3383.91, 0.438780
3386.12, 0.439213
3388.34, 0.439707
3390.55, 0.440201
3392.77, 0.440510
3394.99, 0.440819
3397.22, 0.441190
3399.45, 0.441623
3401.68, 0.441623
3403.91, 0.441499
3406.15, 0.441685
3408.39, 0.441746
3410.63, 0.441746
3412.87, 0.441870
3415.12, 0.442117
3417.37, 0.442612
3419.63, 0.443106
3421.88, 0.443600
3424.14, 0.444466
3426.41, 0.445454
3428.67, 0.446567
3430.94, 0.447494
3433.21, 0.448421
3435.49, 0.449224
3437.77, 0.449966
3440.05, 0.450584
3442.33, 0.451264
3444.62, 0.451758
3446.91, 0.452191
3449.2, 0.452747
3451.5, 0.453427
3453.8, 0.453859
3456.1, 0.454168
3458.41, 0.454663
3460.72, 0.455281
3463.03, 0.455651
3465.34, 0.455899
3467.66, 0.456269
3469.98, 0.456517
3472.31, 0.456640
3474.63, 0.456764
3476.96, 0.456949
3479.3, 0.457196
3481.64, 0.457382
3483.97, 0.457505
3486.32, 0.457629
3488.66, 0.457753
3491.01, 0.457814
3493.36, 0.457814
3495.72, 0.457814
3498.08, 0.457876
3500.44, 0.457876
3502.81, 0.457753
3505.18, 0.457938
3507.55, 0.458371
3509.92, 0.458741
3512.3, 0.459174
3514.68, 0.459668
3517.06, 0.460286
3519.45, 0.460843
3521.84, 0.461337
3524.24, 0.461770
3526.64, 0.462140
3529.04, 0.462573
3531.44, 0.462758
3533.85, 0.463006
3536.26, 0.463253
3538.67, 0.463500
3541.09, 0.463871
3543.51, 0.464118
3545.93, 0.464365
3548.36, 0.464612
3550.79, 0.464674
3553.22, 0.464612
3555.66, 0.464551
3558.1, 0.464612
3560.54, 0.464612
3562.99, 0.464551
3565.44, 0.464303
3567.9, 0.464180
3570.35, 0.464242
3572.81, 0.464242
3575.28, 0.464180
3577.75, 0.464118
3580.22, 0.464242
3582.69, 0.464303
3585.17, 0.464427
3587.65, 0.464674
3590.14, 0.465045
3592.62, 0.465601
3595.11, 0.466096
3597.61, 0.466528
3600.11, 0.466899
3602.61, 0.467208
3605.11, 0.467455
3607.62, 0.467702
3610.14, 0.468011
3612.65, 0.468073
3615.17, 0.468011
3617.69, 0.467826
3620.22, 0.467393
3622.75, 0.466837
3625.28, 0.466343
3627.82, 0.465478
3630.36, 0.464551
3632.9, 0.463562
3635.45, 0.462264
3638.0, 0.460657
3640.56, 0.459050
3643.12, 0.456887
3645.68, 0.454230
3648.24, 0.451202
3650.81, 0.447926
3653.39, 0.444651
3655.96, 0.441561
3658.54, 0.438965
3661.13, 0.436864
3663.71, 0.434825
3666.3, 0.432229
3668.9, 0.429077
3671.5, 0.426111
3674.1, 0.424381
3676.7, 0.424937
3679.31, 0.427347
3681.93, 0.430190
3684.54, 0.429695
3687.17, 0.422094
3689.79, 0.417459
3692.42, 0.428336
3695.05, 0.443230
3697.69, 0.452129
3700.32, 0.457011
3702.97, 0.460225
3705.61, 0.462511
3708.27, 0.464489
3710.92, 0.465910
3713.58, 0.467023
3716.24, 0.467764
3718.91, 0.468568
3721.58, 0.469433
3724.25, 0.470360
3726.93, 0.471040
3729.61, 0.471658
3732.29, 0.472214
3734.98, 0.472708
3737.67, 0.472955
3740.37, 0.473203
3743.07, 0.473512
3745.78, 0.473573
3748.49, 0.473635
3751.2, 0.473944
3753.91, 0.474191
3756.63, 0.474377
3759.36, 0.474500
3762.09, 0.474562
3764.82, 0.474686
3767.55, 0.474809
3770.29, 0.474933
3773.04, 0.474933
3775.78, 0.474995
3778.54, 0.475118
3781.29, 0.475304
3784.05, 0.475366
3786.82, 0.475551
3789.59, 0.475675
3792.36, 0.475675
3795.13, 0.475860
3797.92, 0.476293
3800.7, 0.476540
3803.49, 0.476725
3806.28, 0.476972
3809.08, 0.477220
3811.88, 0.477281
3814.68, 0.477405
3817.49, 0.477899
3820.31, 0.478147
3823.12, 0.478394
3825.94, 0.478765
3828.77, 0.479135
3831.6, 0.479383
3834.43, 0.479568
3837.27, 0.479753
3840.11, 0.479939
3842.96, 0.480001
3845.81, 0.480186
3848.67, 0.480310
3851.53, 0.480371
3854.39, 0.480495
3857.26, 0.480557
3860.13, 0.480557
3863.01, 0.480557
3865.89, 0.480557
3868.77, 0.480495
3871.66, 0.480371
3874.55, 0.480371
3877.45, 0.480433
3880.35, 0.480433
3883.26, 0.480495
3886.17, 0.480495
3889.09, 0.480248
3892.01, 0.480186
3894.93, 0.480062
3897.86, 0.480062
3900.79, 0.480062
3903.73, 0.479939
3906.67, 0.479877
3909.62, 0.479939
3912.57, 0.479877
3915.52, 0.479753
3918.48, 0.479692
3921.45, 0.479630
3924.42, 0.479568
3927.39, 0.479506
3930.37, 0.479506
3933.35, 0.479506
3936.34, 0.479506
3939.33, 0.479383
3942.32, 0.479259
3945.32, 0.479259
3948.33, 0.479321
3951.34, 0.479259
3954.35, 0.479197
3957.37, 0.479074
3960.39, 0.478950
3963.42, 0.478950
3966.45, 0.479012
3969.49, 0.479012
3972.53, 0.479074
3975.58, 0.479074
3978.63, 0.479012
3981.68, 0.479012
3984.75, 0.478950
3987.81, 0.478888
3990.88, 0.478826
3993.95, 0.478765
3997.03, 0.478641
4000.12, 0.478579
4003.21, 0.478332
4006.3, 0.478208
4009.4, 0.478147
4012.5, 0.477961
4015.61, 0.477652
4018.72, 0.477405
4021.84, 0.477158
4024.96, 0.476972
4028.09, 0.476725
4031.22, 0.476602
4034.36, 0.476540
4037.5, 0.476293
4040.65, 0.476169
4043.8, 0.476169
4046.96, 0.475922
4050.12, 0.475613
4053.29, 0.475427
4056.46, 0.475242
4059.64, 0.475118
4062.82, 0.474995
4066.0, 0.474871
4069.19, 0.474562
4072.39, 0.474315
4075.59, 0.474191
4078.8, 0.474006
4082.01, 0.473944
4085.23, 0.473759
4088.45, 0.473573
4091.68, 0.473326
4094.91, 0.473141
4098.15, 0.472894
4101.39, 0.472770
4104.63, 0.472523
4107.89, 0.472276
4111.14, 0.471967
4114.41, 0.471719
4117.67, 0.471410
4120.95, 0.471163
4124.23, 0.471040
4127.51, 0.470731
4130.8, 0.470360
4134.09, 0.469989
4137.39, 0.469742
4140.7, 0.469433
4144.01, 0.469000
4147.32, 0.468691
4150.64, 0.468320
4153.97, 0.468073
4157.3, 0.467764
4160.64, 0.467393
4163.98, 0.467023
4167.33, 0.466714
4170.68, 0.466405
4174.04, 0.466034
4177.4, 0.465539
4180.77, 0.465230
4184.14, 0.465045
4187.52, 0.464612
4190.91, 0.463994
4194.3, 0.463376
4197.69, 0.462573
4201.1, 0.461399
4204.5, 0.459916
4207.92, 0.458123
4211.34, 0.455899
4214.76, 0.453488
4218.19, 0.451202
4221.62, 0.449039
4225.06, 0.446876
4228.51, 0.444713
4231.96, 0.442859
4235.42, 0.441314
4238.88, 0.439892
4242.35, 0.438904
4245.83, 0.438533
4249.31, 0.438533
4252.79, 0.438842
4256.28, 0.438224
4259.78, 0.434887
4263.29, 0.430313
4266.79, 0.426482
4270.31, 0.423577
4273.83, 0.420982
4277.35, 0.418695
4280.89, 0.416656
4284.42, 0.414678
4287.97, 0.412824
4291.52, 0.411403
4295.07, 0.410352
4298.63, 0.409363
4302.2, 0.408436
4305.78, 0.407880
4309.35, 0.407571
4312.94, 0.407509
4316.53, 0.407571
4320.13, 0.407942
4323.73, 0.408374
4327.34, 0.408931
4330.96, 0.409610
4334.58, 0.410352
4338.21, 0.411094
4341.84, 0.411773
4345.48, 0.412577
4349.12, 0.413442
4352.77, 0.414184
4356.43, 0.414863
4360.1, 0.415296
4363.76, 0.415667
4367.44, 0.416038
4371.12, 0.416161
4374.81, 0.416161
4378.51, 0.415852
4382.21, 0.415420
4385.92, 0.414925
4389.63, 0.414307
4393.35, 0.413998
4397.08, 0.413813
4400.81, 0.413936
4404.55, 0.414184
4408.29, 0.414431
4412.04, 0.414616
4415.8, 0.414678
4419.57, 0.414616
4423.34, 0.414122
4427.12, 0.413380
4430.9, 0.412268
4434.69, 0.410846
4438.49, 0.409116
4442.29, 0.406829
4446.1, 0.404048
4449.92, 0.401082
4453.74, 0.397930
4457.57, 0.394778
4461.41, 0.391750
4465.25, 0.388846
4469.1, 0.386374
4472.95, 0.384643
4476.82, 0.383531
4480.69, 0.382727
4484.56, 0.381924
4488.44, 0.380935
4492.33, 0.379699
4496.23, 0.377969
4500.13, 0.376238
4504.04, 0.374693
4507.96, 0.373210
4511.88, 0.371912
4515.81, 0.370862
4519.75, 0.369935
4523.69, 0.369070
4527.65, 0.368328
4531.6, 0.367710
4535.57, 0.367154
4539.54, 0.366474
4543.52, 0.365547
4547.5, 0.364744
4551.5, 0.363940
4555.5, 0.362951
4559.5, 0.361592
4563.52, 0.360109
4567.54, 0.358873
4571.56, 0.358316
4575.6, 0.358625
4579.64, 0.359676
4583.69, 0.361097
4587.75, 0.362581
4591.81, 0.363693
4595.88, 0.364496
4599.96, 0.364805
4604.04, 0.364496
4608.14, 0.363631
4612.24, 0.362457
4616.34, 0.361221
4620.46, 0.359861
4624.58, 0.358502
4628.71, 0.357142
4632.84, 0.355597
4636.99, 0.353867
4641.14, 0.352136
4645.3, 0.350282
4649.47, 0.348181
4653.64, 0.345956
4657.82, 0.343423
4662.01, 0.340703
4666.21, 0.337861
4670.41, 0.335141
4674.62, 0.332546
4678.84, 0.330259
4683.07, 0.328096
4687.3, 0.326180
4691.54, 0.324265
4695.79, 0.322411
4700.05, 0.320495
4704.31, 0.318455
4708.59, 0.316354
4712.87, 0.314377
4717.15, 0.312708
4721.45, 0.311287
4725.76, 0.310174
4730.07, 0.309247
4734.39, 0.308320
4738.72, 0.307455
4743.05, 0.306466
4747.39, 0.305230
4751.75, 0.303562
4756.1, 0.301646
4760.47, 0.299483
4764.85, 0.297011
4769.23, 0.294353
4773.62, 0.292067
4778.02, 0.290645
4782.43, 0.290398
4786.85, 0.290954
4791.27, 0.291572
4795.7, 0.291696
4800.14, 0.291263
4804.59, 0.290398
4809.05, 0.289533
4813.51, 0.288544
4817.99, 0.287864
4822.47, 0.287308
4826.96, 0.286814
4831.46, 0.286134
4835.96, 0.285207
4840.48, 0.283909
4845.0, 0.282302
4849.54, 0.280201
4854.08, 0.277358
4858.63, 0.273959
4863.18, 0.270004
4867.75, 0.265678
4872.33, 0.260920
4876.91, 0.256037
4881.5, 0.251279
4886.1, 0.246397
4890.71, 0.241453
4895.33, 0.236632
4899.96, 0.231874
4904.59, 0.227300
4909.24, 0.222851
4913.89, 0.218525
4918.55, 0.214199
4923.22, 0.209996
4927.9, 0.205918
4932.59, 0.201715
4937.29, 0.197327
4942.0, 0.192754
4946.71, 0.187748
4951.44, 0.182372
4956.17, 0.176563
4960.91, 0.170692
4965.67, 0.164821
4970.43, 0.159135
4975.2, 0.154006
4979.98, 0.149680
4984.76, 0.146033
4989.56, 0.143005
4994.37, 0.140533
4999.18, 0.138494
5004.01, 0.136763
5008.84, 0.135404
5013.69, 0.134291
5018.54, 0.133364
5023.4, 0.132314
5028.28, 0.130892
5033.16, 0.129224
5038.05, 0.127679
5042.95, 0.126381
5047.86, 0.125701
5052.78, 0.125392
5057.71, 0.125392
5062.65, 0.125639
5067.6, 0.125825
5072.56, 0.125948
5077.53, 0.125887
5082.5, 0.125887
5087.49, 0.126072
5092.49, 0.126257
5097.5, 0.126381
5102.51, 0.126505
5107.54, 0.126628
5112.58, 0.126875
5117.62, 0.127308
5122.68, 0.127741
5127.75, 0.128235
5132.82, 0.128668
5137.91, 0.128544
5143.01, 0.127555
5148.12, 0.126072
5153.23, 0.124403
5158.36, 0.121870
5163.5, 0.118903
5168.65, 0.116122
5173.81, 0.113774
5178.98, 0.111858
5184.15, 0.110128
5189.34, 0.108459
5194.54, 0.106976
5199.75, 0.105307
5204.98, 0.103886
5210.21, 0.102279
5215.45, 0.100796
5220.7, 0.0997450
5225.96, 0.0982000
5231.23, 0.0964080
5236.52, 0.0943070
5241.81, 0.0921440
5247.12, 0.0896720
5252.44, 0.0868290
5257.76, 0.0836150
5263.1, 0.0803400
5268.45, 0.0768790
5273.81, 0.0736660
5279.18, 0.0708850
5284.56, 0.0685980
5289.95, 0.0667440
5295.36, 0.0656930
5300.77, 0.0651370
