Database of Origin, USGS Spectral Database
Sample Description, See USGS database for additional info
Date Added,2016-08-10 04:56:55.801296

Data ID,USGS_jar02          
Sample ID, jarosite_gds100.11222
Mineral Name, jarosite
Material Class,Sulfate

Wavelength
1414.5, 0.819290
1414.89, 0.818449
1415.28, 0.817713
1415.66, 0.816347
1416.05, 0.815927
1416.44, 0.815611
1416.82, 0.815086
1417.21, 0.814350
1417.6, 0.814035
1417.98, 0.813089
1418.37, 0.811513
1418.76, 0.810567
1419.15, 0.810252
1419.54, 0.809096
1419.93, 0.808255
1420.32, 0.807835
1420.71, 0.807309
1421.09, 0.806784
1421.48, 0.806153
1421.88, 0.805628
1422.27, 0.804787
1422.66, 0.803526
1423.05, 0.802160
1423.44, 0.801424
1423.83, 0.800688
1424.22, 0.800899
1424.61, 0.799848
1425.0, 0.797536
1425.39, 0.797220
1425.78, 0.797431
1426.18, 0.796590
1426.57, 0.795539
1426.96, 0.794488
1427.36, 0.793227
1427.75, 0.792386
1428.14, 0.792176
1428.54, 0.791756
1428.93, 0.790915
1429.32, 0.790179
1429.72, 0.789444
1430.11, 0.788918
1430.51, 0.788288
1430.9, 0.787657
1431.3, 0.787027
1431.69, 0.786816
1432.09, 0.786291
1432.48, 0.785765
1432.88, 0.785240
1433.28, 0.784715
1433.67, 0.784610
1434.07, 0.783769
1434.46, 0.783559
1434.86, 0.784399
1435.26, 0.783664
1435.66, 0.782823
1436.05, 0.781772
1436.45, 0.781772
1436.85, 0.781562
1437.25, 0.781772
1437.65, 0.780826
1438.05, 0.779880
1438.44, 0.780301
1438.84, 0.780406
1439.24, 0.779880
1439.64, 0.779250
1440.04, 0.778935
1440.44, 0.779880
1440.84, 0.779986
1441.24, 0.779565
1441.65, 0.778724
1442.05, 0.778724
1442.45, 0.778514
1442.85, 0.777463
1443.25, 0.777253
1443.65, 0.777358
1444.05, 0.777358
1444.46, 0.777358
1444.86, 0.776097
1445.26, 0.774941
1445.67, 0.774941
1446.07, 0.775467
1446.47, 0.776202
1446.88, 0.776307
1447.28, 0.775467
1447.68, 0.773785
1448.09, 0.773995
1448.49, 0.774626
1448.9, 0.773785
1449.3, 0.772839
1449.71, 0.771368
1450.11, 0.770422
1450.52, 0.770212
1450.93, 0.770107
1451.33, 0.770212
1451.74, 0.770002
1452.14, 0.769476
1452.55, 0.769161
1452.96, 0.768846
1453.36, 0.768215
1453.77, 0.766639
1454.18, 0.766429
1454.59, 0.766429
1455.0, 0.765693
1455.41, 0.765063
1455.81, 0.764642
1456.22, 0.763486
1456.63, 0.762435
1457.04, 0.761805
1457.45, 0.761279
1457.86, 0.760859
1458.27, 0.760333
1458.68, 0.759808
1459.09, 0.758757
1459.5, 0.757391
1459.91, 0.756550
1460.32, 0.756445
1460.74, 0.755710
1461.15, 0.755184
1461.56, 0.755184
1461.97, 0.754448
1462.39, 0.753713
1462.8, 0.752136
1463.21, 0.751086
1463.62, 0.750980
1464.04, 0.751296
1464.45, 0.750665
1464.86, 0.748668
1465.28, 0.747933
1465.69, 0.747723
1466.11, 0.746672
1466.52, 0.746146
1466.94, 0.746251
1467.35, 0.746041
1467.77, 0.746041
1468.18, 0.745516
1468.6, 0.744465
1469.02, 0.743939
1469.43, 0.742783
1469.85, 0.742153
1470.27, 0.742048
1470.68, 0.741837
1471.1, 0.741417
1471.52, 0.741312
1471.94, 0.740681
1472.35, 0.740471
1472.77, 0.740997
1473.19, 0.741312
1473.61, 0.741417
1474.03, 0.741417
1474.45, 0.741102
1474.87, 0.740156
1475.29, 0.740261
1475.71, 0.740787
1476.13, 0.740156
1476.55, 0.740156
1476.97, 0.740576
1477.39, 0.740787
1477.81, 0.740471
1478.23, 0.740681
1478.65, 0.740997
1479.07, 0.741943
1479.5, 0.741312
1479.92, 0.740681
1480.34, 0.740892
1480.76, 0.741312
1481.19, 0.741732
1481.61, 0.742258
1482.03, 0.742573
1482.46, 0.743414
1482.88, 0.743729
1483.31, 0.744044
1483.73, 0.744255
1484.16, 0.744990
1484.58, 0.745305
1485.01, 0.744990
1485.43, 0.744990
1485.86, 0.745726
1486.28, 0.746041
1486.71, 0.746041
1487.14, 0.746146
1487.56, 0.747092
1487.99, 0.747933
1488.42, 0.747933
1488.84, 0.747828
1489.27, 0.748668
1489.7, 0.748984
1490.13, 0.749194
1490.56, 0.749089
1490.98, 0.749089
1491.41, 0.749299
1491.84, 0.749824
1492.27, 0.750665
1492.7, 0.750980
1493.13, 0.751611
1493.56, 0.751716
1493.99, 0.751191
1494.42, 0.751401
1494.85, 0.752242
1495.29, 0.753082
1495.72, 0.752977
1496.15, 0.752872
1496.58, 0.752872
1497.01, 0.753187
1497.44, 0.753292
1497.88, 0.754448
1498.31, 0.754974
1498.74, 0.755710
1499.18, 0.755710
1499.61, 0.756025
1500.04, 0.756340
1500.48, 0.756445
1500.91, 0.757181
1501.35, 0.758652
1501.78, 0.758547
1502.22, 0.758442
1502.65, 0.758547
1503.09, 0.759072
1503.53, 0.759598
1503.96, 0.759388
1504.4, 0.758862
1504.83, 0.758967
1505.27, 0.759388
1505.71, 0.760333
1506.15, 0.761069
1506.58, 0.761490
1507.02, 0.761384
1507.46, 0.761384
1507.9, 0.762015
1508.34, 0.762751
1508.78, 0.762751
1509.21, 0.763486
1509.66, 0.763591
1510.09, 0.763486
1510.53, 0.764327
1510.97, 0.764222
1511.42, 0.763907
1511.86, 0.764117
1512.3, 0.764642
1512.74, 0.765483
1513.18, 0.766324
1513.62, 0.767059
1514.06, 0.766954
1514.51, 0.766429
1514.95, 0.766534
1515.39, 0.767269
1515.83, 0.767690
1516.28, 0.768005
1516.72, 0.768320
1517.16, 0.769056
1517.61, 0.768741
1518.05, 0.768636
1518.5, 0.769266
1518.94, 0.769687
1519.39, 0.769897
1519.83, 0.770107
1520.28, 0.770422
1520.73, 0.771158
1521.17, 0.771263
1521.62, 0.770738
1522.07, 0.770738
1522.51, 0.771263
1522.96, 0.771683
1523.41, 0.772524
1523.85, 0.772944
1524.3, 0.772944
1524.75, 0.773155
1525.2, 0.772944
1525.65, 0.772734
1526.1, 0.773575
1526.55, 0.773680
1527.0, 0.774206
1527.45, 0.775151
1527.9, 0.775151
1528.35, 0.774731
1528.8, 0.774521
1529.25, 0.775467
1529.7, 0.775887
1530.15, 0.775677
1530.6, 0.776412
1531.05, 0.777253
1531.51, 0.777674
1531.96, 0.777568
1532.41, 0.777674
1532.87, 0.777884
1533.32, 0.778094
1533.77, 0.778199
1534.23, 0.778830
1534.68, 0.779460
1535.14, 0.780196
1535.59, 0.779775
1536.05, 0.780091
1536.5, 0.780931
1536.96, 0.781457
1537.41, 0.781457
1537.87, 0.781352
1538.32, 0.781247
1538.78, 0.781877
1539.24, 0.782403
1539.7, 0.782718
1540.15, 0.783033
1540.61, 0.783559
1541.07, 0.783454
1541.53, 0.783454
1541.98, 0.783559
1542.44, 0.784084
1542.9, 0.784820
1543.36, 0.785765
1543.82, 0.785555
1544.28, 0.785240
1544.74, 0.785555
1545.2, 0.785976
1545.66, 0.786291
1546.12, 0.786606
1546.59, 0.787027
1547.05, 0.787762
1547.51, 0.787972
1547.97, 0.787657
1548.43, 0.787447
1548.9, 0.787972
1549.36, 0.788393
1549.82, 0.788813
1550.29, 0.788918
1550.75, 0.789234
1551.21, 0.789864
1551.68, 0.790390
1552.14, 0.790495
1552.61, 0.791020
1553.07, 0.791125
1553.54, 0.791335
1554.0, 0.791546
1554.47, 0.791966
1554.93, 0.791861
1555.4, 0.792176
1555.87, 0.792807
1556.34, 0.793122
1556.8, 0.792807
1557.27, 0.793332
1557.74, 0.794173
1558.21, 0.794803
1558.68, 0.795224
1559.14, 0.795329
1559.61, 0.795224
1560.08, 0.795539
1560.55, 0.796275
1561.02, 0.796590
1561.49, 0.797115
1561.96, 0.797115
1562.43, 0.797220
1562.9, 0.798061
1563.38, 0.798271
1563.85, 0.798166
1564.32, 0.798587
1564.79, 0.799427
1565.26, 0.799217
1565.74, 0.799638
1566.21, 0.799532
1566.68, 0.799638
1567.16, 0.799953
1567.63, 0.800163
1568.1, 0.800268
1568.58, 0.801214
1569.05, 0.801424
1569.53, 0.801214
1570.0, 0.801424
1570.48, 0.801950
1570.96, 0.802160
1571.43, 0.802580
1571.91, 0.803106
1572.39, 0.803631
1572.86, 0.803631
1573.34, 0.803631
1573.82, 0.803946
1574.3, 0.804577
1574.77, 0.804472
1575.25, 0.804787
1575.73, 0.804787
1576.21, 0.804997
1576.69, 0.805733
1577.17, 0.806153
1577.65, 0.806153
1578.13, 0.806258
1578.61, 0.806889
1579.09, 0.807414
1579.57, 0.807099
1580.05, 0.807204
1580.54, 0.807204
1581.02, 0.807204
1581.5, 0.807204
1581.98, 0.807835
1582.47, 0.808045
1582.95, 0.808675
1583.43, 0.808570
1583.92, 0.808886
1584.4, 0.809306
1584.88, 0.809831
1585.37, 0.809831
1585.85, 0.809831
1586.34, 0.810042
1586.82, 0.809936
1587.31, 0.810042
1587.8, 0.810567
1588.28, 0.810567
1588.77, 0.810672
1589.26, 0.810672
1589.74, 0.810672
1590.23, 0.811303
1590.72, 0.811303
1591.21, 0.811303
1591.7, 0.812038
1592.19, 0.812354
1592.67, 0.812143
1593.16, 0.811933
1593.65, 0.812248
1594.14, 0.812564
1594.63, 0.812774
1595.12, 0.813089
1595.61, 0.812774
1596.11, 0.812984
1596.6, 0.813720
1597.09, 0.813510
1597.58, 0.813615
1598.08, 0.813825
1598.57, 0.814140
1599.06, 0.815086
1599.55, 0.815191
1600.05, 0.815086
1600.54, 0.815401
1601.04, 0.815611
1601.53, 0.815611
1602.03, 0.815927
1602.52, 0.816347
1603.02, 0.816452
1603.51, 0.816452
1604.01, 0.816872
1604.5, 0.817293
1605.0, 0.817293
1605.5, 0.817293
1606.0, 0.817398
1606.49, 0.817713
1606.99, 0.817398
1607.49, 0.816662
1607.99, 0.816662
1608.49, 0.817398
1608.99, 0.817923
1609.49, 0.818449
1609.99, 0.818869
1610.49, 0.819079
1610.99, 0.819185
1611.49, 0.819395
1611.99, 0.819079
1612.49, 0.819605
1612.99, 0.819815
1613.49, 0.819290
1614.0, 0.819500
1614.5, 0.820341
1615.0, 0.820866
1615.51, 0.821076
1616.01, 0.820971
1616.51, 0.821497
1617.02, 0.821707
1617.52, 0.822022
1618.03, 0.822022
1618.53, 0.822442
1619.04, 0.823178
1619.54, 0.823703
1620.05, 0.823598
1620.55, 0.823388
1621.06, 0.823703
1621.57, 0.824229
1622.08, 0.824229
1622.58, 0.824124
1623.09, 0.824544
1623.6, 0.824649
1624.11, 0.825175
1624.62, 0.825490
1625.13, 0.825385
1625.64, 0.825490
1626.15, 0.825700
1626.66, 0.826015
1627.17, 0.826226
1627.68, 0.826331
1628.19, 0.826646
1628.7, 0.826961
1629.21, 0.827382
1629.72, 0.827487
1630.24, 0.827487
1630.75, 0.827907
1631.26, 0.828012
1631.78, 0.828117
1632.29, 0.828222
1632.8, 0.828643
1633.32, 0.828538
1633.83, 0.828222
1634.35, 0.828117
1634.86, 0.829168
1635.38, 0.829378
1635.9, 0.829693
1636.41, 0.829904
1636.93, 0.830114
1637.45, 0.830324
1637.96, 0.830850
1638.48, 0.830534
1639.0, 0.830639
1639.52, 0.830429
1640.04, 0.830745
1640.56, 0.831060
1641.08, 0.831480
1641.59, 0.832006
1642.11, 0.832006
1642.63, 0.831690
1643.16, 0.831480
1643.68, 0.831585
1644.2, 0.831900
1644.72, 0.832531
1645.24, 0.832846
1645.76, 0.832741
1646.29, 0.832846
1646.81, 0.832951
1647.33, 0.833057
1647.86, 0.832846
1648.38, 0.832951
1648.9, 0.833057
1649.43, 0.832741
1649.95, 0.832951
1650.48, 0.833477
1651.0, 0.833582
1651.53, 0.834212
1652.06, 0.834318
1652.58, 0.834212
1653.11, 0.833897
1653.64, 0.833792
1654.17, 0.833687
1654.69, 0.833687
1655.22, 0.834107
1655.75, 0.834738
1656.28, 0.834633
1656.81, 0.834633
1657.34, 0.834212
1657.87, 0.834528
1658.4, 0.834843
1658.93, 0.835158
1659.46, 0.835158
1659.99, 0.835158
1660.52, 0.835474
1661.05, 0.835999
1661.59, 0.835684
1662.12, 0.835999
1662.65, 0.835999
1663.19, 0.835474
1663.72, 0.835474
1664.26, 0.835684
1664.79, 0.836209
1665.32, 0.836630
1665.86, 0.836524
1666.39, 0.836524
1666.93, 0.836735
1667.47, 0.836314
1668.0, 0.836419
1668.54, 0.836945
1669.08, 0.837365
1669.61, 0.837681
1670.15, 0.837681
1670.69, 0.837575
1671.23, 0.837681
1671.77, 0.838206
1672.31, 0.838206
1672.85, 0.837996
1673.39, 0.837786
1673.93, 0.837575
1674.47, 0.837891
1675.01, 0.837996
1675.55, 0.838416
1676.09, 0.838942
1676.64, 0.838731
1677.18, 0.838416
1677.72, 0.838731
1678.26, 0.838836
1678.81, 0.839152
1679.35, 0.839152
1679.89, 0.838521
1680.44, 0.838942
1680.98, 0.839677
1681.53, 0.839467
1682.07, 0.839362
1682.62, 0.839572
1683.17, 0.839782
1683.71, 0.840413
1684.26, 0.840413
1684.81, 0.840203
1685.36, 0.840203
1685.9, 0.840518
1686.45, 0.841043
1687.0, 0.841043
1687.55, 0.840518
1688.1, 0.840938
1688.65, 0.841149
1689.2, 0.841464
1689.75, 0.841674
1690.3, 0.841569
1690.85, 0.841779
1691.41, 0.841989
1691.96, 0.841779
1692.51, 0.842199
1693.06, 0.842935
1693.61, 0.842725
1694.17, 0.842725
1694.72, 0.842830
1695.28, 0.843250
1695.83, 0.843355
1696.39, 0.842830
1696.94, 0.843355
1697.5, 0.843671
1698.05, 0.844301
1698.61, 0.844722
1699.17, 0.844722
1699.72, 0.844932
1700.28, 0.845142
1700.84, 0.845352
1701.4, 0.845142
1701.95, 0.844932
1702.51, 0.845037
1703.07, 0.844722
1703.63, 0.844722
1704.19, 0.845037
1704.75, 0.845772
1705.31, 0.845878
1705.88, 0.845667
1706.44, 0.845562
1707.0, 0.845983
1707.56, 0.845983
1708.12, 0.845983
1708.69, 0.846088
1709.25, 0.846193
1709.81, 0.846193
1710.38, 0.846193
1710.94, 0.846508
1711.51, 0.846823
1712.07, 0.846718
1712.64, 0.847034
1713.2, 0.847139
1713.77, 0.847034
1714.34, 0.846718
1714.9, 0.846613
1715.47, 0.846613
1716.04, 0.846928
1716.61, 0.847244
1717.18, 0.846823
1717.74, 0.846613
1718.31, 0.847034
1718.88, 0.847559
1719.45, 0.847454
1720.02, 0.846718
1720.59, 0.847034
1721.17, 0.847454
1721.74, 0.847454
1722.31, 0.847349
1722.88, 0.847664
1723.45, 0.848190
1724.03, 0.848084
1724.6, 0.847454
1725.18, 0.847349
1725.75, 0.848084
1726.33, 0.847979
1726.9, 0.847244
1727.48, 0.847034
1728.05, 0.846613
1728.63, 0.846928
1729.2, 0.847349
1729.78, 0.847664
1730.36, 0.847769
1730.94, 0.847349
1731.51, 0.847034
1732.09, 0.847244
1732.67, 0.846928
1733.25, 0.846613
1733.83, 0.846718
1734.41, 0.847349
1734.99, 0.847349
1735.57, 0.847349
1736.15, 0.847559
1736.73, 0.847139
1737.32, 0.846823
1737.9, 0.846928
1738.48, 0.847034
1739.07, 0.846823
1739.65, 0.846718
1740.23, 0.847349
1740.82, 0.847664
1741.4, 0.847559
1741.99, 0.847454
1742.57, 0.847979
1743.16, 0.847874
1743.74, 0.847559
1744.33, 0.847559
1744.92, 0.847874
1745.51, 0.847349
1746.09, 0.847769
1746.68, 0.847874
1747.27, 0.847559
1747.86, 0.847349
1748.45, 0.847244
1749.04, 0.847139
1749.63, 0.846823
1750.22, 0.846613
1750.81, 0.846508
1751.4, 0.847139
1751.99, 0.847349
1752.59, 0.847139
1753.18, 0.846928
1753.77, 0.846718
1754.37, 0.846613
1754.96, 0.846928
1755.56, 0.847139
1756.15, 0.847139
1756.74, 0.846928
1757.34, 0.846088
1757.94, 0.845983
1758.53, 0.846718
1759.13, 0.847244
1759.73, 0.846613
1760.32, 0.846718
1760.92, 0.847244
1761.52, 0.847244
1762.12, 0.847139
1762.72, 0.846613
1763.32, 0.846403
1763.92, 0.846928
1764.52, 0.846823
1765.12, 0.846718
1765.72, 0.847034
1766.32, 0.847034
1766.92, 0.846823
1767.53, 0.846823
1768.13, 0.846823
1768.73, 0.846823
1769.34, 0.846718
1769.94, 0.847139
1770.55, 0.847139
1771.15, 0.847034
1771.76, 0.847034
1772.36, 0.846823
1772.97, 0.846928
1773.57, 0.847034
1774.18, 0.846718
1774.79, 0.846508
1775.4, 0.846088
1776.0, 0.846298
1776.61, 0.846718
1777.22, 0.846718
1777.83, 0.846613
1778.44, 0.846403
1779.05, 0.846088
1779.66, 0.846403
1780.27, 0.846718
1780.88, 0.847034
1781.5, 0.847139
1782.11, 0.846928
1782.72, 0.846508
1783.33, 0.846403
1783.95, 0.846298
1784.56, 0.846193
1785.18, 0.846193
1785.79, 0.846088
1786.41, 0.846088
1787.02, 0.845352
1787.64, 0.845037
1788.26, 0.845352
1788.87, 0.845772
1789.49, 0.845352
1790.11, 0.844827
1790.73, 0.845037
1791.35, 0.844932
1791.96, 0.844932
1792.58, 0.845352
1793.21, 0.844827
1793.83, 0.844301
1794.45, 0.844617
1795.07, 0.844617
1795.69, 0.844617
1796.31, 0.844301
1796.93, 0.843986
1797.56, 0.844301
1798.18, 0.844406
1798.8, 0.843776
1799.43, 0.843776
1800.05, 0.843776
1800.68, 0.843566
1801.3, 0.843040
1801.93, 0.842515
1802.56, 0.841989
1803.18, 0.842094
1803.81, 0.842515
1804.44, 0.842620
1805.07, 0.841779
1805.7, 0.841254
1806.33, 0.841359
1806.95, 0.841254
1807.58, 0.840833
1808.22, 0.840623
1808.85, 0.840203
1809.48, 0.839887
1810.11, 0.839362
1810.74, 0.838942
1811.38, 0.839047
1812.01, 0.839257
1812.64, 0.839152
1813.28, 0.838626
1813.91, 0.838206
1814.55, 0.837681
1815.18, 0.836524
1815.82, 0.836419
1816.45, 0.836314
1817.09, 0.835579
1817.73, 0.834948
1818.36, 0.834843
1819.0, 0.835053
1819.64, 0.833687
1820.28, 0.832111
1820.92, 0.832426
1821.56, 0.832636
1822.2, 0.832741
1822.84, 0.832321
1823.48, 0.831690
1824.12, 0.830850
1824.76, 0.830114
1825.41, 0.828432
1826.05, 0.826541
1826.69, 0.827382
1827.34, 0.827907
1827.98, 0.826541
1828.63, 0.825175
1829.27, 0.824019
1829.92, 0.823283
1830.56, 0.821497
1831.21, 0.820551
1831.86, 0.820551
1832.5, 0.819500
1833.15, 0.818554
1833.8, 0.817713
1834.45, 0.816032
1835.1, 0.814245
1835.75, 0.811408
1836.4, 0.810042
1837.05, 0.808991
1837.7, 0.807519
1838.35, 0.807729
1839.01, 0.805943
1839.66, 0.803421
1840.31, 0.803421
1840.96, 0.802160
1841.62, 0.799217
1842.27, 0.799322
1842.93, 0.800058
1843.58, 0.799322
1844.24, 0.799322
1844.9, 0.799217
1845.55, 0.798166
1846.21, 0.795329
1846.87, 0.793017
1847.53, 0.793752
1848.18, 0.794488
1848.84, 0.796275
1849.5, 0.797746
1850.16, 0.798271
1850.82, 0.798587
1851.48, 0.799007
1852.14, 0.798166
1852.81, 0.797326
1853.47, 0.796800
1854.13, 0.798482
1854.8, 0.800794
1855.46, 0.801529
1856.12, 0.801214
1856.79, 0.801950
1857.45, 0.803946
1858.12, 0.805312
1858.79, 0.805418
1859.45, 0.803946
1860.12, 0.805523
1860.79, 0.808150
1861.46, 0.810567
1862.12, 0.812038
1862.79, 0.813089
1863.46, 0.813930
1864.13, 0.814560
1864.8, 0.816032
1865.48, 0.817818
1866.15, 0.818869
1866.82, 0.818764
1867.49, 0.817608
1868.16, 0.819500
1868.84, 0.821391
1869.51, 0.821602
1870.19, 0.820130
1870.86, 0.819605
1871.54, 0.823073
1872.21, 0.823178
1872.89, 0.821391
1873.56, 0.823073
1874.24, 0.825175
1874.92, 0.825595
1875.6, 0.826015
1876.28, 0.825490
1876.96, 0.825175
1877.64, 0.826541
1878.32, 0.827276
1879.0, 0.827382
1879.68, 0.826856
1880.36, 0.826226
1881.04, 0.825910
1881.73, 0.825805
1882.41, 0.825175
1883.09, 0.824229
1883.78, 0.822127
1884.46, 0.822022
1885.15, 0.822022
1885.83, 0.821917
1886.52, 0.820761
1887.21, 0.820130
1887.89, 0.819500
1888.58, 0.818449
1889.27, 0.816347
1889.96, 0.813930
1890.65, 0.813720
1891.34, 0.813089
1892.03, 0.811408
1892.72, 0.810147
1893.41, 0.808570
1894.1, 0.807204
1894.79, 0.806048
1895.49, 0.804472
1896.18, 0.802580
1896.87, 0.800478
1897.57, 0.798166
1898.26, 0.796064
1898.96, 0.792386
1899.65, 0.789969
1900.35, 0.789654
1901.05, 0.789339
1901.74, 0.787552
1902.44, 0.783979
1903.14, 0.782508
1903.84, 0.782087
1904.54, 0.779040
1905.24, 0.776202
1905.94, 0.774731
1906.64, 0.772944
1907.34, 0.772209
1908.04, 0.771053
1908.75, 0.768846
1909.45, 0.766849
1910.15, 0.764642
1910.86, 0.762330
1911.56, 0.760439
1912.27, 0.759388
1912.97, 0.756340
1913.68, 0.753923
1914.39, 0.753292
1915.09, 0.752452
1915.8, 0.750875
1916.51, 0.750140
1917.22, 0.749089
1917.93, 0.747407
1918.64, 0.745516
1919.35, 0.742783
1920.06, 0.739946
1920.77, 0.739105
1921.48, 0.739736
1922.19, 0.739210
1922.91, 0.737949
1923.62, 0.736268
1924.33, 0.735112
1925.05, 0.733956
1925.76, 0.732695
1926.48, 0.731328
1927.19, 0.730172
1927.91, 0.729016
1928.63, 0.727966
1929.35, 0.727230
1930.07, 0.726179
1930.78, 0.725233
1931.5, 0.724813
1932.22, 0.724287
1932.94, 0.723867
1933.66, 0.723131
1934.39, 0.722816
1935.11, 0.722291
1935.83, 0.721345
1936.55, 0.721450
1937.28, 0.721660
1938.0, 0.721555
1938.73, 0.721450
1939.45, 0.722080
1940.18, 0.723236
1940.9, 0.723552
1941.63, 0.723657
1942.36, 0.724077
1943.09, 0.724497
1943.81, 0.724813
1944.54, 0.724708
1945.27, 0.725128
1946.0, 0.725443
1946.73, 0.725864
1947.47, 0.726179
1948.2, 0.726284
1948.93, 0.726284
1949.66, 0.726494
1950.4, 0.727125
1951.13, 0.727440
1951.86, 0.727020
1952.6, 0.726704
1953.34, 0.726810
1954.07, 0.726704
1954.81, 0.726704
1955.55, 0.726915
1956.29, 0.726915
1957.02, 0.727020
1957.76, 0.726494
1958.5, 0.726179
1959.24, 0.726179
1959.98, 0.726389
1960.72, 0.726389
1961.47, 0.725864
1962.21, 0.725758
1962.95, 0.726284
1963.7, 0.726179
1964.44, 0.725969
1965.18, 0.725653
1965.93, 0.725653
1966.67, 0.725969
1967.42, 0.725864
1968.17, 0.725548
1968.92, 0.725653
1969.66, 0.725548
1970.41, 0.725653
1971.16, 0.725443
1971.91, 0.725233
1972.66, 0.725338
1973.41, 0.725653
1974.16, 0.725338
1974.92, 0.725548
1975.67, 0.726179
1976.42, 0.726704
1977.18, 0.726810
1977.93, 0.726494
1978.69, 0.726704
1979.44, 0.726704
1980.2, 0.726810
1980.95, 0.727020
1981.71, 0.727125
1982.47, 0.727545
1983.23, 0.727440
1983.99, 0.727755
1984.74, 0.727755
1985.51, 0.727966
1986.27, 0.728491
1987.03, 0.729016
1987.79, 0.728911
1988.55, 0.729227
1989.32, 0.729542
1990.08, 0.729542
1990.84, 0.729857
1991.61, 0.729962
1992.37, 0.729962
1993.14, 0.730383
1993.9, 0.730908
1994.67, 0.731223
1995.44, 0.731328
1996.21, 0.731644
1996.98, 0.732064
1997.75, 0.732379
1998.52, 0.732800
1999.29, 0.733220
2000.06, 0.733430
2000.83, 0.733115
2001.6, 0.733430
2002.38, 0.734166
2003.15, 0.734376
2003.93, 0.734376
2004.7, 0.734481
2005.48, 0.734796
2006.25, 0.735217
2007.03, 0.736057
2007.81, 0.736373
2008.58, 0.736268
2009.36, 0.736373
2010.14, 0.736583
2010.92, 0.737108
2011.7, 0.737319
2012.48, 0.737319
2013.26, 0.737529
2014.05, 0.737949
2014.83, 0.738159
2015.61, 0.738475
2016.4, 0.738475
2017.18, 0.738369
2017.97, 0.738790
2018.75, 0.739420
2019.54, 0.739736
2020.32, 0.739841
2021.11, 0.740261
2021.9, 0.740471
2022.69, 0.740681
2023.48, 0.740787
2024.27, 0.741102
2025.06, 0.741102
2025.85, 0.741312
2026.64, 0.741732
2027.44, 0.741837
2028.23, 0.741627
2029.02, 0.741732
2029.82, 0.741943
2030.61, 0.741943
2031.41, 0.741943
2032.2, 0.742363
2033.0, 0.742573
2033.8, 0.742783
2034.6, 0.742573
2035.4, 0.742783
2036.2, 0.742888
2037.0, 0.742783
2037.8, 0.742888
2038.6, 0.743099
2039.4, 0.743414
2040.2, 0.743204
2041.01, 0.743204
2041.81, 0.743624
2042.61, 0.744044
2043.42, 0.744465
2044.22, 0.744570
2045.03, 0.744465
2045.84, 0.744570
2046.65, 0.744570
2047.46, 0.744675
2048.26, 0.744885
2049.07, 0.744780
2049.88, 0.744990
2050.69, 0.745200
2051.51, 0.745516
2052.32, 0.745411
2053.13, 0.745516
2053.94, 0.745516
2054.76, 0.746041
2055.57, 0.746041
2056.39, 0.745936
2057.2, 0.746146
2058.02, 0.746672
2058.84, 0.746987
2059.66, 0.746987
2060.48, 0.747092
2061.29, 0.747302
2062.11, 0.747302
2062.94, 0.747197
2063.76, 0.747407
2064.58, 0.747617
2065.4, 0.747723
2066.22, 0.748248
2067.05, 0.748879
2067.87, 0.748879
2068.7, 0.748563
2069.52, 0.748984
2070.35, 0.749194
2071.18, 0.748984
2072.0, 0.749089
2072.83, 0.749299
2073.66, 0.749194
2074.49, 0.749404
2075.32, 0.749194
2076.15, 0.749089
2076.98, 0.749299
2077.82, 0.749824
2078.65, 0.750560
2079.48, 0.750665
2080.32, 0.750245
2081.15, 0.750350
2081.99, 0.750875
2082.83, 0.751086
2083.66, 0.751086
2084.5, 0.751086
2085.34, 0.751296
2086.18, 0.751401
2087.02, 0.751926
2087.86, 0.752136
2088.7, 0.751926
2089.54, 0.752031
2090.39, 0.752347
2091.23, 0.752347
2092.07, 0.752347
2092.92, 0.752347
2093.76, 0.752872
2094.61, 0.753292
2095.45, 0.753187
2096.3, 0.753187
2097.15, 0.753292
2098.0, 0.753187
2098.85, 0.753503
2099.7, 0.754133
2100.55, 0.754343
2101.4, 0.754238
2102.25, 0.754343
2103.1, 0.754659
2103.96, 0.754659
2104.81, 0.754869
2105.67, 0.754974
2106.52, 0.755499
2107.38, 0.755604
2108.24, 0.755289
2109.09, 0.755079
2109.95, 0.755184
2110.81, 0.755289
2111.67, 0.755394
2112.53, 0.755499
2113.39, 0.755920
2114.25, 0.756235
2115.12, 0.756235
2115.98, 0.755920
2116.84, 0.756025
2117.71, 0.756130
2118.58, 0.756340
2119.44, 0.756445
2120.31, 0.756130
2121.18, 0.756130
2122.04, 0.756550
2122.91, 0.756235
2123.78, 0.755920
2124.65, 0.755920
2125.52, 0.756235
2126.4, 0.756340
2127.27, 0.756550
2128.14, 0.756445
2129.02, 0.756550
2129.89, 0.756445
2130.77, 0.756445
2131.64, 0.756445
2132.52, 0.756550
2133.4, 0.756025
2134.27, 0.755710
2135.15, 0.755807
2136.03, 0.755514
2136.91, 0.754732
2137.79, 0.753853
2138.68, 0.753853
2139.56, 0.754244
2140.44, 0.753853
2141.33, 0.753365
2142.21, 0.754244
2143.1, 0.754146
2143.99, 0.754830
2144.87, 0.754928
2145.76, 0.754244
2146.65, 0.753560
2147.54, 0.752974
2148.43, 0.752779
2149.32, 0.751899
2150.21, 0.750922
2151.1, 0.751215
2151.99, 0.752095
2152.89, 0.752388
2153.78, 0.751802
2154.68, 0.751215
2155.57, 0.751997
2156.47, 0.752095
2157.37, 0.751802
2158.27, 0.751020
2159.16, 0.750629
2160.06, 0.751313
2160.96, 0.750434
2161.86, 0.749164
2162.77, 0.748871
2163.67, 0.749945
2164.57, 0.750727
2165.48, 0.750043
2166.38, 0.749554
2167.29, 0.750043
2168.2, 0.749847
2169.1, 0.749945
2170.01, 0.748480
2170.92, 0.747698
2171.83, 0.748284
2172.74, 0.747503
2173.65, 0.747014
2174.56, 0.746330
2175.47, 0.747014
2176.39, 0.746526
2177.3, 0.745353
2178.22, 0.745549
2179.13, 0.745646
2180.05, 0.744474
2180.96, 0.743008
2181.88, 0.743790
2182.8, 0.744669
2183.72, 0.743399
2184.64, 0.742422
2185.56, 0.742422
2186.48, 0.742422
2187.41, 0.742520
2188.33, 0.741738
2189.25, 0.740761
2190.18, 0.739882
2191.1, 0.739198
2192.03, 0.739687
2192.96, 0.740078
2193.89, 0.739198
2194.82, 0.738710
2195.74, 0.737830
2196.68, 0.737146
2197.61, 0.737146
2198.54, 0.736853
2199.47, 0.735290
2200.4, 0.734215
2201.34, 0.733922
2202.28, 0.733629
2203.21, 0.732261
2204.15, 0.731382
2205.08, 0.731382
2206.02, 0.730796
2206.96, 0.730112
2207.9, 0.729135
2208.84, 0.728256
2209.78, 0.727767
2210.73, 0.727377
2211.67, 0.726595
2212.61, 0.725227
2213.56, 0.724739
2214.5, 0.723957
2215.45, 0.723762
2216.4, 0.722882
2217.35, 0.720928
2218.3, 0.719951
2219.24, 0.720049
2220.2, 0.719951
2221.15, 0.719365
2222.1, 0.718290
2223.05, 0.717411
2224.0, 0.716532
2224.96, 0.714969
2225.91, 0.712917
2226.87, 0.711744
2227.83, 0.710768
2228.79, 0.710181
2229.74, 0.708618
2230.7, 0.707446
2231.66, 0.706762
2232.63, 0.706371
2233.59, 0.704906
2234.55, 0.702756
2235.51, 0.701388
2236.48, 0.699630
2237.44, 0.698555
2238.41, 0.697578
2239.38, 0.695819
2240.34, 0.694256
2241.31, 0.692693
2242.28, 0.691227
2243.25, 0.690055
2244.22, 0.687906
2245.19, 0.686538
2246.17, 0.685170
2247.14, 0.683021
2248.12, 0.680969
2249.09, 0.679406
2250.07, 0.677256
2251.04, 0.675302
2252.02, 0.673446
2253.0, 0.670906
2253.98, 0.668854
2254.96, 0.667486
2255.94, 0.665826
2256.92, 0.663383
2257.91, 0.661429
2258.89, 0.659573
2259.88, 0.657521
2260.86, 0.656739
2261.85, 0.656153
2262.83, 0.655372
2263.82, 0.655274
2264.81, 0.655176
2265.8, 0.655176
2266.79, 0.655078
2267.78, 0.655176
2268.78, 0.655469
2269.77, 0.656153
2270.76, 0.657814
2271.76, 0.658400
2272.75, 0.659084
2273.75, 0.660843
2274.75, 0.661722
2275.75, 0.662601
2276.75, 0.664555
2277.75, 0.666509
2278.75, 0.667975
2279.75, 0.669538
2280.75, 0.670906
2281.76, 0.673153
2282.76, 0.675889
2283.77, 0.678331
2284.77, 0.680090
2285.78, 0.681164
2286.79, 0.682728
2287.8, 0.684779
2288.81, 0.687222
2289.82, 0.688785
2290.83, 0.689957
2291.84, 0.691423
2292.86, 0.692791
2293.87, 0.694647
2294.89, 0.696503
2295.91, 0.698653
2296.92, 0.700704
2297.94, 0.701877
2298.96, 0.702561
2299.98, 0.703538
2301.0, 0.704515
2302.02, 0.706273
2303.04, 0.707641
2304.07, 0.708227
2305.09, 0.709107
2306.12, 0.710474
2307.15, 0.711451
2308.17, 0.712624
2309.2, 0.713992
2310.23, 0.715457
2311.26, 0.715946
2312.29, 0.715652
2313.32, 0.716727
2314.35, 0.718193
2315.39, 0.718681
2316.42, 0.719267
2317.46, 0.719561
2318.5, 0.719561
2319.53, 0.719756
2320.57, 0.720635
2321.61, 0.721026
2322.65, 0.720733
2323.69, 0.720342
2324.73, 0.720733
2325.78, 0.721221
2326.82, 0.721026
2327.86, 0.721515
2328.91, 0.722101
2329.96, 0.721515
2331.01, 0.720928
2332.05, 0.721221
2333.1, 0.721124
2334.15, 0.720635
2335.21, 0.718974
2336.26, 0.718877
2337.31, 0.719365
2338.36, 0.719658
2339.42, 0.719072
2340.48, 0.717802
2341.53, 0.716923
2342.59, 0.716239
2343.65, 0.715750
2344.71, 0.715262
2345.77, 0.715066
2346.83, 0.714480
2347.9, 0.713015
2348.96, 0.711940
2350.02, 0.711647
2351.09, 0.710670
2352.16, 0.709204
2353.23, 0.708423
2354.29, 0.707934
2355.36, 0.706469
2356.43, 0.705394
2357.51, 0.704222
2358.58, 0.703147
2359.65, 0.701877
2360.73, 0.700998
2361.8, 0.699825
2362.88, 0.698360
2363.96, 0.696503
2365.03, 0.694549
2366.11, 0.693279
2367.19, 0.692595
2368.27, 0.691325
2369.36, 0.689664
2370.44, 0.687808
2371.53, 0.686440
2372.61, 0.685268
2373.7, 0.683607
2374.78, 0.682044
2375.87, 0.680187
2376.96, 0.678429
2378.05, 0.677354
2379.14, 0.675596
2380.24, 0.673446
2381.33, 0.671199
2382.42, 0.669636
2383.52, 0.668073
2384.61, 0.666705
2385.71, 0.663969
2386.81, 0.661331
2387.91, 0.659475
2389.01, 0.657814
2390.11, 0.656446
2391.22, 0.654297
2392.32, 0.651561
2393.42, 0.649119
2394.53, 0.647360
2395.64, 0.645797
2396.74, 0.643843
2397.85, 0.641694
2398.96, 0.639251
2400.07, 0.637199
2401.18, 0.635343
2402.3, 0.633194
2403.41, 0.631337
2404.52, 0.629383
2405.64, 0.627527
2406.76, 0.625378
2407.88, 0.622935
2408.99, 0.621372
2410.11, 0.619907
2411.23, 0.618050
2412.36, 0.616292
2413.48, 0.614631
2414.6, 0.612481
2415.73, 0.610039
2416.85, 0.608183
2417.98, 0.607108
2419.11, 0.605935
2420.24, 0.604470
2421.37, 0.602027
2422.5, 0.600073
2423.64, 0.597729
2424.77, 0.596068
2425.9, 0.594993
2427.04, 0.593821
2428.18, 0.591671
2429.31, 0.589717
2430.45, 0.588545
2431.59, 0.587079
2432.73, 0.585516
2433.88, 0.584246
2435.02, 0.582292
2436.16, 0.580631
2437.31, 0.579068
2438.45, 0.578189
2439.6, 0.576821
2440.75, 0.574574
2441.9, 0.572522
2443.05, 0.571545
2444.2, 0.570666
2445.35, 0.569786
2446.51, 0.569005
2447.67, 0.567442
2448.82, 0.565488
2449.98, 0.564022
2451.14, 0.562459
2452.3, 0.561580
2453.46, 0.560993
2454.62, 0.559919
2455.78, 0.558356
2456.94, 0.557378
2458.11, 0.555718
2459.28, 0.554448
2460.44, 0.553764
2461.61, 0.552787
2462.78, 0.551712
2463.95, 0.550637
2465.12, 0.549660
2466.3, 0.548585
2467.47, 0.547608
2468.65, 0.546632
2469.82, 0.545655
2471.0, 0.545166
2472.18, 0.545068
2473.36, 0.544482
2474.54, 0.543505
2475.72, 0.542919
2476.9, 0.542333
2478.08, 0.541746
2479.27, 0.540867
2480.46, 0.539988
2481.64, 0.539304
2482.83, 0.538815
2484.02, 0.538229
2485.21, 0.537350
2486.4, 0.536178
2487.6, 0.534908
2488.79, 0.533344
2489.99, 0.532270
2491.18, 0.531390
2492.38, 0.530023
2493.58, 0.529143
2494.78, 0.528362
2495.98, 0.526994
2497.18, 0.525919
2498.39, 0.524551
2499.59, 0.523281
2500.8, 0.522207
2502.01, 0.520741
2503.21, 0.519764
2504.42, 0.519080
2505.63, 0.517712
2506.84, 0.516247
2508.06, 0.515368
2509.27, 0.513902
2510.49, 0.513218
2511.7, 0.512730
2512.92, 0.511460
2514.14, 0.510482
2515.36, 0.509994
2516.58, 0.509506
2517.8, 0.508822
2519.03, 0.508333
2520.25, 0.508040
2521.48, 0.507552
2522.7, 0.507356
2523.93, 0.507356
2525.16, 0.507161
2526.39, 0.506184
2527.62, 0.505988
2528.86, 0.505891
2530.09, 0.505109
2531.33, 0.505011
2532.56, 0.505500
2533.8, 0.505891
2535.04, 0.505109
2536.28, 0.505207
2537.52, 0.505500
2538.76, 0.505402
2540.01, 0.504914
2541.25, 0.503644
2542.5, 0.502667
2543.75, 0.502960
2544.99, 0.503057
2546.24, 0.502862
2547.49, 0.501885
2548.75, 0.501689
2550.0, 0.501006
2551.26, 0.500126
2552.51, 0.499540
2553.77, 0.500419
2555.03, 0.500908
2556.29, 0.500810
2557.55, 0.500029
2558.81, 0.498465
2560.08, 0.495144
2561.34, 0.492408
2562.61, 0.491822
2563.88, 0.492115
2565.14, 0.493092
2566.41, 0.494167
2567.68, 0.492799
2568.96, 0.489379
2570.23, 0.488598
2571.51, 0.489086
2572.78, 0.485862
2574.06, 0.485178
2575.34, 0.484201
2576.62, 0.482052
2577.9, 0.482540
2579.18, 0.482443
2580.47, 0.479609
2581.75, 0.478046
2583.04, 0.474431
2584.32, 0.473454
2585.61, 0.474236
2586.9, 0.472282
2588.2, 0.471793
2589.49, 0.471989
2590.78, 0.471598
2592.08, 0.468765
2593.37, 0.461144
2594.67, 0.455380
2595.97, 0.459483
2597.27, 0.463782
2598.57, 0.464564
2599.88, 0.462707
2601.18, 0.460265
2602.49, 0.458604
2603.79, 0.456161
2605.1, 0.453719
2606.41, 0.453621
2607.72, 0.454794
2609.03, 0.454891
2610.35, 0.455282
2611.66, 0.455282
2612.98, 0.454110
2614.3, 0.453719
2615.62, 0.450006
2616.94, 0.448443
2618.26, 0.450495
2619.58, 0.448541
2620.91, 0.449811
2622.23, 0.452839
2623.56, 0.453230
2624.89, 0.451863
2626.22, 0.449518
2627.55, 0.450983
2628.88, 0.449615
2630.21, 0.447661
2631.55, 0.450592
2632.89, 0.451863
2634.22, 0.452253
2635.56, 0.453914
2636.9, 0.454500
2638.25, 0.454696
2639.59, 0.454696
2640.93, 0.454794
2642.28, 0.455087
2643.63, 0.454989
2644.98, 0.453914
2646.33, 0.454403
2647.68, 0.455868
2649.03, 0.456552
2650.39, 0.455966
2651.74, 0.454403
2653.1, 0.454696
2654.46, 0.455282
2655.82, 0.455575
2657.18, 0.456845
2658.54, 0.455575
2659.9, 0.454794
2661.27, 0.455282
2662.64, 0.455477
2664.01, 0.451569
2665.38, 0.448541
2666.74, 0.448736
2668.12, 0.450983
2669.49, 0.447368
2670.87, 0.447661
2672.24, 0.452644
2673.62, 0.453035
2675.0, 0.450299
2676.38, 0.447173
2677.76, 0.446880
2679.15, 0.447661
2680.54, 0.449908
2681.92, 0.449225
2683.31, 0.447173
2684.7, 0.446391
2686.09, 0.445707
2687.48, 0.445024
2688.88, 0.444046
2690.27, 0.442483
2691.67, 0.440041
2693.07, 0.435547
2694.47, 0.433104
2695.87, 0.433397
2697.27, 0.433495
2698.67, 0.431150
2700.08, 0.427242
2701.49, 0.424116
2702.9, 0.422552
2704.31, 0.419719
2705.72, 0.416593
2707.13, 0.412001
2708.54, 0.405944
2709.96, 0.400277
2711.38, 0.397541
2712.8, 0.396271
2714.22, 0.393536
2715.64, 0.388846
2717.06, 0.382886
2718.49, 0.376438
2719.91, 0.368329
2721.34, 0.364128
2722.77, 0.360024
2724.2, 0.353283
2725.63, 0.349082
2727.07, 0.344979
2728.5, 0.339508
2729.94, 0.333646
2731.38, 0.327002
2732.82, 0.319674
2734.26, 0.312152
2735.7, 0.305703
2737.15, 0.299255
2738.59, 0.290560
2740.04, 0.282548
2741.49, 0.277175
2742.94, 0.273365
2744.39, 0.267991
2745.84, 0.261836
2747.3, 0.255486
2748.76, 0.249721
2750.21, 0.243273
2751.67, 0.236727
2753.14, 0.229693
2754.6, 0.221779
2756.06, 0.216503
2757.53, 0.213084
2759.0, 0.207710
2760.46, 0.201360
2761.94, 0.194814
2763.41, 0.189440
2764.88, 0.184555
2766.36, 0.178791
2767.83, 0.173027
2769.31, 0.167751
2770.79, 0.162475
2772.27, 0.157981
2773.76, 0.152901
2775.24, 0.147332
2776.73, 0.141470
2778.22, 0.136096
2779.71, 0.129941
2781.2, 0.123395
2782.69, 0.117240
2784.18, 0.111280
2785.68, 0.105516
2787.18, 0.101022
2788.68, 0.0979930
2790.18, 0.0960390
2791.68, 0.0942800
2793.19, 0.0929130
2794.69, 0.0923260
2796.2, 0.0919360
2797.71, 0.0919360
2799.22, 0.0920330
2800.73, 0.0916430
2802.24, 0.0907630
2803.76, 0.0902750
2805.28, 0.0901770
2806.8, 0.0896890
2808.32, 0.0885160
2809.84, 0.0872460
2811.36, 0.0860740
2812.89, 0.0840220
2814.42, 0.0817750
2815.94, 0.0804070
2817.48, 0.0789420
2819.01, 0.0770850
2820.54, 0.0752290
2822.08, 0.0735680
2823.61, 0.0721030
2825.15, 0.0708320
2826.69, 0.0689760
2828.23, 0.0665340
2829.78, 0.0644820
2831.32, 0.0628210
2832.87, 0.0610620
2834.42, 0.0594020
2835.97, 0.0580340
2837.52, 0.0565680
2839.08, 0.0550050
2840.63, 0.0530510
2842.19, 0.0513900
2843.75, 0.0499250
2845.31, 0.0483620
2846.87, 0.0469940
2848.44, 0.0452350
2850.0, 0.0431830
2851.57, 0.0418160
2853.14, 0.0409360
2854.71, 0.0398620
2856.28, 0.0385920
2857.86, 0.0371260
2859.43, 0.0354650
2861.01, 0.0337070
2862.59, 0.0323390
2864.17, 0.0313620
2865.76, 0.0302870
2867.34, 0.0292120
2868.93, 0.0280400
2870.52, 0.0270630
2872.11, 0.0263790
2873.7, 0.0255970
2875.29, 0.0248160
2876.89, 0.0237410
2878.49, 0.0225690
2880.08, 0.0216890
2881.69, 0.0211030
2883.29, 0.0203220
2884.89, 0.0194420
2886.5, 0.0188560
2888.11, 0.0183680
2889.72, 0.0177810
2891.33, 0.0171950
2892.94, 0.0167070
2894.56, 0.0164140
2896.17, 0.0162180
2897.79, 0.0159250
2899.42, 0.0151430
2901.04, 0.0145570
2902.66, 0.0140690
2904.29, 0.0137760
2905.92, 0.0137760
2907.55, 0.0130920
2909.18, 0.0122120
2910.81, 0.0122120
2912.45, 0.0121150
2914.08, 0.0121150
2915.72, 0.0120170
2917.36, 0.0119190
2919.01, 0.0116260
2920.65, 0.0109420
2922.3, 0.0109420
2923.94, 0.0108450
2925.59, 0.0106490
2927.25, 0.0105520
2928.9, 0.0103560
2930.56, 0.0103560
2932.21, 0.0103560
2933.87, 0.0102590
2935.53, 0.0104540
2937.2, 0.0103560
2938.86, 0.0102590
2940.53, 0.0103560
2942.2, 0.0104540
2943.87, 0.0103560
2945.54, 0.0101610
2947.22, 0.00996500
2948.89, 0.0100630
2950.57, 0.0102590
2952.25, 0.0103560
2953.93, 0.0106490
2955.62, 0.0108450
2957.3, 0.0110400
2958.99, 0.0110400
2960.68, 0.0109420
2962.37, 0.0107470
2964.07, 0.0111380
2965.76, 0.0113330
2967.46, 0.0109420
2969.16, 0.0112360
2970.86, 0.0116260
2972.56, 0.0119190
2974.27, 0.0120170
2975.98, 0.0121150
2977.69, 0.0122120
2979.4, 0.0123100
2981.11, 0.0127010
2982.83, 0.0130920
2984.54, 0.0131900
2986.26, 0.0133850
2987.98, 0.0133850
2989.71, 0.0134830
2991.43, 0.0136780
2993.16, 0.0139710
2994.89, 0.0141670
2996.62, 0.0141670
2998.35, 0.0144600
3000.09, 0.0147530
3001.83, 0.0147530
3003.57, 0.0147530
3005.31, 0.0149480
3007.05, 0.0152410
3008.79, 0.0154370
3010.54, 0.0154370
3012.29, 0.0158270
3014.04, 0.0161210
3015.8, 0.0163160
3017.55, 0.0164140
3019.31, 0.0166090
3021.07, 0.0170000
3022.83, 0.0171950
3024.59, 0.0171950
3026.36, 0.0172930
3028.13, 0.0173910
3029.9, 0.0177810
3031.67, 0.0180750
3033.44, 0.0181720
3035.22, 0.0184650
3037.0, 0.0189540
3038.78, 0.0192470
3040.56, 0.0192470
3042.34, 0.0193450
3044.13, 0.0200290
3045.92, 0.0204190
3047.71, 0.0204190
3049.5, 0.0205170
3051.3, 0.0207120
3053.09, 0.0208100
3054.89, 0.0212010
3056.69, 0.0215920
3058.5, 0.0219830
3060.3, 0.0224710
3062.11, 0.0226660
3063.92, 0.0227640
3065.73, 0.0232530
3067.55, 0.0232530
3069.36, 0.0233500
3071.18, 0.0235460
3073.0, 0.0235460
3074.82, 0.0241320
3076.65, 0.0249130
3078.48, 0.0253040
3080.31, 0.0253040
3082.14, 0.0255000
3083.97, 0.0259880
3085.8, 0.0266720
3087.64, 0.0269650
3089.48, 0.0267700
3091.33, 0.0267700
3093.17, 0.0272580
3095.02, 0.0280400
3096.87, 0.0283330
3098.72, 0.0284310
3100.57, 0.0286260
3102.43, 0.0293100
3104.28, 0.0296030
3106.14, 0.0296030
3108.01, 0.0299940
3109.87, 0.0304820
3111.74, 0.0306780
3113.61, 0.0309710
3115.48, 0.0314590
3117.35, 0.0315570
3119.23, 0.0317530
3121.1, 0.0324360
3122.98, 0.0332180
3124.87, 0.0334130
3126.75, 0.0336090
3128.64, 0.0337070
3130.53, 0.0339020
3132.42, 0.0345860
3134.31, 0.0354650
3136.21, 0.0357580
3138.11, 0.0359540
3140.01, 0.0363440
3141.91, 0.0367350
3143.82, 0.0371260
3145.73, 0.0373210
3147.64, 0.0377120
3149.55, 0.0380050
3151.46, 0.0385920
3153.38, 0.0392750
3155.3, 0.0397640
3157.22, 0.0399590
3159.14, 0.0404480
3161.07, 0.0410340
3163.0, 0.0414250
3164.93, 0.0419130
3166.86, 0.0425000
3168.8, 0.0428900
3170.74, 0.0433790
3172.68, 0.0438670
3174.62, 0.0445510
3176.56, 0.0450400
3178.51, 0.0453330
3180.46, 0.0456260
3182.42, 0.0463100
3184.37, 0.0469940
3186.33, 0.0472870
3188.29, 0.0479710
3190.25, 0.0487520
3192.21, 0.0492410
3194.18, 0.0495340
3196.15, 0.0500220
3198.12, 0.0509020
3200.09, 0.0516830
3202.07, 0.0522690
3204.05, 0.0527580
3206.03, 0.0531490
3208.02, 0.0537350
3210.0, 0.0545170
3211.99, 0.0552000
3213.98, 0.0558840
3215.98, 0.0563730
3217.97, 0.0569590
3219.97, 0.0578380
3221.97, 0.0584250
3223.98, 0.0588150
3225.98, 0.0594990
3227.99, 0.0599880
3230.0, 0.0607690
3232.02, 0.0616490
3234.03, 0.0625280
3236.05, 0.0633100
3238.07, 0.0640910
3240.1, 0.0646770
3242.12, 0.0652640
3244.15, 0.0657520
3246.18, 0.0664360
3248.22, 0.0673150
3250.25, 0.0679990
3252.29, 0.0685850
3254.33, 0.0693670
3256.38, 0.0702460
3258.43, 0.0710280
3260.47, 0.0717120
3262.53, 0.0724930
3264.58, 0.0729820
3266.64, 0.0735680
3268.7, 0.0742520
3270.76, 0.0750340
3272.82, 0.0760110
3274.89, 0.0767920
3276.96, 0.0771830
3279.04, 0.0778670
3281.11, 0.0787460
3283.19, 0.0797230
3285.27, 0.0806030
3287.35, 0.0812860
3289.44, 0.0818730
3291.53, 0.0826540
3293.62, 0.0832400
3295.71, 0.0841200
3297.81, 0.0848040
3299.91, 0.0855850
3302.01, 0.0863670
3304.11, 0.0871480
3306.22, 0.0881250
3308.33, 0.0890050
3310.44, 0.0898840
3312.56, 0.0906660
3314.68, 0.0911540
3316.8, 0.0918380
3318.92, 0.0926200
3321.05, 0.0933040
3323.18, 0.0940850
3325.31, 0.0949640
3327.44, 0.0956480
3329.58, 0.0964300
3331.72, 0.0972120
3333.86, 0.0980910
3336.01, 0.0990680
3338.16, 0.100045
3340.31, 0.100533
3342.46, 0.100924
3344.61, 0.101608
3346.77, 0.102487
3348.94, 0.103464
3351.1, 0.104246
3353.27, 0.104832
3355.44, 0.105711
3357.61, 0.106591
3359.79, 0.107372
3361.97, 0.108056
3364.15, 0.108740
3366.33, 0.109522
3368.52, 0.110108
3370.71, 0.111085
3372.9, 0.112062
3375.1, 0.112941
3377.3, 0.113527
3379.5, 0.114211
3381.71, 0.115188
3383.91, 0.115970
3386.12, 0.116556
3388.34, 0.117240
3390.55, 0.118315
3392.77, 0.119487
3394.99, 0.120269
3397.22, 0.120855
3399.45, 0.121734
3401.68, 0.122418
3403.91, 0.123297
3406.15, 0.124274
3408.39, 0.124958
3410.63, 0.125838
3412.87, 0.126619
3415.12, 0.127694
3417.37, 0.128866
3419.63, 0.129257
3421.88, 0.130136
3424.14, 0.131113
3426.41, 0.131993
3428.67, 0.132970
3430.94, 0.133751
3433.21, 0.134533
3435.49, 0.135608
3437.77, 0.136585
3440.05, 0.137562
3442.33, 0.138441
3444.62, 0.139223
3446.91, 0.140297
3449.2, 0.141274
3451.5, 0.141860
3453.8, 0.142740
3456.1, 0.144010
3458.41, 0.145182
3460.72, 0.145964
3463.03, 0.146941
3465.34, 0.147820
3467.66, 0.148797
3469.98, 0.149676
3472.31, 0.150360
3474.63, 0.151240
3476.96, 0.152412
3479.3, 0.153780
3481.64, 0.154659
3483.97, 0.155636
3486.32, 0.156613
3488.66, 0.157786
3491.01, 0.158860
3493.36, 0.160033
3495.72, 0.161303
3498.08, 0.162377
3500.44, 0.163550
3502.81, 0.164722
3505.18, 0.165602
3507.55, 0.166579
3509.92, 0.167751
3512.3, 0.168826
3514.68, 0.169998
3517.06, 0.171073
3519.45, 0.171952
3521.84, 0.173124
3524.24, 0.174297
3526.64, 0.175469
3529.04, 0.176642
3531.44, 0.177521
3533.85, 0.178889
3536.26, 0.180159
3538.67, 0.181429
3541.09, 0.182504
3543.51, 0.183383
3545.93, 0.184458
3548.36, 0.185728
3550.79, 0.187193
3553.22, 0.188366
3555.66, 0.189538
3558.1, 0.190906
3560.54, 0.192176
3562.99, 0.193446
3565.44, 0.194716
3567.9, 0.195986
3570.35, 0.197256
3572.81, 0.198429
3575.28, 0.199308
3577.75, 0.200578
3580.22, 0.202044
3582.69, 0.203509
3585.17, 0.204779
3587.65, 0.206049
3590.14, 0.207319
3592.62, 0.208394
3595.11, 0.209664
3597.61, 0.211032
3600.11, 0.212204
3602.61, 0.213377
3605.11, 0.214842
3607.62, 0.216015
3610.14, 0.217285
3612.65, 0.218848
3615.17, 0.220216
3617.69, 0.221388
3620.22, 0.222854
3622.75, 0.224221
3625.28, 0.225296
3627.82, 0.226176
3630.36, 0.227641
3632.9, 0.229204
3635.45, 0.230279
3638.0, 0.231354
3640.56, 0.232721
3643.12, 0.234187
3645.68, 0.235457
3648.24, 0.236727
3650.81, 0.238095
3653.39, 0.239365
3655.96, 0.240440
3658.54, 0.241612
3661.13, 0.243175
3663.71, 0.244641
3666.3, 0.245813
3668.9, 0.246888
3671.5, 0.248256
3674.1, 0.249623
3676.7, 0.250991
3679.31, 0.252457
3681.93, 0.253532
3684.54, 0.254704
3687.17, 0.256072
3689.79, 0.257537
3692.42, 0.259003
3695.05, 0.260077
3697.69, 0.261348
3700.32, 0.262618
3702.97, 0.263888
3705.61, 0.265158
3708.27, 0.266623
3710.92, 0.267796
3713.58, 0.269066
3716.24, 0.270140
3718.91, 0.271508
3721.58, 0.272974
3724.25, 0.274244
3726.93, 0.275319
3729.61, 0.276491
3732.29, 0.277957
3734.98, 0.279422
3737.67, 0.280594
3740.37, 0.281864
3743.07, 0.283330
3745.78, 0.284796
3748.49, 0.286066
3751.2, 0.287336
3753.91, 0.288313
3756.63, 0.289485
3759.36, 0.290657
3762.09, 0.291830
3764.82, 0.293100
3767.55, 0.294370
3770.29, 0.295543
3773.04, 0.296813
3775.78, 0.297985
3778.54, 0.299060
3781.29, 0.300330
3784.05, 0.301600
3786.82, 0.302479
3789.59, 0.303652
3792.36, 0.304922
3795.13, 0.305996
3797.92, 0.307071
3800.7, 0.308146
3803.49, 0.309221
3806.28, 0.310491
3809.08, 0.311565
3811.88, 0.312445
3814.68, 0.313519
3817.49, 0.314789
3820.31, 0.315864
3823.12, 0.316743
3825.94, 0.317720
3828.77, 0.318600
3831.6, 0.319284
3834.43, 0.320261
3837.27, 0.321140
3840.11, 0.322215
3842.96, 0.323094
3845.81, 0.324169
3848.67, 0.325243
3851.53, 0.326025
3854.39, 0.326807
3857.26, 0.327686
3860.13, 0.328663
3863.01, 0.329444
3865.89, 0.330128
3868.77, 0.331008
3871.66, 0.331789
3874.55, 0.332571
3877.45, 0.333352
3880.35, 0.334134
3883.26, 0.335013
3886.17, 0.335697
3889.09, 0.336381
3892.01, 0.337260
3894.93, 0.337944
3897.86, 0.338531
3900.79, 0.339312
3903.73, 0.339996
3906.67, 0.340680
3909.62, 0.341168
3912.57, 0.341755
3915.52, 0.342536
3918.48, 0.343318
3921.45, 0.343904
3924.42, 0.344295
3927.39, 0.344783
3930.37, 0.345272
3933.35, 0.345858
3936.34, 0.346444
3939.33, 0.346737
3942.32, 0.347128
3945.32, 0.347812
3948.33, 0.348301
3951.34, 0.348691
3954.35, 0.349180
3957.37, 0.349766
3960.39, 0.350157
3963.42, 0.350450
3966.45, 0.350841
3969.49, 0.351231
3972.53, 0.351720
3975.58, 0.352013
3978.63, 0.352306
3981.68, 0.352599
3984.75, 0.352990
3987.81, 0.353479
3990.88, 0.353772
3993.95, 0.354260
3997.03, 0.354749
4000.12, 0.355042
4003.21, 0.355726
4006.3, 0.356312
4009.4, 0.356605
4012.5, 0.356898
4015.61, 0.357191
4018.72, 0.357582
4021.84, 0.358070
4024.96, 0.358559
4028.09, 0.359048
4031.22, 0.359341
4034.36, 0.359829
4037.5, 0.360220
4040.65, 0.360415
4043.8, 0.360806
4046.96, 0.361099
4050.12, 0.361197
4053.29, 0.361490
4056.46, 0.361881
4059.64, 0.361979
4062.82, 0.361979
4066.0, 0.362076
4069.19, 0.362174
4072.39, 0.362369
4075.59, 0.362272
4078.8, 0.362467
4082.01, 0.362565
4085.23, 0.362565
4088.45, 0.362760
4091.68, 0.362760
4094.91, 0.362662
4098.15, 0.362662
4101.39, 0.362760
4104.63, 0.362760
4107.89, 0.362662
4111.14, 0.362369
4114.41, 0.362272
4117.67, 0.362174
4120.95, 0.361783
4124.23, 0.361783
4127.51, 0.361881
4130.8, 0.361685
4134.09, 0.361490
4137.39, 0.361295
4140.7, 0.361002
4144.01, 0.360806
4147.32, 0.360513
4150.64, 0.360122
4153.97, 0.359927
4157.3, 0.359438
4160.64, 0.359048
4163.98, 0.358950
4167.33, 0.358364
4170.68, 0.357777
4174.04, 0.357484
4177.4, 0.357094
4180.77, 0.356507
4184.14, 0.355726
4187.52, 0.355042
4190.91, 0.354260
4194.3, 0.353479
4197.69, 0.352697
4201.1, 0.351915
4204.5, 0.350841
4207.92, 0.349571
4211.34, 0.348203
4214.76, 0.346737
4218.19, 0.345467
4221.62, 0.344393
4225.06, 0.343415
4228.51, 0.342341
4231.96, 0.341266
4235.42, 0.340582
4238.88, 0.339996
4242.35, 0.339605
4245.83, 0.339312
4249.31, 0.339508
4252.79, 0.339801
4256.28, 0.339703
4259.78, 0.338531
4263.29, 0.337163
4266.79, 0.335795
4270.31, 0.334720
4273.83, 0.334134
4277.35, 0.333548
4280.89, 0.332962
4284.42, 0.332473
4287.97, 0.332082
4291.52, 0.331789
4295.07, 0.331692
4298.63, 0.331594
4302.2, 0.331398
4305.78, 0.331398
4309.35, 0.331398
4312.94, 0.331398
4316.53, 0.331301
4320.13, 0.331008
4323.73, 0.330812
4327.34, 0.330617
4330.96, 0.330421
4334.58, 0.330031
4338.21, 0.329835
4341.84, 0.329542
4345.48, 0.328858
4349.12, 0.328370
4352.77, 0.328077
4356.43, 0.327490
4360.1, 0.326807
4363.76, 0.326416
4367.44, 0.325927
4371.12, 0.325243
4374.81, 0.324657
4378.51, 0.324169
4382.21, 0.323485
4385.92, 0.322703
4389.63, 0.321824
4393.35, 0.321238
4397.08, 0.320358
4400.81, 0.319577
4404.55, 0.318795
4408.29, 0.318014
4412.04, 0.316939
4415.8, 0.316157
4419.57, 0.315082
4423.34, 0.314008
4427.12, 0.312835
4430.9, 0.311761
4434.69, 0.310588
4438.49, 0.309221
4442.29, 0.307755
4446.1, 0.306094
4449.92, 0.304531
4453.74, 0.302968
4457.57, 0.301307
4461.41, 0.299744
4465.25, 0.297985
4469.1, 0.296324
4472.95, 0.294663
4476.82, 0.293198
4480.69, 0.291732
4484.56, 0.290364
4488.44, 0.288801
4492.33, 0.287140
4496.23, 0.285577
4500.13, 0.284014
4504.04, 0.282353
4507.96, 0.280790
4511.88, 0.278933
4515.81, 0.276980
4519.75, 0.275123
4523.69, 0.273462
4527.65, 0.271606
4531.6, 0.269652
4535.57, 0.267893
4539.54, 0.266428
4543.52, 0.264865
4547.5, 0.263497
4551.5, 0.262325
4555.5, 0.261152
4559.5, 0.260077
4563.52, 0.259296
4567.54, 0.258612
4571.56, 0.257928
4575.6, 0.257537
4579.64, 0.256853
4583.69, 0.256267
4587.75, 0.255583
4591.81, 0.254997
4595.88, 0.254411
4599.96, 0.253629
4604.04, 0.253043
4608.14, 0.252261
4612.24, 0.251675
4616.34, 0.251284
4620.46, 0.250894
4624.58, 0.250405
4628.71, 0.250112
4632.84, 0.249917
4636.99, 0.249917
4641.14, 0.249917
4645.3, 0.249526
4649.47, 0.248940
4653.64, 0.248256
4657.82, 0.247279
4662.01, 0.245715
4666.21, 0.243859
4670.41, 0.241710
4674.62, 0.239365
4678.84, 0.236825
4683.07, 0.234285
4687.3, 0.231647
4691.54, 0.229107
4695.79, 0.226859
4700.05, 0.224710
4704.31, 0.222561
4708.59, 0.220802
4712.87, 0.219141
4717.15, 0.217676
4721.45, 0.216503
4725.76, 0.215526
4730.07, 0.214647
4734.39, 0.213768
4738.72, 0.212986
4743.05, 0.212009
4747.39, 0.210934
4751.75, 0.209469
4756.1, 0.208199
4760.47, 0.206733
4764.85, 0.204975
4769.23, 0.203314
4773.62, 0.201751
4778.02, 0.200187
4782.43, 0.198820
4786.85, 0.197745
4791.27, 0.196963
4795.7, 0.196475
4800.14, 0.195986
4804.59, 0.195889
4809.05, 0.195791
4813.51, 0.195498
4817.99, 0.195107
4822.47, 0.194325
4826.96, 0.193251
4831.46, 0.192176
4835.96, 0.190710
4840.48, 0.189245
4845.0, 0.187877
4849.54, 0.186509
4854.08, 0.185142
4858.63, 0.183774
4863.18, 0.182406
4867.75, 0.181038
4872.33, 0.179768
4876.91, 0.179182
4881.5, 0.178693
4886.1, 0.178400
4890.71, 0.178400
4895.33, 0.178986
4899.96, 0.180061
4904.59, 0.181527
4909.24, 0.183383
4913.89, 0.185337
4918.55, 0.187486
4923.22, 0.189733
4927.9, 0.191980
4932.59, 0.194032
4937.29, 0.195889
4942.0, 0.197549
4946.71, 0.198820
4951.44, 0.199699
4956.17, 0.200285
4960.91, 0.200480
4965.67, 0.200676
4970.43, 0.200676
4975.2, 0.200187
4979.98, 0.199699
4984.76, 0.199406
4989.56, 0.198917
4994.37, 0.198429
4999.18, 0.197940
5004.01, 0.197452
5008.84, 0.197354
5013.69, 0.197354
5018.54, 0.197940
5023.4, 0.199113
5028.28, 0.200676
5033.16, 0.203118
5038.05, 0.206440
5042.95, 0.210348
5047.86, 0.215233
5052.78, 0.220802
5057.71, 0.227250
5062.65, 0.234285
5067.6, 0.241612
5072.56, 0.248940
5077.53, 0.256463
5082.5, 0.264083
5087.49, 0.271606
5092.49, 0.279129
5097.5, 0.285773
5102.51, 0.292416
5107.54, 0.298767
5112.58, 0.304629
5117.62, 0.310100
5122.68, 0.315473
5127.75, 0.320261
5132.82, 0.324950
5137.91, 0.329249
5143.01, 0.333059
5148.12, 0.336576
5153.23, 0.340387
5158.36, 0.343709
5163.5, 0.346933
5168.65, 0.349864
5173.81, 0.352599
5178.98, 0.354944
5184.15, 0.357387
5189.34, 0.359438
5194.54, 0.361295
5199.75, 0.362956
5204.98, 0.364909
5210.21, 0.365984
5215.45, 0.367547
5220.7, 0.369599
5225.96, 0.371065
5231.23, 0.371944
5236.52, 0.372921
5241.81, 0.373996
5247.12, 0.375168
5252.44, 0.375950
5257.76, 0.376829
5263.1, 0.377415
5268.45, 0.378099
5273.81, 0.378490
5279.18, 0.378978
5284.56, 0.379369
5289.95, 0.379174
5295.36, 0.379564
5300.77, 0.380151
5306.2, 0.380248
5311.63, 0.380444
5317.08, 0.380542
5322.54, 0.380737
5328.01, 0.380737
5333.49, 0.380542
5338.98, 0.380151
5344.49, 0.379174
5350.0, 0.377904
5355.53, 0.378294
5361.07, 0.378783
5366.62, 0.378685
5372.18, 0.378099
5377.75, 0.377806
5383.34, 0.377317
5388.93, 0.376829
5394.54, 0.376340
5400.16, 0.376047
5405.79, 0.375168
5411.44, 0.373996
5417.09, 0.372042
5422.76, 0.370478
5428.43, 0.371358
5434.12, 0.371749
5439.83, 0.370771
5445.54, 0.369990
5451.26, 0.369208
5457.0, 0.367743
5462.75, 0.365593
5468.52, 0.365203
5474.29, 0.364616
5480.08, 0.363639
5485.88, 0.363444
5491.69, 0.362858
5497.51, 0.361783
5503.35, 0.360708
5509.2, 0.359634
5515.06, 0.358168
5520.93, 0.356410
5526.82, 0.355433
5532.71, 0.354553
5538.63, 0.353283
5544.55, 0.351622
5550.49, 0.349668
5556.44, 0.348398
5562.4, 0.347714
5568.37, 0.346444
5574.36, 0.343611
5580.36, 0.341364
5586.37, 0.341559
5592.4, 0.341071
5598.44, 0.339312
5604.49, 0.337554
5610.56, 0.336088
5616.63, 0.334134
5622.73, 0.332766
5628.83, 0.331008
5634.95, 0.328272
5641.08, 0.324559
5647.23, 0.323582
5653.39, 0.322703
5659.56, 0.321433
5665.74, 0.320065
5671.94, 0.317134
5678.15, 0.314399
5684.38, 0.312640
5690.62, 0.310100
5696.87, 0.308341
5703.14, 0.305606
5709.42, 0.301795
5715.72, 0.299353
5722.03, 0.297790
5728.35, 0.295836
5734.69, 0.293295
5741.03, 0.290267
5747.4, 0.287043
5753.78, 0.284893
5760.17, 0.280790
5766.58, 0.275807
5773.0, 0.274635
5779.44, 0.272681
5785.88, 0.269750
5792.35, 0.266428
5798.83, 0.262715
5805.32, 0.258905
5811.83, 0.254411
5818.35, 0.248256
5824.89, 0.243762
5831.45, 0.240928
5838.01, 0.237802
5844.59, 0.233894
5851.19, 0.229204
5857.8, 0.223928
5864.43, 0.218848
5871.07, 0.214061
5877.73, 0.207026
5884.4, 0.201457
5891.09, 0.197452
5897.79, 0.191785
5904.5, 0.188073
5911.23, 0.183383
5917.98, 0.177814
5924.75, 0.172050
5931.53, 0.165211
5938.32, 0.158469
5945.13, 0.154757
5951.96, 0.150458
5958.8, 0.145475
5965.65, 0.139711
5972.53, 0.135021
5979.42, 0.130918
5986.32, 0.126326
5993.24, 0.122320
6000.18, 0.119096
6007.13, 0.115579
6014.1, 0.112257
6021.08, 0.109424
6028.09, 0.106982
6035.1, 0.104246
6042.14, 0.100826
6049.19, 0.0977980
6056.25, 0.0973090
6063.34, 0.0964300
6070.44, 0.0948670
6077.55, 0.0939870
6084.69, 0.0937920
6091.84, 0.0934010
6099.0, 0.0932060
6106.19, 0.0926200
6113.39, 0.0925220
6120.61, 0.0939870
6127.84, 0.0955510
6135.09, 0.0964300
6142.36, 0.0975050
6149.65, 0.0987750
6156.95, 0.100045
6164.27, 0.101706
6171.61, 0.103367
6178.97, 0.104051
6186.34, 0.105027
6193.73, 0.107177
6201.14, 0.108642
6208.57, 0.109815
6216.01, 0.110890
6223.47, 0.112257
6230.95, 0.113527
6238.45, 0.114700
6245.97, 0.115872
6253.5, 0.117240
6261.06, 0.118510
6268.63, 0.119683
6276.21, 0.120855
6283.82, 0.122418
6291.45, 0.123884
6299.1, 0.125251
6306.76, 0.126619
6314.44, 0.128378
6322.14, 0.130136
6329.86, 0.131602
6337.6, 0.132188
6345.35, 0.133458
6353.13, 0.136096
6360.92, 0.137952
6368.74, 0.138929
6376.57, 0.140981
6384.43, 0.142935
6392.3, 0.144596
6400.19, 0.145671
6408.1, 0.145085
6416.03, 0.145866
6423.98, 0.149090
6431.95, 0.151142
6439.94, 0.153194
6447.95, 0.154757
6455.98, 0.156222
6464.03, 0.157688
6472.1, 0.158274
6480.19, 0.158567
6488.31, 0.158567
6496.44, 0.160228
6504.59, 0.163452
6512.76, 0.165015
6520.95, 0.165602
6529.16, 0.167360
6537.4, 0.168728
6545.65, 0.169216
6553.92, 0.169510
6562.22, 0.169803
6570.54, 0.169412
6578.88, 0.170486
6587.23, 0.171464
6595.61, 0.172245
6604.02, 0.173222
6612.44, 0.173417
6620.89, 0.173222
6629.35, 0.171757
6637.84, 0.170780
6646.35, 0.172831
6654.88, 0.174297
6663.44, 0.173808
6672.01, 0.172929
6680.61, 0.172538
6689.23, 0.173027
6697.88, 0.173124
6706.54, 0.171854
6715.23, 0.171073
6723.94, 0.170877
6732.67, 0.170877
6741.42, 0.170486
6750.2, 0.169510
6759.0, 0.168630
6767.82, 0.167360
6776.67, 0.166090
6785.54, 0.164625
6794.44, 0.164038
6803.35, 0.164820
6812.29, 0.164625
6821.26, 0.163452
6830.24, 0.163159
6839.25, 0.163452
6848.29, 0.162573
6857.35, 0.160717
6866.43, 0.160130
6875.54, 0.161303
6884.67, 0.161498
6893.82, 0.160912
6903.0, 0.159935
6912.2, 0.159251
6921.43, 0.159056
6930.69, 0.158762
6939.96, 0.158274
6949.27, 0.157004
6958.59, 0.155441
6967.95, 0.155441
6977.33, 0.155734
6986.73, 0.155245
6996.16, 0.154561
7005.61, 0.154268
7015.09, 0.153780
7024.6, 0.153096
7034.13, 0.152510
7043.69, 0.151337
7053.27, 0.151240
7062.88, 0.151533
7072.52, 0.151337
7082.18, 0.150947
7091.87, 0.150360
7101.58, 0.149676
7111.32, 0.148992
7121.09, 0.148406
7130.88, 0.147918
7140.71, 0.146941
7150.56, 0.145964
7160.43, 0.145280
7170.33, 0.144303
7180.27, 0.144205
7190.23, 0.143717
7200.21, 0.142447
7210.23, 0.141665
7220.27, 0.141372
7230.34, 0.140786
7240.44, 0.139906
7250.56, 0.139027
7260.72, 0.138245
7270.9, 0.137073
7281.12, 0.136292
7291.36, 0.135608
7301.63, 0.134337
7311.93, 0.133165
7322.25, 0.132090
7332.61, 0.130430
7343.0, 0.129159
7353.41, 0.128085
7363.86, 0.126815
7374.33, 0.125251
7384.83, 0.123688
7395.37, 0.122320
7405.93, 0.120757
7416.53, 0.119194
7427.15, 0.117631
7437.81, 0.115872
7448.5, 0.114211
7459.22, 0.112355
7469.96, 0.110401
7480.74, 0.108447
7491.55, 0.106786
7502.39, 0.104832
7513.27, 0.102878
7524.17, 0.100924
7535.11, 0.0989700
7546.08, 0.0968210
7557.08, 0.0947690
7568.11, 0.0924240
7579.17, 0.0901770
7590.27, 0.0879300
7601.4, 0.0856830
7612.56, 0.0834360
7623.76, 0.0809930
7634.98, 0.0785510
7646.24, 0.0763040
7657.54, 0.0737640
7668.87, 0.0712230
7680.23, 0.0688790
7691.62, 0.0663380
7703.05, 0.0636030
7714.51, 0.0608670
7726.01, 0.0578380
7737.54, 0.0546140
7749.11, 0.0513900
7760.71, 0.0482640
7772.35, 0.0450400
7784.02, 0.0421090
7795.72, 0.0390800
7807.46, 0.0356610
7819.23, 0.0322410
7831.04, 0.0293100
7842.89, 0.0262810
7854.77, 0.0233500
7866.69, 0.0203220
7878.65, 0.0173910
7890.64, 0.0148500
7902.67, 0.0127010
7914.74, 0.0110400
7926.84, 0.00957500
7938.98, 0.00830500
7951.16, 0.00791400
7963.37, 0.00742500
7975.62, 0.00713200
7987.91, 0.00693700
8000.24, 0.00693700
8012.6, 0.00683900
8025.01, 0.00713200
8037.45, 0.00732800
8049.93, 0.00742500
8062.45, 0.00723000
8075.01, 0.00742500
8087.61, 0.00771800
8100.24, 0.00791400
8112.91, 0.00791400
8125.63, 0.00801100
8138.39, 0.00830500
8151.18, 0.00869500
8164.02, 0.00918400
8176.9, 0.00957500
8189.81, 0.00957500
8202.77, 0.00977000
8215.77, 0.0102590
8228.82, 0.0106490
8241.9, 0.0108450
8255.02, 0.0111380
8268.19, 0.0113330
8281.39, 0.0112360
8294.65, 0.0111380
8307.94, 0.0111380
8321.28, 0.0114310
8334.66, 0.0117240
8348.08, 0.0117240
8361.54, 0.0116260
8375.05, 0.0114310
8388.6, 0.0117240
8402.2, 0.0116260
8415.84, 0.0112360
8429.52, 0.0112360
8443.25, 0.0117240
8457.02, 0.0117240
8470.84, 0.0116260
8484.7, 0.0112360
8498.61, 0.0112360
8512.57, 0.0114310
8526.57, 0.0115290
8540.62, 0.0114310
8554.71, 0.0114310
8568.85, 0.0113330
8583.04, 0.0114310
8597.27, 0.0113330
8611.55, 0.0113330
8625.88, 0.0112360
8640.26, 0.0112360
8654.68, 0.0108450
8669.16, 0.0108450
8683.68, 0.0108450
8698.25, 0.0107470
8712.87, 0.0104540
8727.53, 0.0102590
8742.25, 0.0102590
8757.02, 0.0102590
8771.83, 0.0100630
8786.7, 0.0101610
8801.62, 0.0108450
8816.59, 0.0116260
8831.61, 0.0124080
8846.68, 0.0127990
8861.8, 0.0133850
8876.97, 0.0145570
8892.2, 0.0153390
8907.48, 0.0161210
8922.81, 0.0169020
8938.2, 0.0177810
8953.63, 0.0184650
8969.13, 0.0190510
8984.67, 0.0198330
9000.27, 0.0206150
9015.92, 0.0213960
9031.63, 0.0219830
9047.39, 0.0222760
9063.21, 0.0225690
9079.08, 0.0226660
9095.01, 0.0229600
9111.0, 0.0230570
9127.04, 0.0232530
9143.13, 0.0229600
9159.28, 0.0224710
9175.49, 0.0218850
9191.76, 0.0213960
9208.09, 0.0206150
9224.47, 0.0200290
9240.92, 0.0198330
9257.42, 0.0194420
9273.98, 0.0188560
9290.6, 0.0183680
9307.28, 0.0179770
9324.02, 0.0174880
9340.82, 0.0167070
9357.68, 0.0161210
9374.6, 0.0152410
9391.58, 0.0145570
9408.62, 0.0139710
9425.73, 0.0133850
9442.9, 0.0128960
9460.13, 0.0127010
9477.42, 0.0127010
9494.78, 0.0125060
9512.2, 0.0125060
9529.69, 0.0129940
9547.24, 0.0135800
9564.86, 0.0138730
9582.54, 0.0141670
9600.28, 0.0150460
9618.1, 0.0161210
9635.97, 0.0172930
9653.92, 0.0182700
9671.93, 0.0193450
9690.01, 0.0199310
9708.16, 0.0205170
9726.37, 0.0210060
9744.65, 0.0215920
9763.0, 0.0222760
9781.43, 0.0222760
9799.92, 0.0220800
9818.48, 0.0219830
9837.1, 0.0222760
9855.8, 0.0225690
9874.58, 0.0228620
9893.42, 0.0238390
9912.34, 0.0247180
9931.33, 0.0252070
9950.39, 0.0251090
9969.52, 0.0250110
9988.74, 0.0254020
10008.0, 0.0255970
10027.4, 0.0261840
10046.8, 0.0272580
10066.3, 0.0280400
10085.9, 0.0287240
10105.6, 0.0296030
10125.3, 0.0311660
10145.1, 0.0329250
10165.0, 0.0346840
10185.0, 0.0362470
10205.0, 0.0380050
10225.2, 0.0398620
10245.4, 0.0420110
10265.7, 0.0439650
10286.0, 0.0459190
10306.5, 0.0481660
10327.0, 0.0505110
10347.6, 0.0524650
10368.3, 0.0543210
10389.1, 0.0564710
10409.9, 0.0584250
10430.9, 0.0609650
10451.9, 0.0633100
10473.0, 0.0653610
10494.2, 0.0678040
10515.5, 0.0705390
10536.9, 0.0727870
10558.4, 0.0743500
10579.9, 0.0764990
10601.5, 0.0788440
10623.3, 0.0807980
10645.1, 0.0826540
10667.0, 0.0845110
10689.0, 0.0860740
10711.1, 0.0876370
10733.2, 0.0889070
10755.5, 0.0897860
10777.9, 0.0910560
10800.3, 0.0925220
10822.9, 0.0934010
10845.5, 0.0938900
10868.2, 0.0943780
10891.1, 0.0949640
10914.0, 0.0953550
10937.0, 0.0953550
10960.2, 0.0953550
10983.4, 0.0954530
11006.7, 0.0951600
11030.1, 0.0950620
11053.6, 0.0949640
11077.3, 0.0944760
11101.0, 0.0939870
11124.8, 0.0934010
11148.7, 0.0927170
11172.7, 0.0922290
11196.9, 0.0917400
11221.1, 0.0910560
11245.4, 0.0901770
11269.9, 0.0897860
11294.4, 0.0894930
11319.1, 0.0888090
11343.9, 0.0877350
11368.8, 0.0867580
11393.7, 0.0860740
11418.8, 0.0855850
11444.0, 0.0849990
11469.4, 0.0844130
11494.8, 0.0837290
11520.3, 0.0826540
11546.0, 0.0812860
11571.8, 0.0805050
11597.7, 0.0795280
11623.7, 0.0786490
11649.8, 0.0778670
11676.0, 0.0770850
11702.4, 0.0765970
11728.9, 0.0758150
11755.5, 0.0748380
11782.2, 0.0744470
11809.0, 0.0738610
11836.0, 0.0728840
11863.0, 0.0723960
11890.3, 0.0718100
11917.6, 0.0708320
11945.0, 0.0698560
11972.6, 0.0688790
12000.4, 0.0681950
12028.2, 0.0674130
12056.2, 0.0667290
12084.3, 0.0655570
12112.5, 0.0640910
12140.9, 0.0637980
12169.4, 0.0631140
12198.0, 0.0620400
12226.8, 0.0614530
12255.7, 0.0605740
12284.7, 0.0594990
12313.9, 0.0585220
12343.2, 0.0575450
12372.7, 0.0565680
12402.3, 0.0558840
12432.0, 0.0551030
12461.9, 0.0541260
12491.9, 0.0534420
12522.1, 0.0523670
12552.4, 0.0511950
12582.9, 0.0504130
12613.5, 0.0492410
12644.3, 0.0479710
12675.2, 0.0471890
12706.3, 0.0468960
12737.5, 0.0462120
12768.9, 0.0457240
12800.4, 0.0450400
12832.1, 0.0435740
12863.9, 0.0419130
12895.9, 0.0409360
12928.1, 0.0404480
12960.4, 0.0396660
12992.9, 0.0387870
13025.5, 0.0382980
13058.3, 0.0371260
13091.3, 0.0358560
13124.4, 0.0356610
13157.8, 0.0350740
13191.2, 0.0336090
13224.9, 0.0324360
13258.7, 0.0311660
13292.7, 0.0302870
13326.9, 0.0297990
13361.2, 0.0292120
13395.7, 0.0283330
13430.4, 0.0275510
13465.3, 0.0267700
13500.4, 0.0259880
13535.7, 0.0254020
13571.1, 0.0242300
13606.7, 0.0232530
13642.5, 0.0229600
13678.5, 0.0219830
13714.7, 0.0210060
13751.1, 0.0201260
13787.6, 0.0198330
13824.4, 0.0191490
13861.4, 0.0185630
13898.5, 0.0177810
13935.9, 0.0164140
13973.5, 0.0153390
14011.2, 0.0150460
14049.2, 0.0141670
14087.4, 0.0136780
14125.8, 0.0132870
14164.3, 0.0127010
14203.2, 0.0118220
14242.2, 0.0111380
14281.4, 0.0109420
14320.9, 0.0108450
14360.5, 0.0106490
14400.4, 0.0103560
14440.5, 0.00996500
14480.9, 0.00918400
14521.4, 0.00908600
14562.2, 0.00879300
14603.3, 0.00850000
14644.5, 0.00889100
14686.0, 0.00908600
14727.7, 0.00879300
14769.7, 0.00840200
14811.9, 0.00801100
14854.3, 0.00752300
14897.0, 0.00781600
14939.9, 0.00820700
14983.1, 0.00810900
15026.5, 0.00820700
15070.2, 0.00810900
15114.2, 0.00752300
15158.3, 0.00713200
15202.8, 0.00732800
15247.5, 0.00781600
15292.5, 0.00742500
15337.7, 0.00752300
15383.2, 0.00752300
15429.0, 0.00801100
15475.1, 0.00771800
15521.4, 0.00771800
15568.0, 0.00859800
15614.9, 0.00928200
15662.1, 0.00957500
15709.6, 0.0106490
15757.3, 0.0109420
15805.4, 0.0119190
15853.7, 0.0129940
15902.3, 0.0127990
15951.2, 0.0126030
16000.5, 0.0130920
16050.0, 0.0132870
16099.8, 0.0128960
16150.0, 0.0128960
16200.5, 0.0129940
16251.3, 0.0124080
16302.4, 0.0119190
16353.8, 0.0118220
16405.5, 0.0120170
16457.6, 0.0123100
16510.0, 0.0116260
16562.8, 0.0107470
16615.9, 0.0110400
16669.3, 0.0109420
16723.1, 0.0110400
16777.2, 0.0108450
16831.7, 0.0107470
16886.5, 0.0104540
16941.7, 0.00996500
16997.2, 0.00928200
17053.1, 0.00967200
17109.4, 0.0100630
17166.1, 0.00937900
17223.1, 0.00889100
17280.5, 0.00947700
17338.3, 0.0101610
17396.5, 0.0105520
17455.1, 0.0105520
17514.0, 0.0109420
17573.4, 0.0110400
17633.2, 0.0111380
17693.4, 0.0113330
17754.0, 0.0120170
17815.0, 0.0116260
17876.4, 0.0119190
17938.3, 0.0125060
18000.5, 0.0120170
18063.3, 0.0113330
18126.4, 0.0124080
18190.0, 0.0126030
18254.1, 0.0131900
18318.6, 0.0142640
18383.5, 0.0138730
18449.0, 0.0132870
18514.9, 0.0144600
18581.2, 0.0152410
18648.0, 0.0158270
18715.4, 0.0170000
18783.2, 0.0173910
18851.5, 0.0170980
18920.3, 0.0174880
18989.6, 0.0167070
19059.4, 0.0161210
19129.7, 0.0166090
19200.6, 0.0170000
19272.0, 0.0189540
19343.9, 0.0208100
19416.3, 0.0213960
19489.3, 0.0220800
19562.8, 0.0203220
19637.0, 0.0199310
19711.6, 0.0203220
19786.8, 0.0199310
19862.6, 0.0215920
19939.0, 0.0236430
20016.0, 0.0225690
20093.6, 0.0222760
20171.8, 0.0226660
20250.6, 0.0228620
20330.0, 0.0226660
20410.0, 0.0232530
20490.7, 0.0224710
20572.0, 0.0215920
20654.0, 0.0233500
20736.6, 0.0269650
20819.9, 0.0253040
20903.8, 0.0225690
20988.5, 0.0244250
21073.8, 0.0275510
21159.8, 0.0280400
21246.5, 0.0289190
21334.0, 0.0299940
21422.1, 0.0307760
21511.0, 0.0337070
21600.7, 0.0352700
21691.0, 0.0370280
21782.1, 0.0368330
21874.0, 0.0369310
21966.7, 0.0392750
22060.2, 0.0397640
22154.5, 0.0371260
22249.6, 0.0345860
22345.5, 0.0368330
22442.2, 0.0340000
22539.8, 0.0292120
22638.2, 0.0297990
22737.5, 0.0344880
22837.7, 0.0352700
22938.7, 0.0382980
23040.7, 0.0428900
23143.5, 0.0420110
23247.3, 0.0405460
23352.1, 0.0430860
23457.7, 0.0467980
23564.4, 0.0467980
23672.0, 0.0452350
23780.5, 0.0490450
23890.1, 0.0504130
24000.7, 0.0493390
24112.3, 0.0473850
24225.0, 0.0457240
24338.7, 0.0452350
24453.5, 0.0450400
24569.4, 0.0454310
24686.4, 0.0421090
