Database of Origin, USGS Spectral Database
Sample Description, See USGS database for additional info
Date Added,2016-08-10 04:57:21.820550

Data ID,USGS_jar06          
Sample ID, jarosite_gds24.11332
Mineral Name, jarosite
Material Class,Sulfate

Wavelength
1424.22, 0.509455
1424.61, 0.508968
1425.0, 0.508702
1425.39, 0.508614
1425.78, 0.508481
1426.18, 0.508348
1426.57, 0.508171
1426.96, 0.507905
1427.36, 0.507861
1427.75, 0.507550
1428.14, 0.507152
1428.54, 0.507019
1428.93, 0.507240
1429.32, 0.507152
1429.72, 0.507152
1430.11, 0.506930
1430.51, 0.506532
1430.9, 0.506399
1431.3, 0.506399
1431.69, 0.506133
1432.09, 0.505823
1432.48, 0.505513
1432.88, 0.505424
1433.28, 0.505380
1433.67, 0.505114
1434.07, 0.505291
1434.46, 0.505291
1434.86, 0.504893
1435.26, 0.504361
1435.66, 0.504405
1436.05, 0.504627
1436.45, 0.504361
1436.85, 0.503963
1437.25, 0.504095
1437.65, 0.503830
1438.05, 0.503608
1438.44, 0.503564
1438.84, 0.503785
1439.24, 0.503697
1439.64, 0.503209
1440.04, 0.503032
1440.44, 0.503121
1440.84, 0.502944
1441.24, 0.502811
1441.65, 0.502811
1442.05, 0.502456
1442.45, 0.502013
1442.85, 0.501570
1443.25, 0.501172
1443.65, 0.500862
1444.05, 0.500552
1444.46, 0.500286
1444.86, 0.500374
1445.26, 0.499754
1445.67, 0.499267
1446.07, 0.499223
1446.47, 0.498913
1446.88, 0.498425
1447.28, 0.498027
1447.68, 0.497407
1448.09, 0.497008
1448.49, 0.496831
1448.9, 0.496343
1449.3, 0.495812
1449.71, 0.495546
1450.11, 0.494926
1450.52, 0.494217
1450.93, 0.493686
1451.33, 0.492844
1451.74, 0.492623
1452.14, 0.492534
1452.55, 0.492091
1452.96, 0.491426
1453.36, 0.490363
1453.77, 0.489876
1454.18, 0.489522
1454.59, 0.488724
1455.0, 0.487706
1455.41, 0.486864
1455.81, 0.486067
1456.22, 0.485004
1456.63, 0.484029
1457.04, 0.483453
1457.45, 0.482301
1457.86, 0.481105
1458.27, 0.479954
1458.68, 0.478846
1459.09, 0.477916
1459.5, 0.476853
1459.91, 0.475391
1460.32, 0.474018
1460.74, 0.472955
1461.15, 0.471715
1461.56, 0.470519
1461.97, 0.469012
1462.39, 0.467905
1462.8, 0.466665
1463.21, 0.465424
1463.62, 0.463874
1464.04, 0.462589
1464.45, 0.461349
1464.86, 0.460197
1465.28, 0.458957
1465.69, 0.457628
1466.11, 0.456299
1466.52, 0.454926
1466.94, 0.454040
1467.35, 0.453243
1467.77, 0.451914
1468.18, 0.450851
1468.6, 0.449743
1469.02, 0.448415
1469.43, 0.447086
1469.85, 0.445978
1470.27, 0.444605
1470.68, 0.443409
1471.1, 0.442124
1471.52, 0.440796
1471.94, 0.438979
1472.35, 0.437429
1472.77, 0.435834
1473.19, 0.434417
1473.61, 0.432689
1474.03, 0.431050
1474.45, 0.429854
1474.87, 0.428658
1475.29, 0.427728
1475.71, 0.427196
1476.13, 0.427019
1476.55, 0.427064
1476.97, 0.427064
1477.39, 0.427285
1477.81, 0.427817
1478.23, 0.428392
1478.65, 0.428880
1479.07, 0.429677
1479.5, 0.430253
1479.92, 0.430917
1480.34, 0.431493
1480.76, 0.432468
1481.19, 0.433930
1481.61, 0.435923
1482.03, 0.438138
1482.46, 0.440397
1482.88, 0.443010
1483.31, 0.445934
1483.73, 0.449035
1484.16, 0.452047
1484.58, 0.455103
1485.01, 0.458204
1485.43, 0.460507
1485.86, 0.462722
1486.28, 0.465114
1486.71, 0.467196
1487.14, 0.468968
1487.56, 0.470386
1487.99, 0.471803
1488.42, 0.473442
1488.84, 0.474372
1489.27, 0.475258
1489.7, 0.476410
1490.13, 0.477783
1490.56, 0.478758
1490.98, 0.479466
1491.41, 0.479821
1491.84, 0.480397
1492.27, 0.480884
1492.7, 0.481415
1493.13, 0.481770
1493.56, 0.482213
1493.99, 0.482700
1494.42, 0.483010
1494.85, 0.483276
1495.29, 0.483675
1495.72, 0.483719
1496.15, 0.484073
1496.58, 0.484428
1497.01, 0.484649
1497.44, 0.485048
1497.88, 0.485269
1498.31, 0.485358
1498.74, 0.485446
1499.18, 0.485934
1499.61, 0.486244
1500.04, 0.486510
1500.48, 0.486731
1500.91, 0.486687
1501.35, 0.487130
1501.78, 0.487706
1502.22, 0.488237
1502.65, 0.488414
1503.09, 0.488459
1503.53, 0.488592
1503.96, 0.488724
1504.4, 0.488724
1504.83, 0.489079
1505.27, 0.489256
1505.71, 0.489300
1506.15, 0.489566
1506.58, 0.489699
1507.02, 0.489876
1507.46, 0.490053
1507.9, 0.490186
1508.34, 0.490363
1508.78, 0.490629
1509.21, 0.490541
1509.66, 0.490363
1510.09, 0.490496
1510.53, 0.490629
1510.97, 0.490496
1511.42, 0.490363
1511.86, 0.490408
1512.3, 0.490231
1512.74, 0.490275
1513.18, 0.490319
1513.62, 0.490452
1514.06, 0.490496
1514.51, 0.490718
1514.95, 0.490806
1515.39, 0.490629
1515.83, 0.490275
1516.28, 0.490408
1516.72, 0.490363
1517.16, 0.490629
1517.61, 0.490674
1518.05, 0.490718
1518.5, 0.490496
1518.94, 0.490098
1519.39, 0.490231
1519.83, 0.490408
1520.28, 0.490585
1520.73, 0.490895
1521.17, 0.490806
1521.62, 0.490806
1522.07, 0.490851
1522.51, 0.491028
1522.96, 0.491072
1523.41, 0.491294
1523.85, 0.491338
1524.3, 0.491294
1524.75, 0.491072
1525.2, 0.491072
1525.65, 0.491249
1526.1, 0.491515
1526.55, 0.491604
1527.0, 0.491426
1527.45, 0.491116
1527.9, 0.491028
1528.35, 0.491161
1528.8, 0.491515
1529.25, 0.491559
1529.7, 0.491737
1530.15, 0.491604
1530.6, 0.491648
1531.05, 0.491648
1531.51, 0.491648
1531.96, 0.491648
1532.41, 0.492047
1532.87, 0.492180
1533.32, 0.492047
1533.77, 0.492357
1534.23, 0.492578
1534.68, 0.492755
1535.14, 0.492977
1535.59, 0.493021
1536.05, 0.493287
1536.5, 0.493597
1536.96, 0.493686
1537.41, 0.493951
1537.87, 0.493996
1538.32, 0.494306
1538.78, 0.494350
1539.24, 0.494527
1539.7, 0.494882
1540.15, 0.495059
1540.61, 0.495192
1541.07, 0.495679
1541.53, 0.496033
1541.98, 0.496211
1542.44, 0.496211
1542.9, 0.496343
1543.36, 0.496432
1543.82, 0.496698
1544.28, 0.497097
1544.74, 0.497495
1545.2, 0.497761
1545.66, 0.497539
1546.12, 0.497628
1546.59, 0.497761
1547.05, 0.498071
1547.51, 0.498514
1547.97, 0.498913
1548.43, 0.498957
1548.9, 0.499046
1549.36, 0.499311
1549.82, 0.499489
1550.29, 0.499621
1550.75, 0.499799
1551.21, 0.500197
1551.68, 0.500286
1552.14, 0.500552
1552.61, 0.501127
1553.07, 0.501482
1553.54, 0.501748
1554.0, 0.502146
1554.47, 0.502678
1554.93, 0.502899
1555.4, 0.503342
1555.87, 0.503564
1556.34, 0.504051
1556.8, 0.504494
1557.27, 0.505070
1557.74, 0.505557
1558.21, 0.505690
1558.68, 0.506044
1559.14, 0.506443
1559.61, 0.506975
1560.08, 0.507418
1560.55, 0.507816
1561.02, 0.508171
1561.49, 0.508614
1561.96, 0.509012
1562.43, 0.509189
1562.9, 0.509588
1563.38, 0.509765
1563.85, 0.510031
1564.32, 0.510341
1564.79, 0.510740
1565.26, 0.511138
1565.74, 0.511360
1566.21, 0.511714
1566.68, 0.512113
1567.16, 0.512246
1567.63, 0.512556
1568.1, 0.512822
1568.58, 0.513043
1569.05, 0.513575
1569.53, 0.514151
1570.0, 0.514416
1570.48, 0.514771
1570.96, 0.515214
1571.43, 0.515612
1571.91, 0.515701
1572.39, 0.516144
1572.86, 0.516631
1573.34, 0.517074
1573.82, 0.517473
1574.3, 0.517960
1574.77, 0.518182
1575.25, 0.518447
1575.73, 0.518713
1576.21, 0.519156
1576.69, 0.519776
1577.17, 0.520352
1577.65, 0.520751
1578.13, 0.521238
1578.61, 0.521637
1579.09, 0.521947
1579.57, 0.522390
1580.05, 0.522789
1580.54, 0.523143
1581.02, 0.523364
1581.5, 0.523763
1581.98, 0.524117
1582.47, 0.524295
1582.95, 0.524738
1583.43, 0.525092
1583.92, 0.525269
1584.4, 0.525712
1584.88, 0.526288
1585.37, 0.526687
1585.85, 0.526952
1586.34, 0.527174
1586.82, 0.527262
1587.31, 0.527750
1587.8, 0.528281
1588.28, 0.528857
1588.77, 0.529167
1589.26, 0.529256
1589.74, 0.529876
1590.23, 0.530230
1590.72, 0.530673
1591.21, 0.530806
1591.7, 0.530895
1592.19, 0.531161
1592.67, 0.531515
1593.16, 0.531958
1593.65, 0.532401
1594.14, 0.532800
1594.63, 0.533065
1595.12, 0.533198
1595.61, 0.533597
1596.11, 0.533951
1596.6, 0.534483
1597.09, 0.534837
1597.58, 0.535192
1598.08, 0.535369
1598.57, 0.535812
1599.06, 0.535989
1599.55, 0.536520
1600.05, 0.536831
1600.54, 0.537185
1601.04, 0.537584
1601.53, 0.538027
1602.03, 0.538159
1602.52, 0.538780
1603.02, 0.539355
1603.51, 0.539577
1604.01, 0.539843
1604.5, 0.540109
1605.0, 0.540286
1605.5, 0.540729
1606.0, 0.541172
1606.49, 0.541127
1606.99, 0.541305
1607.49, 0.541703
1607.99, 0.541969
1608.49, 0.542500
1608.99, 0.542943
1609.49, 0.543076
1609.99, 0.543254
1610.49, 0.543697
1610.99, 0.543962
1611.49, 0.544317
1611.99, 0.544760
1612.49, 0.545203
1612.99, 0.545291
1613.49, 0.545557
1614.0, 0.546044
1614.5, 0.546443
1615.0, 0.546753
1615.51, 0.546974
1616.01, 0.547152
1616.51, 0.547417
1617.02, 0.547860
1617.52, 0.548392
1618.03, 0.548658
1618.53, 0.549012
1619.04, 0.549234
1619.54, 0.549455
1620.05, 0.549809
1620.55, 0.550297
1621.06, 0.550651
1621.57, 0.550961
1622.08, 0.551227
1622.58, 0.551714
1623.09, 0.551936
1623.6, 0.552157
1624.11, 0.552467
1624.62, 0.552954
1625.13, 0.553220
1625.64, 0.553442
1626.15, 0.553530
1626.66, 0.553929
1627.17, 0.554372
1627.68, 0.554638
1628.19, 0.554859
1628.7, 0.555169
1629.21, 0.555391
1629.72, 0.555657
1630.24, 0.555922
1630.75, 0.556277
1631.26, 0.556631
1631.78, 0.556941
1632.29, 0.557384
1632.8, 0.557739
1633.32, 0.557783
1633.83, 0.557739
1634.35, 0.557960
1634.86, 0.558625
1635.38, 0.559156
1635.9, 0.559333
1636.41, 0.559377
1636.93, 0.559466
1637.45, 0.559776
1637.96, 0.560175
1638.48, 0.560441
1639.0, 0.560706
1639.52, 0.560795
1640.04, 0.561282
1640.56, 0.561592
1641.08, 0.561902
1641.59, 0.562168
1642.11, 0.562567
1642.63, 0.562788
1643.16, 0.562877
1643.68, 0.562966
1644.2, 0.563586
1644.72, 0.563940
1645.24, 0.564029
1645.76, 0.564206
1646.29, 0.564427
1646.81, 0.564649
1647.33, 0.564826
1647.86, 0.565003
1648.38, 0.565269
1648.9, 0.565402
1649.43, 0.565535
1649.95, 0.565933
1650.48, 0.566199
1651.0, 0.566686
1651.53, 0.566952
1652.06, 0.567041
1652.58, 0.567218
1653.11, 0.567528
1653.64, 0.567794
1654.17, 0.567882
1654.69, 0.568060
1655.22, 0.568591
1655.75, 0.568591
1656.28, 0.568813
1656.81, 0.569256
1657.34, 0.569300
1657.87, 0.569654
1658.4, 0.569964
1658.93, 0.570363
1659.46, 0.570673
1659.99, 0.570762
1660.52, 0.570806
1661.05, 0.570983
1661.59, 0.571205
1662.12, 0.571470
1662.65, 0.571869
1663.19, 0.572135
1663.72, 0.572489
1664.26, 0.572755
1664.79, 0.572755
1665.32, 0.573109
1665.86, 0.573331
1666.39, 0.573818
1666.93, 0.574084
1667.47, 0.574305
1668.0, 0.574527
1668.54, 0.574881
1669.08, 0.575236
1669.61, 0.575280
1670.15, 0.575191
1670.69, 0.575413
1671.23, 0.575812
1671.77, 0.576210
1672.31, 0.576387
1672.85, 0.576786
1673.39, 0.577185
1673.93, 0.577318
1674.47, 0.577761
1675.01, 0.577982
1675.55, 0.578248
1676.09, 0.578425
1676.64, 0.578779
1677.18, 0.579001
1677.72, 0.579045
1678.26, 0.579355
1678.81, 0.579532
1679.35, 0.579754
1679.89, 0.580108
1680.44, 0.580330
1680.98, 0.580463
1681.53, 0.580729
1682.07, 0.581127
1682.62, 0.581393
1683.17, 0.581570
1683.71, 0.581836
1684.26, 0.582235
1684.81, 0.582456
1685.36, 0.582766
1685.9, 0.582899
1686.45, 0.582988
1687.0, 0.583298
1687.55, 0.583741
1688.1, 0.583918
1688.65, 0.584006
1689.2, 0.584361
1689.75, 0.584449
1690.3, 0.584759
1690.85, 0.585335
1691.41, 0.585512
1691.96, 0.585778
1692.51, 0.585911
1693.06, 0.586088
1693.61, 0.586354
1694.17, 0.586487
1694.72, 0.586620
1695.28, 0.586797
1695.83, 0.587152
1696.39, 0.587462
1696.94, 0.587594
1697.5, 0.587639
1698.05, 0.587949
1698.61, 0.588303
1699.17, 0.588347
1699.72, 0.588480
1700.28, 0.588790
1700.84, 0.588746
1701.4, 0.588835
1701.95, 0.589189
1702.51, 0.589411
1703.07, 0.589499
1703.63, 0.589854
1704.19, 0.589942
1704.75, 0.589986
1705.31, 0.590252
1705.88, 0.590474
1706.44, 0.590518
1707.0, 0.590651
1707.56, 0.590828
1708.12, 0.591050
1708.69, 0.591227
1709.25, 0.591581
1709.81, 0.591803
1710.38, 0.591803
1710.94, 0.591758
1711.51, 0.591891
1712.07, 0.592113
1712.64, 0.592467
1713.2, 0.592644
1713.77, 0.592821
1714.34, 0.592999
1714.9, 0.593043
1715.47, 0.593264
1716.04, 0.593397
1716.61, 0.593530
1717.18, 0.593707
1717.74, 0.593752
1718.31, 0.593796
1718.88, 0.593840
1719.45, 0.594017
1720.02, 0.594017
1720.59, 0.594239
1721.17, 0.594328
1721.74, 0.594328
1722.31, 0.594328
1722.88, 0.594460
1723.45, 0.594682
1724.03, 0.594815
1724.6, 0.594859
1725.18, 0.595125
1725.75, 0.595213
1726.33, 0.595302
1726.9, 0.595302
1727.48, 0.595435
1728.05, 0.595568
1728.63, 0.595568
1729.2, 0.595568
1729.78, 0.595612
1730.36, 0.595656
1730.94, 0.595701
1731.51, 0.595834
1732.09, 0.595834
1732.67, 0.595966
1733.25, 0.595922
1733.83, 0.596055
1734.41, 0.596188
1734.99, 0.596365
1735.57, 0.596454
1736.15, 0.596409
1736.73, 0.596631
1737.32, 0.596631
1737.9, 0.596365
1738.48, 0.596365
1739.07, 0.596409
1739.65, 0.596587
1740.23, 0.596808
1740.82, 0.596675
1741.4, 0.596542
1741.99, 0.596675
1742.57, 0.596720
1743.16, 0.596897
1743.74, 0.597074
1744.33, 0.597207
1744.92, 0.597163
1745.51, 0.597030
1746.09, 0.596985
1746.68, 0.597118
1747.27, 0.597118
1747.86, 0.597207
1748.45, 0.597384
1749.04, 0.597384
1749.63, 0.597163
1750.22, 0.597074
1750.81, 0.597340
1751.4, 0.597340
1751.99, 0.597384
1752.59, 0.597605
1753.18, 0.597605
1753.77, 0.597473
1754.37, 0.597384
1754.96, 0.597207
1755.56, 0.597207
1756.15, 0.597207
1756.74, 0.597295
1757.34, 0.597295
1757.94, 0.597295
1758.53, 0.597163
1759.13, 0.596985
1759.73, 0.596764
1760.32, 0.596764
1760.92, 0.596985
1761.52, 0.596985
1762.12, 0.597030
1762.72, 0.597074
1763.32, 0.596985
1763.92, 0.596808
1764.52, 0.596897
1765.12, 0.596808
1765.72, 0.596498
1766.32, 0.596409
1766.92, 0.596587
1767.53, 0.596498
1768.13, 0.596498
1768.73, 0.596808
1769.34, 0.596631
1769.94, 0.596542
1770.55, 0.596409
1771.15, 0.596365
1771.76, 0.596454
1772.36, 0.596409
1772.97, 0.596277
1773.57, 0.596321
1774.18, 0.596365
1774.79, 0.596365
1775.4, 0.596321
1776.0, 0.596321
1776.61, 0.596099
1777.22, 0.595878
1777.83, 0.595834
1778.44, 0.595612
1779.05, 0.595701
1779.66, 0.595922
1780.27, 0.596144
1780.88, 0.596277
1781.5, 0.596055
1782.11, 0.595745
1782.72, 0.595789
1783.33, 0.595523
1783.95, 0.595302
1784.56, 0.595346
1785.18, 0.595258
1785.79, 0.595125
1786.41, 0.594948
1787.02, 0.594903
1787.64, 0.594815
1788.26, 0.594638
1788.87, 0.594549
1789.49, 0.594416
1790.11, 0.594239
1790.73, 0.594150
1791.35, 0.594062
1791.96, 0.593929
1792.58, 0.593619
1793.21, 0.593530
1793.83, 0.593442
1794.45, 0.593220
1795.07, 0.592777
1795.69, 0.592600
1796.31, 0.592423
1796.93, 0.592290
1797.56, 0.591980
1798.18, 0.591714
1798.8, 0.591537
1799.43, 0.591227
1800.05, 0.590607
1800.68, 0.590385
1801.3, 0.590031
1801.93, 0.589632
1802.56, 0.589101
1803.18, 0.588613
1803.81, 0.588303
1804.44, 0.587727
1805.07, 0.587152
1805.7, 0.586576
1806.33, 0.585867
1806.95, 0.585202
1807.58, 0.584582
1808.22, 0.584095
1808.85, 0.583519
1809.48, 0.582899
1810.11, 0.581969
1810.74, 0.581127
1811.38, 0.580684
1812.01, 0.580330
1812.64, 0.579532
1813.28, 0.578957
1813.91, 0.578514
1814.55, 0.577805
1815.18, 0.576963
1815.82, 0.576520
1816.45, 0.575989
1817.09, 0.575413
1817.73, 0.574926
1818.36, 0.574305
1819.0, 0.573685
1819.64, 0.572888
1820.28, 0.572002
1820.92, 0.571470
1821.56, 0.570895
1822.2, 0.570407
1822.84, 0.569787
1823.48, 0.569123
1824.12, 0.568148
1824.76, 0.567395
1825.41, 0.565978
1826.05, 0.564516
1826.69, 0.563541
1827.34, 0.562478
1827.98, 0.560928
1828.63, 0.559112
1829.27, 0.557207
1829.92, 0.555125
1830.56, 0.552689
1831.21, 0.550563
1831.86, 0.548348
1832.5, 0.545778
1833.15, 0.543209
1833.8, 0.540463
1834.45, 0.537495
1835.1, 0.534483
1835.75, 0.531294
1836.4, 0.528370
1837.05, 0.525269
1837.7, 0.522168
1838.35, 0.519732
1839.01, 0.516277
1839.66, 0.512955
1840.31, 0.510253
1840.96, 0.507329
1841.62, 0.504450
1842.27, 0.502589
1842.93, 0.500684
1843.58, 0.498868
1844.24, 0.497672
1844.9, 0.496919
1845.55, 0.496565
1846.21, 0.496166
1846.87, 0.496343
1847.53, 0.497229
1848.18, 0.498381
1848.84, 0.500197
1849.5, 0.502146
1850.16, 0.503963
1850.82, 0.505734
1851.48, 0.507550
1852.14, 0.509278
1852.81, 0.510651
1853.47, 0.511670
1854.13, 0.513176
1854.8, 0.514372
1855.46, 0.514638
1856.12, 0.514638
1856.79, 0.515037
1857.45, 0.515524
1858.12, 0.515568
1858.79, 0.515480
1859.45, 0.515524
1860.12, 0.516543
1860.79, 0.517562
1861.46, 0.518846
1862.12, 0.520131
1862.79, 0.521681
1863.46, 0.523364
1864.13, 0.525491
1864.8, 0.527971
1865.48, 0.530540
1866.15, 0.533065
1866.82, 0.535413
1867.49, 0.537938
1868.16, 0.541349
1868.84, 0.544627
1869.51, 0.547816
1870.19, 0.550430
1870.86, 0.553442
1871.54, 0.557517
1872.21, 0.560308
1872.89, 0.562656
1873.56, 0.566022
1874.24, 0.569079
1874.92, 0.571382
1875.6, 0.573774
1876.28, 0.575590
1876.96, 0.577362
1877.64, 0.579444
1878.32, 0.580950
1879.0, 0.582456
1879.68, 0.583608
1880.36, 0.584494
1881.04, 0.585690
1881.73, 0.586841
1882.41, 0.587727
1883.09, 0.588347
1883.78, 0.588790
1884.46, 0.589676
1885.15, 0.590429
1885.83, 0.591050
1886.52, 0.591847
1887.21, 0.592467
1887.89, 0.592910
1888.58, 0.593220
1889.27, 0.593397
1889.96, 0.593707
1890.65, 0.594460
1891.34, 0.594593
1892.03, 0.594815
1892.72, 0.595081
1893.41, 0.594948
1894.1, 0.595258
1894.79, 0.595568
1895.49, 0.595568
1896.18, 0.595391
1896.87, 0.595391
1897.57, 0.594992
1898.26, 0.594815
1898.96, 0.594372
1899.65, 0.594328
1900.35, 0.594593
1901.05, 0.594859
1901.74, 0.594593
1902.44, 0.593973
1903.14, 0.593973
1903.84, 0.594017
1904.54, 0.593309
1905.24, 0.592954
1905.94, 0.592999
1906.64, 0.592689
1907.34, 0.592733
1908.04, 0.592556
1908.75, 0.592423
1909.45, 0.592290
1910.15, 0.592113
1910.86, 0.591670
1911.56, 0.591404
1912.27, 0.591182
1912.97, 0.590429
1913.68, 0.590208
1914.39, 0.590208
1915.09, 0.589942
1915.8, 0.589632
1916.51, 0.589322
1917.22, 0.588835
1917.93, 0.588480
1918.64, 0.588170
1919.35, 0.587594
1920.06, 0.587019
1920.77, 0.586886
1921.48, 0.587063
1922.19, 0.586664
1922.91, 0.586177
1923.62, 0.585601
1924.33, 0.585380
1925.05, 0.585158
1925.76, 0.584804
1926.48, 0.584405
1927.19, 0.584139
1927.91, 0.583652
1928.63, 0.583386
1929.35, 0.583165
1930.07, 0.582810
1930.78, 0.582412
1931.5, 0.582146
1932.22, 0.581792
1932.94, 0.581570
1933.66, 0.581437
1934.39, 0.581349
1935.11, 0.581171
1935.83, 0.580817
1936.55, 0.580640
1937.28, 0.580729
1938.0, 0.580773
1938.73, 0.580950
1939.45, 0.581127
1940.18, 0.581260
1940.9, 0.581304
1941.63, 0.581349
1942.36, 0.581437
1943.09, 0.581526
1943.81, 0.581614
1944.54, 0.581969
1945.27, 0.582279
1946.0, 0.582235
1946.73, 0.582102
1947.47, 0.581969
1948.2, 0.582190
1948.93, 0.582367
1949.66, 0.582146
1950.4, 0.581969
1951.13, 0.582013
1951.86, 0.581969
1952.6, 0.581836
1953.34, 0.581792
1954.07, 0.581747
1954.81, 0.581703
1955.55, 0.581570
1956.29, 0.581437
1957.02, 0.581482
1957.76, 0.581260
1958.5, 0.581171
1959.24, 0.580861
1959.98, 0.580551
1960.72, 0.580463
1961.47, 0.580330
1962.21, 0.580064
1962.95, 0.580064
1963.7, 0.580064
1964.44, 0.579975
1965.18, 0.579887
1965.93, 0.579754
1966.67, 0.579754
1967.42, 0.579710
1968.17, 0.579665
1968.92, 0.579577
1969.66, 0.579488
1970.41, 0.579577
1971.16, 0.579488
1971.91, 0.579355
1972.66, 0.579488
1973.41, 0.579532
1974.16, 0.579444
1974.92, 0.579488
1975.67, 0.579444
1976.42, 0.579311
1977.18, 0.579222
1977.93, 0.579222
1978.69, 0.579134
1979.44, 0.578912
1980.2, 0.578912
1980.95, 0.578912
1981.71, 0.578779
1982.47, 0.578735
1983.23, 0.578868
1983.99, 0.578647
1984.74, 0.578558
1985.51, 0.578425
1986.27, 0.578204
1987.03, 0.577982
1987.79, 0.577761
1988.55, 0.577583
1989.32, 0.577451
1990.08, 0.577318
1990.84, 0.576963
1991.61, 0.576875
1992.37, 0.576653
1993.14, 0.576387
1993.9, 0.576166
1994.67, 0.575856
1995.44, 0.575546
1996.21, 0.575457
1996.98, 0.575413
1997.75, 0.574970
1998.52, 0.574438
1999.29, 0.574173
2000.06, 0.574173
2000.83, 0.574040
2001.6, 0.573862
2002.38, 0.573730
2003.15, 0.573552
2003.93, 0.573287
2004.7, 0.573242
2005.48, 0.573198
2006.25, 0.573021
2007.03, 0.572888
2007.81, 0.572888
2008.58, 0.572844
2009.36, 0.572489
2010.14, 0.572401
2010.92, 0.572356
2011.7, 0.572135
2012.48, 0.571913
2013.26, 0.572002
2014.05, 0.572091
2014.83, 0.571913
2015.61, 0.571692
2016.4, 0.571603
2017.18, 0.571382
2017.97, 0.571160
2018.75, 0.571027
2019.54, 0.570983
2020.32, 0.570762
2021.11, 0.570363
2021.9, 0.570142
2022.69, 0.569831
2023.48, 0.569433
2024.27, 0.569123
2025.06, 0.568857
2025.85, 0.568547
2026.64, 0.568104
2027.44, 0.567838
2028.23, 0.567395
2029.02, 0.566686
2029.82, 0.565978
2030.61, 0.565579
2031.41, 0.565136
2032.2, 0.564693
2033.0, 0.564250
2033.8, 0.563586
2034.6, 0.563054
2035.4, 0.562434
2036.2, 0.561770
2037.0, 0.561282
2037.8, 0.560795
2038.6, 0.560308
2039.4, 0.559643
2040.2, 0.559067
2041.01, 0.558580
2041.81, 0.558049
2042.61, 0.557428
2043.42, 0.557118
2044.22, 0.556853
2045.03, 0.556321
2045.84, 0.555834
2046.65, 0.555258
2047.46, 0.554726
2048.26, 0.554505
2049.07, 0.554283
2049.88, 0.554062
2050.69, 0.553575
2051.51, 0.553087
2052.32, 0.552689
2053.13, 0.552512
2053.94, 0.552113
2054.76, 0.551758
2055.57, 0.551404
2056.39, 0.551094
2057.2, 0.550740
2058.02, 0.550430
2058.84, 0.550031
2059.66, 0.549677
2060.48, 0.549455
2061.29, 0.549145
2062.11, 0.548879
2062.94, 0.548392
2063.76, 0.548082
2064.58, 0.547816
2065.4, 0.547329
2066.22, 0.546974
2067.05, 0.546664
2067.87, 0.546354
2068.7, 0.546044
2069.52, 0.545867
2070.35, 0.545557
2071.18, 0.545203
2072.0, 0.544893
2072.83, 0.544627
2073.66, 0.544272
2074.49, 0.544095
2075.32, 0.544007
2076.15, 0.543785
2076.98, 0.543431
2077.82, 0.543209
2078.65, 0.543121
2079.48, 0.542988
2080.32, 0.542943
2081.15, 0.542766
2081.99, 0.542456
2082.83, 0.542235
2083.66, 0.542102
2084.5, 0.541969
2085.34, 0.541925
2086.18, 0.541615
2087.02, 0.541570
2087.86, 0.541615
2088.7, 0.541615
2089.54, 0.541526
2090.39, 0.541349
2091.23, 0.541039
2092.07, 0.540906
2092.92, 0.540817
2093.76, 0.540640
2094.61, 0.540551
2095.45, 0.540374
2096.3, 0.540286
2097.15, 0.539896
2098.0, 0.539458
2098.85, 0.539409
2099.7, 0.539360
2100.55, 0.538776
2101.4, 0.538289
2102.25, 0.538045
2103.1, 0.537656
2103.96, 0.537169
2104.81, 0.536730
2105.67, 0.536194
2106.52, 0.535707
2107.38, 0.535366
2108.24, 0.534685
2109.09, 0.534295
2109.95, 0.534246
2110.81, 0.533857
2111.67, 0.533175
2112.53, 0.532639
2113.39, 0.532103
2114.25, 0.531178
2115.12, 0.530642
2115.98, 0.530545
2116.84, 0.530350
2117.71, 0.529571
2118.58, 0.528889
2119.44, 0.528402
2120.31, 0.527671
2121.18, 0.527038
2122.04, 0.526600
2122.91, 0.526405
2123.78, 0.526015
2124.65, 0.525577
2125.52, 0.525187
2126.4, 0.524846
2127.27, 0.524408
2128.14, 0.524164
2129.02, 0.523385
2129.89, 0.522557
2130.77, 0.522021
2131.64, 0.521437
2132.52, 0.520804
2133.4, 0.520463
2134.27, 0.519878
2135.15, 0.519342
2136.03, 0.518807
2136.91, 0.518563
2137.79, 0.517881
2138.68, 0.517492
2139.56, 0.517297
2140.44, 0.516664
2141.33, 0.515982
2142.21, 0.515300
2143.1, 0.514959
2143.99, 0.514423
2144.87, 0.513644
2145.76, 0.513011
2146.65, 0.512865
2147.54, 0.512329
2148.43, 0.511452
2149.32, 0.511014
2150.21, 0.510722
2151.1, 0.510235
2151.99, 0.509845
2152.89, 0.509358
2153.78, 0.508676
2154.68, 0.508384
2155.57, 0.508140
2156.47, 0.507751
2157.37, 0.507069
2158.27, 0.506436
2159.16, 0.506143
2160.06, 0.505851
2160.96, 0.505608
2161.86, 0.505169
2162.77, 0.504634
2163.67, 0.504293
2164.57, 0.503903
2165.48, 0.503708
2166.38, 0.503513
2167.29, 0.503270
2168.2, 0.502783
2169.1, 0.502588
2170.01, 0.502101
2170.92, 0.501419
2171.83, 0.500932
2172.74, 0.500640
2173.65, 0.500250
2174.56, 0.500201
2175.47, 0.499617
2176.39, 0.498789
2177.3, 0.498351
2178.22, 0.498204
2179.13, 0.497377
2180.05, 0.496500
2180.96, 0.495623
2181.88, 0.495039
2182.8, 0.494162
2183.72, 0.493285
2184.64, 0.492262
2185.56, 0.491386
2186.48, 0.490558
2187.41, 0.489730
2188.33, 0.488561
2189.25, 0.487392
2190.18, 0.486418
2191.1, 0.485249
2192.03, 0.484177
2192.96, 0.483301
2193.89, 0.482473
2194.82, 0.481791
2195.74, 0.480768
2196.68, 0.479648
2197.61, 0.478187
2198.54, 0.477261
2199.47, 0.476969
2200.4, 0.475995
2201.34, 0.474631
2202.28, 0.473365
2203.21, 0.472342
2204.15, 0.471368
2205.08, 0.470296
2206.02, 0.469225
2206.96, 0.467910
2207.9, 0.466546
2208.84, 0.465426
2209.78, 0.464208
2210.73, 0.463185
2211.67, 0.461773
2212.61, 0.460020
2213.56, 0.458412
2214.5, 0.457438
2215.45, 0.455977
2216.4, 0.454321
2217.35, 0.452714
2218.3, 0.451496
2219.24, 0.450230
2220.2, 0.448817
2221.15, 0.447015
2222.1, 0.445603
2223.05, 0.444483
2224.0, 0.443655
2224.96, 0.443265
2225.91, 0.442535
2226.87, 0.441414
2227.83, 0.440538
2228.79, 0.439856
2229.74, 0.439515
2230.7, 0.439077
2231.66, 0.438930
2232.63, 0.438054
2233.59, 0.437226
2234.55, 0.436885
2235.51, 0.436544
2236.48, 0.436154
2237.44, 0.436057
2238.41, 0.435813
2239.38, 0.435716
2240.34, 0.435375
2241.31, 0.434937
2242.28, 0.434644
2243.25, 0.433816
2244.22, 0.432794
2245.19, 0.431381
2246.17, 0.429823
2247.14, 0.428410
2248.12, 0.426608
2249.09, 0.424173
2250.07, 0.421348
2251.04, 0.418523
2252.02, 0.415455
2253.0, 0.411899
2253.98, 0.407759
2254.96, 0.403863
2255.94, 0.399674
2256.92, 0.395096
2257.91, 0.390128
2258.89, 0.385306
2259.88, 0.381166
2260.86, 0.377270
2261.85, 0.373909
2262.83, 0.371571
2263.82, 0.369720
2264.81, 0.368259
2265.8, 0.367480
2266.79, 0.367383
2267.78, 0.367383
2268.78, 0.368259
2269.77, 0.369379
2270.76, 0.370256
2271.76, 0.371328
2272.75, 0.372935
2273.75, 0.374396
2274.75, 0.376247
2275.75, 0.378682
2276.75, 0.381410
2277.75, 0.384137
2278.75, 0.387254
2279.75, 0.391199
2280.75, 0.395534
2281.76, 0.400064
2282.76, 0.404934
2283.77, 0.410048
2284.77, 0.415357
2285.78, 0.420666
2286.79, 0.426170
2287.8, 0.431138
2288.81, 0.435862
2289.82, 0.440245
2290.83, 0.444288
2291.84, 0.448184
2292.86, 0.451448
2293.87, 0.454516
2294.89, 0.456610
2295.91, 0.458266
2296.92, 0.459484
2297.94, 0.459971
2298.96, 0.459533
2299.98, 0.458997
2301.0, 0.458899
2302.02, 0.458023
2303.04, 0.457438
2304.07, 0.457731
2305.09, 0.458558
2306.12, 0.459679
2307.15, 0.462017
2308.17, 0.465231
2309.2, 0.469079
2310.23, 0.473219
2311.26, 0.477554
2312.29, 0.481693
2313.32, 0.485931
2314.35, 0.489730
2315.39, 0.493480
2316.42, 0.496549
2317.46, 0.499422
2318.5, 0.502101
2319.53, 0.504195
2320.57, 0.506289
2321.61, 0.507994
2322.65, 0.509699
2323.69, 0.511598
2324.73, 0.512816
2325.78, 0.513839
2326.82, 0.514715
2327.86, 0.515592
2328.91, 0.516712
2329.96, 0.517638
2331.01, 0.518320
2332.05, 0.518758
2333.1, 0.519391
2334.15, 0.519635
2335.21, 0.519878
2336.26, 0.520122
2337.31, 0.520463
2338.36, 0.520463
2339.42, 0.520414
2340.48, 0.520609
2341.53, 0.520852
2342.59, 0.520755
2343.65, 0.520414
2344.71, 0.520171
2345.77, 0.519342
2346.83, 0.518807
2347.9, 0.518563
2348.96, 0.518320
2350.02, 0.517784
2351.09, 0.517005
2352.16, 0.515884
2353.23, 0.515251
2354.29, 0.514472
2355.36, 0.513059
2356.43, 0.511696
2357.51, 0.510478
2358.58, 0.509504
2359.65, 0.508627
2360.73, 0.507166
2361.8, 0.505462
2362.88, 0.504000
2363.96, 0.502491
2365.03, 0.500981
2366.11, 0.499471
2367.19, 0.497815
2368.27, 0.495964
2369.36, 0.494211
2370.44, 0.492214
2371.53, 0.490363
2372.61, 0.488610
2373.7, 0.486564
2374.78, 0.484567
2375.87, 0.482424
2376.96, 0.479989
2378.05, 0.477261
2379.14, 0.474631
2380.24, 0.472245
2381.33, 0.469858
2382.42, 0.467228
2383.52, 0.464257
2384.61, 0.461237
2385.71, 0.458071
2386.81, 0.455149
2387.91, 0.452178
2389.01, 0.448866
2390.11, 0.445554
2391.22, 0.442096
2392.32, 0.438784
2393.42, 0.435618
2394.53, 0.432160
2395.64, 0.429092
2396.74, 0.426218
2397.85, 0.423199
2398.96, 0.420033
2400.07, 0.417013
2401.18, 0.414627
2402.3, 0.412143
2403.41, 0.409853
2404.52, 0.408051
2405.64, 0.406347
2406.76, 0.404691
2407.88, 0.403230
2408.99, 0.402012
2410.11, 0.401135
2411.23, 0.400161
2412.36, 0.399528
2413.48, 0.399041
2414.6, 0.398505
2415.73, 0.397872
2416.85, 0.397628
2417.98, 0.397482
2419.11, 0.397482
2420.24, 0.397482
2421.37, 0.397726
2422.5, 0.398018
2423.64, 0.398262
2424.77, 0.398505
2425.9, 0.398992
2427.04, 0.399577
2428.18, 0.399723
2429.31, 0.400015
2430.45, 0.400453
2431.59, 0.400697
2432.73, 0.400648
2433.88, 0.400356
2435.02, 0.400064
2436.16, 0.399820
2437.31, 0.399333
2438.45, 0.398505
2439.6, 0.397239
2440.75, 0.395875
2441.9, 0.394463
2443.05, 0.392758
2444.2, 0.390712
2445.35, 0.388472
2446.51, 0.385988
2447.67, 0.383601
2448.82, 0.381166
2449.98, 0.378293
2451.14, 0.375322
2452.3, 0.372594
2453.46, 0.370256
2454.62, 0.368064
2455.78, 0.366214
2456.94, 0.364412
2458.11, 0.363097
2459.28, 0.361830
2460.44, 0.360807
2461.61, 0.360418
2462.78, 0.360223
2463.95, 0.360369
2465.12, 0.360807
2466.3, 0.361684
2467.47, 0.362707
2468.65, 0.363584
2469.82, 0.364460
2471.0, 0.365142
2472.18, 0.366116
2473.36, 0.367285
2474.54, 0.368211
2475.72, 0.368795
2476.9, 0.369428
2478.08, 0.370159
2479.27, 0.370695
2480.46, 0.371133
2481.64, 0.371328
2482.83, 0.371279
2484.02, 0.371230
2485.21, 0.371474
2486.4, 0.371669
2487.6, 0.371182
2488.79, 0.370597
2489.99, 0.369818
2491.18, 0.368941
2492.38, 0.367772
2493.58, 0.366408
2494.78, 0.364850
2495.98, 0.363194
2497.18, 0.361051
2498.39, 0.358226
2499.59, 0.355060
2500.8, 0.351553
2502.01, 0.347706
2503.21, 0.343663
2504.42, 0.339572
2505.63, 0.335042
2506.84, 0.330708
2508.06, 0.326178
2509.27, 0.321843
2510.49, 0.317801
2511.7, 0.314489
2512.92, 0.312054
2514.14, 0.310300
2515.36, 0.309570
2516.58, 0.309618
2517.8, 0.310641
2519.03, 0.312248
2520.25, 0.314050
2521.48, 0.316729
2522.7, 0.319457
2523.93, 0.321989
2525.16, 0.324425
2526.39, 0.326665
2527.62, 0.329003
2528.86, 0.331195
2530.09, 0.332607
2531.33, 0.333533
2532.56, 0.334653
2533.8, 0.336114
2535.04, 0.336552
2536.28, 0.337137
2537.52, 0.338549
2538.76, 0.339085
2540.01, 0.339475
2541.25, 0.339085
2542.5, 0.338257
2543.75, 0.339134
2544.99, 0.340351
2546.24, 0.340595
2547.49, 0.340400
2548.75, 0.341423
2550.0, 0.341423
2551.26, 0.340643
2552.51, 0.340546
2553.77, 0.342397
2555.03, 0.343809
2556.29, 0.343907
2557.55, 0.343809
2558.81, 0.342446
2560.08, 0.338500
2561.34, 0.334945
2562.61, 0.334361
2563.88, 0.334361
2565.14, 0.336455
2566.41, 0.337867
2567.68, 0.335481
2568.96, 0.330805
2570.23, 0.330318
2571.51, 0.330464
2572.78, 0.325009
2574.06, 0.324181
2575.34, 0.323597
2576.62, 0.320236
2577.9, 0.320382
2579.18, 0.319311
2580.47, 0.314635
2581.75, 0.311761
2583.04, 0.305965
2584.32, 0.303725
2585.61, 0.304066
2586.9, 0.299926
2588.2, 0.298221
2589.49, 0.297247
2590.78, 0.295981
2592.08, 0.291597
2593.37, 0.280054
2594.67, 0.270411
2595.97, 0.275427
2597.27, 0.280249
2598.57, 0.279908
2599.88, 0.276353
2601.18, 0.271628
2602.49, 0.267440
2603.79, 0.262228
2605.1, 0.256676
2606.41, 0.256530
2607.72, 0.256773
2609.03, 0.255458
2610.35, 0.254971
2611.66, 0.254874
2612.98, 0.253656
2614.3, 0.253413
2615.62, 0.249127
2616.94, 0.247032
2618.26, 0.249614
2619.58, 0.247324
2620.91, 0.248396
2622.23, 0.253120
2623.56, 0.254192
2624.89, 0.252633
2626.22, 0.249419
2627.55, 0.252244
2628.88, 0.251951
2630.21, 0.250003
2631.55, 0.255410
2632.89, 0.259257
2634.22, 0.261790
2635.56, 0.266417
2636.9, 0.269680
2638.25, 0.272749
2639.59, 0.275379
2640.93, 0.278057
2642.28, 0.280931
2643.63, 0.283951
2644.98, 0.284681
2646.33, 0.287798
2647.68, 0.291500
2649.03, 0.294130
2650.39, 0.295007
2651.74, 0.294568
2653.1, 0.297004
2654.46, 0.299975
2655.82, 0.301972
2657.18, 0.305478
2658.54, 0.304943
2659.9, 0.305624
2661.27, 0.307719
2662.64, 0.309083
2664.01, 0.304553
2665.38, 0.301095
2666.74, 0.303676
2668.12, 0.309911
2669.49, 0.305478
2670.87, 0.307719
2672.24, 0.318872
2673.62, 0.321795
2675.0, 0.319165
2676.38, 0.316729
2677.76, 0.319262
2679.15, 0.322038
2680.54, 0.327931
2681.92, 0.329977
2683.31, 0.330318
2684.7, 0.332753
2686.09, 0.335432
2687.48, 0.339036
2688.88, 0.342981
2690.27, 0.346732
2691.67, 0.347608
2693.07, 0.344735
2694.47, 0.346585
2695.87, 0.352284
2697.27, 0.357398
2698.67, 0.358908
2700.08, 0.356960
2701.49, 0.356229
2702.9, 0.357983
2704.31, 0.357447
2705.72, 0.355937
2707.13, 0.352430
2708.54, 0.346147
2709.96, 0.339036
2711.38, 0.338111
2712.8, 0.342056
2714.22, 0.340741
2715.64, 0.337234
2717.06, 0.332364
2718.49, 0.325301
2719.91, 0.314781
2721.34, 0.314538
2722.77, 0.313661
2724.2, 0.307475
2725.63, 0.308352
2727.07, 0.309667
2728.5, 0.307427
2729.94, 0.304115
2731.38, 0.300851
2732.82, 0.296030
2734.26, 0.289649
2735.7, 0.287555
2737.15, 0.284340
2738.59, 0.275281
2740.04, 0.269534
2741.49, 0.269388
2742.94, 0.270167
2744.39, 0.267878
2745.84, 0.263836
2747.3, 0.259452
2748.76, 0.254922
2750.21, 0.250101
2751.67, 0.244841
2753.14, 0.238460
2754.6, 0.228817
2756.06, 0.225212
2757.53, 0.225310
2759.0, 0.221657
2760.46, 0.215569
2761.94, 0.207435
2763.41, 0.201542
2764.88, 0.197110
2766.36, 0.190924
2767.83, 0.184300
2769.31, 0.178261
2770.79, 0.172367
2772.27, 0.168325
2773.76, 0.164428
2775.24, 0.159607
2776.73, 0.154541
2778.22, 0.149963
2779.71, 0.144800
2781.2, 0.139443
2782.69, 0.134670
2784.18, 0.129604
2785.68, 0.123126
2787.18, 0.117964
2788.68, 0.115626
2790.18, 0.114457
2791.68, 0.113483
2793.19, 0.112947
2794.69, 0.112314
2796.2, 0.111583
2797.71, 0.110999
2799.22, 0.110658
2800.73, 0.109635
2802.24, 0.107736
2803.76, 0.106956
2805.28, 0.107054
2806.8, 0.106664
2808.32, 0.105739
2809.84, 0.104667
2811.36, 0.103547
2812.89, 0.102037
2814.42, 0.0999920
2815.94, 0.0980920
2817.48, 0.0958030
2819.01, 0.0931730
2820.54, 0.0906890
2822.08, 0.0880100
2823.61, 0.0853310
2825.15, 0.0823600
2826.69, 0.0791460
2828.23, 0.0760290
2829.78, 0.0729600
2831.32, 0.0695510
2832.87, 0.0663850
2834.42, 0.0633650
2835.97, 0.0602970
2837.52, 0.0573750
2839.08, 0.0549390
2840.63, 0.0526020
2842.19, 0.0505560
2843.75, 0.0490460
2845.31, 0.0476340
2846.87, 0.0462210
2848.44, 0.0447600
2850.0, 0.0436880
2851.57, 0.0426170
2853.14, 0.0415450
2854.71, 0.0405230
2856.28, 0.0394020
2857.86, 0.0383310
2859.43, 0.0372110
2861.01, 0.0360420
2862.59, 0.0349700
2864.17, 0.0339470
2865.76, 0.0328760
2867.34, 0.0316100
2868.93, 0.0304890
2870.52, 0.0292720
2872.11, 0.0281520
2873.7, 0.0270800
2875.29, 0.0259600
2876.89, 0.0248880
2878.49, 0.0239140
2880.08, 0.0229890
2881.69, 0.0220630
2883.29, 0.0210890
2884.89, 0.0202610
2886.5, 0.0193850
2888.11, 0.0186540
2889.72, 0.0179720
2891.33, 0.0172420
2892.94, 0.0167550
2894.56, 0.0164620
2896.17, 0.0160240
2897.79, 0.0155860
2899.42, 0.0150500
2901.04, 0.0147580
2902.66, 0.0144650
2904.29, 0.0140760
2905.92, 0.0136860
2907.55, 0.0134430
2909.18, 0.0132480
2910.81, 0.0131020
2912.45, 0.0128090
2914.08, 0.0124690
2915.72, 0.0123220
2917.36, 0.0122250
2919.01, 0.0121280
2920.65, 0.0119810
2922.3, 0.0117380
2923.94, 0.0116410
2925.59, 0.0115920
2927.25, 0.0114460
2928.9, 0.0113970
2930.56, 0.0112510
2932.21, 0.0110560
2933.87, 0.0108610
2935.53, 0.0107640
2937.2, 0.0107150
2938.86, 0.0108130
2940.53, 0.0109590
2942.2, 0.0110560
2943.87, 0.0113000
2945.54, 0.0116890
2947.22, 0.0122250
2948.89, 0.0126630
2950.57, 0.0131500
2952.25, 0.0135400
2953.93, 0.0137840
2955.62, 0.0140270
2957.3, 0.0143190
2958.99, 0.0144650
2960.68, 0.0146600
2962.37, 0.0150990
2964.07, 0.0160730
2965.76, 0.0174360
2967.46, 0.0192390
2969.16, 0.0210890
2970.86, 0.0228910
2972.56, 0.0246930
2974.27, 0.0263490
2975.98, 0.0277620
2977.69, 0.0286870
2979.4, 0.0291260
2981.11, 0.0291260
2982.83, 0.0289310
2984.54, 0.0286870
2986.26, 0.0283460
2987.98, 0.0278590
2989.71, 0.0273720
2991.43, 0.0267880
2993.16, 0.0263010
2994.89, 0.0259110
2996.62, 0.0255210
2998.35, 0.0253270
3000.09, 0.0250830
3001.83, 0.0247420
3003.57, 0.0244990
3005.31, 0.0243530
3007.05, 0.0241580
3008.79, 0.0240600
3010.54, 0.0240600
3012.29, 0.0239630
3014.04, 0.0238170
3015.8, 0.0237190
3017.55, 0.0234760
3019.31, 0.0234760
3021.07, 0.0235250
3022.83, 0.0235250
3024.59, 0.0234270
3026.36, 0.0233300
3028.13, 0.0234760
3029.9, 0.0236710
3031.67, 0.0236220
3033.44, 0.0235250
3035.22, 0.0234270
3037.0, 0.0235730
3038.78, 0.0238170
3040.56, 0.0239140
3042.34, 0.0240600
3044.13, 0.0243040
3045.92, 0.0244010
3047.71, 0.0246450
3049.5, 0.0248880
3051.3, 0.0251810
3053.09, 0.0255210
3054.89, 0.0257650
3056.69, 0.0257650
3058.5, 0.0259600
3060.3, 0.0262520
3062.11, 0.0266420
3063.92, 0.0269830
3065.73, 0.0273240
3067.55, 0.0276160
3069.36, 0.0281030
3071.18, 0.0286390
3073.0, 0.0293200
3074.82, 0.0298560
3076.65, 0.0303920
3078.48, 0.0310250
3080.31, 0.0315120
3082.14, 0.0319510
3083.97, 0.0325350
3085.8, 0.0329730
3087.64, 0.0334120
3089.48, 0.0337040
3091.33, 0.0341910
3093.17, 0.0345810
3095.02, 0.0350190
3096.87, 0.0354090
3098.72, 0.0356520
3100.57, 0.0358960
3102.43, 0.0362850
3104.28, 0.0366750
3106.14, 0.0369670
3108.01, 0.0370650
3109.87, 0.0374540
3111.74, 0.0380390
3113.61, 0.0385260
3115.48, 0.0386720
3117.35, 0.0389640
3119.23, 0.0392560
3121.1, 0.0396460
3122.98, 0.0401820
3124.87, 0.0405710
3126.75, 0.0408150
3128.64, 0.0412050
3130.53, 0.0418380
3132.42, 0.0426660
3134.31, 0.0434940
3136.21, 0.0445160
3138.11, 0.0455390
3140.01, 0.0467080
3141.91, 0.0477310
3143.82, 0.0486560
3145.73, 0.0495820
3147.64, 0.0504580
3149.55, 0.0512860
3151.46, 0.0520170
3153.38, 0.0526500
3155.3, 0.0530890
3157.22, 0.0535270
3159.14, 0.0539650
3161.07, 0.0542090
3163.0, 0.0544520
3164.93, 0.0546960
3166.86, 0.0549880
3168.8, 0.0551340
3170.74, 0.0551830
3172.68, 0.0552320
3174.62, 0.0554260
3176.56, 0.0556210
3178.51, 0.0557670
3180.46, 0.0558650
3182.42, 0.0561570
3184.37, 0.0564980
3186.33, 0.0569850
3188.29, 0.0574720
3190.25, 0.0581050
3192.21, 0.0588360
3194.18, 0.0597610
3196.15, 0.0607840
3198.12, 0.0620990
3200.09, 0.0635600
3202.07, 0.0651190
3204.05, 0.0664820
3206.03, 0.0679920
3208.02, 0.0696000
3210.0, 0.0711090
3211.99, 0.0724730
3213.98, 0.0740320
3215.98, 0.0756880
3217.97, 0.0773920
3219.97, 0.0791940
3221.97, 0.0811430
3223.98, 0.0830420
3225.98, 0.0851850
3227.99, 0.0873770
3230.0, 0.0895690
3232.02, 0.0916140
3234.03, 0.0935620
3236.05, 0.0954130
3238.07, 0.0973130
3240.1, 0.0990170
3242.12, 0.100479
3244.15, 0.101988
3246.18, 0.103401
3248.22, 0.104667
3250.25, 0.105934
3252.29, 0.107103
3254.33, 0.108174
3256.38, 0.109294
3258.43, 0.110561
3260.47, 0.111583
3262.53, 0.112801
3264.58, 0.114019
3266.64, 0.115382
3268.7, 0.116600
3270.76, 0.118012
3272.82, 0.119474
3274.89, 0.120935
3276.96, 0.122445
3279.04, 0.124003
3281.11, 0.125610
3283.19, 0.127364
3285.27, 0.129458
3287.35, 0.131650
3289.44, 0.133549
3291.53, 0.135741
3293.62, 0.138030
3295.71, 0.140417
3297.81, 0.142949
3299.91, 0.145726
3302.01, 0.148356
3304.11, 0.151035
3306.22, 0.153616
3308.33, 0.156149
3310.44, 0.158633
3312.56, 0.161165
3314.68, 0.163454
3316.8, 0.165646
3318.92, 0.167692
3321.05, 0.169737
3323.18, 0.171588
3325.31, 0.173341
3327.44, 0.174949
3329.58, 0.176459
3331.72, 0.177920
3333.86, 0.179332
3336.01, 0.180842
3338.16, 0.182303
3340.31, 0.183716
3342.46, 0.185177
3344.61, 0.186735
3346.77, 0.188343
3348.94, 0.189852
3351.1, 0.191460
3353.27, 0.193213
3355.44, 0.194820
3357.61, 0.196476
3359.79, 0.198181
3361.97, 0.199886
3364.15, 0.201444
3366.33, 0.202954
3368.52, 0.204561
3370.71, 0.206120
3372.9, 0.207630
3375.1, 0.209091
3377.3, 0.210552
3379.5, 0.212013
3381.71, 0.213523
3383.91, 0.214838
3386.12, 0.216153
3388.34, 0.217322
3390.55, 0.218540
3392.77, 0.219757
3394.99, 0.220780
3397.22, 0.221706
3399.45, 0.222923
3401.68, 0.224043
3403.91, 0.225018
3406.15, 0.225894
3408.39, 0.226722
3410.63, 0.227502
3412.87, 0.228281
3415.12, 0.229060
3417.37, 0.229985
3419.63, 0.230960
3421.88, 0.231982
3424.14, 0.233200
3426.41, 0.234466
3428.67, 0.235635
3430.94, 0.236755
3433.21, 0.237876
3435.49, 0.239191
3437.77, 0.240408
3440.05, 0.241577
3442.33, 0.242698
3444.62, 0.243866
3446.91, 0.245035
3449.2, 0.246204
3451.5, 0.247324
3453.8, 0.248445
3456.1, 0.249711
3458.41, 0.250977
3460.72, 0.252292
3463.03, 0.253705
3465.34, 0.255117
3467.66, 0.256530
3469.98, 0.257942
3472.31, 0.259549
3474.63, 0.261205
3476.96, 0.262813
3479.3, 0.264274
3481.64, 0.265832
3483.97, 0.267391
3486.32, 0.268755
3488.66, 0.269972
3491.01, 0.271141
3493.36, 0.272505
3495.72, 0.273917
3498.08, 0.275184
3500.44, 0.276499
3502.81, 0.277960
3505.18, 0.279372
3507.55, 0.280590
3509.92, 0.281662
3512.3, 0.282490
3514.68, 0.283415
3517.06, 0.284340
3519.45, 0.285363
3521.84, 0.286337
3524.24, 0.287263
3526.64, 0.288091
3529.04, 0.288967
3531.44, 0.289990
3533.85, 0.290964
3536.26, 0.291744
3538.67, 0.292620
3541.09, 0.293594
3543.51, 0.294520
3545.93, 0.295445
3548.36, 0.296273
3550.79, 0.297150
3553.22, 0.298027
3555.66, 0.298855
3558.1, 0.299731
3560.54, 0.300657
3562.99, 0.301679
3565.44, 0.302605
3567.9, 0.303530
3570.35, 0.304456
3572.81, 0.305430
3575.28, 0.306501
3577.75, 0.307621
3580.22, 0.308790
3582.69, 0.309862
3585.17, 0.310933
3587.65, 0.312054
3590.14, 0.313222
3592.62, 0.314391
3595.11, 0.315463
3597.61, 0.316583
3600.11, 0.317801
3602.61, 0.318921
3605.11, 0.319993
3607.62, 0.321064
3610.14, 0.321989
3612.65, 0.323110
3615.17, 0.324084
3617.69, 0.325009
3620.22, 0.325886
3622.75, 0.326762
3625.28, 0.327639
3627.82, 0.328565
3630.36, 0.329393
3632.9, 0.330172
3635.45, 0.330902
3638.0, 0.331633
3640.56, 0.332558
3643.12, 0.333386
3645.68, 0.334117
3648.24, 0.334896
3650.81, 0.335773
3653.39, 0.336601
3655.96, 0.337575
3658.54, 0.338598
3661.13, 0.339767
3663.71, 0.341082
3666.3, 0.342446
3668.9, 0.343712
3671.5, 0.344832
3674.1, 0.346050
3676.7, 0.347267
3679.31, 0.348582
3681.93, 0.349897
3684.54, 0.351066
3687.17, 0.352235
3689.79, 0.353307
3692.42, 0.354427
3695.05, 0.355304
3697.69, 0.356278
3700.32, 0.357203
3702.97, 0.358129
3705.61, 0.359054
3708.27, 0.359931
3710.92, 0.360710
3713.58, 0.361538
3716.24, 0.362415
3718.91, 0.363243
3721.58, 0.364119
3724.25, 0.364996
3726.93, 0.365873
3729.61, 0.366506
3732.29, 0.367188
3734.98, 0.367870
3737.67, 0.368454
3740.37, 0.369233
3743.07, 0.370013
3745.78, 0.370841
3748.49, 0.371571
3751.2, 0.372253
3753.91, 0.372935
3756.63, 0.373666
3759.36, 0.374396
3762.09, 0.375078
3764.82, 0.375711
3767.55, 0.376247
3770.29, 0.376734
3773.04, 0.377221
3775.78, 0.377659
3778.54, 0.378146
3781.29, 0.378633
3784.05, 0.379072
3786.82, 0.379559
3789.59, 0.380095
3792.36, 0.380679
3795.13, 0.381215
3797.92, 0.381799
3800.7, 0.382286
3803.49, 0.382773
3806.28, 0.383358
3809.08, 0.383845
3811.88, 0.384186
3814.68, 0.384624
3817.49, 0.385063
3820.31, 0.385452
3823.12, 0.385793
3825.94, 0.386231
3828.77, 0.386670
3831.6, 0.387157
3834.43, 0.387595
3837.27, 0.387887
3840.11, 0.388180
3842.96, 0.388569
3845.81, 0.388910
3848.67, 0.389154
3851.53, 0.389495
3854.39, 0.389787
3857.26, 0.390079
3860.13, 0.390371
3863.01, 0.390664
3865.89, 0.390907
3868.77, 0.391053
3871.66, 0.391297
3874.55, 0.391492
3877.45, 0.391638
3880.35, 0.391881
3883.26, 0.392125
3886.17, 0.392320
3889.09, 0.392466
3892.01, 0.392612
3894.93, 0.392807
3897.86, 0.392953
3900.79, 0.393148
3903.73, 0.393391
3906.67, 0.393537
3909.62, 0.393635
3912.57, 0.393732
3915.52, 0.393927
3918.48, 0.394073
3921.45, 0.394073
3924.42, 0.394122
3927.39, 0.394219
3930.37, 0.394316
3933.35, 0.394365
3936.34, 0.394316
3939.33, 0.394268
3942.32, 0.394316
3945.32, 0.394219
3948.33, 0.394024
3951.34, 0.393829
3954.35, 0.393683
3957.37, 0.393391
3960.39, 0.392855
3963.42, 0.392368
3966.45, 0.391784
3969.49, 0.390956
3972.53, 0.390030
3975.58, 0.389154
3978.63, 0.388180
3981.68, 0.386913
3984.75, 0.385306
3987.81, 0.383066
3990.88, 0.379948
3993.95, 0.376052
3997.03, 0.371815
4000.12, 0.368698
4003.21, 0.368844
4006.3, 0.372253
4009.4, 0.377026
4012.5, 0.381264
4015.61, 0.384381
4018.72, 0.386426
4021.84, 0.387741
4024.96, 0.388569
4028.09, 0.389008
4031.22, 0.389251
4034.36, 0.389446
4037.5, 0.389495
4040.65, 0.389349
4043.8, 0.389154
4046.96, 0.388862
4050.12, 0.388521
4053.29, 0.388228
4056.46, 0.387839
4059.64, 0.387449
4062.82, 0.387059
4066.0, 0.386524
4069.19, 0.386037
4072.39, 0.385550
4075.59, 0.385014
4078.8, 0.384429
4082.01, 0.383894
4085.23, 0.383407
4088.45, 0.382871
4091.68, 0.382286
4094.91, 0.381799
4098.15, 0.381312
4101.39, 0.380923
4104.63, 0.380484
4107.89, 0.379997
4111.14, 0.379461
4114.41, 0.378974
4117.67, 0.378536
4120.95, 0.377903
4124.23, 0.377221
4127.51, 0.376588
4130.8, 0.375955
4134.09, 0.375273
4137.39, 0.374542
4140.7, 0.373763
4144.01, 0.372935
4147.32, 0.371912
4150.64, 0.370889
4153.97, 0.369964
4157.3, 0.368941
4160.64, 0.367772
4163.98, 0.366555
4167.33, 0.365288
4170.68, 0.364022
4174.04, 0.362756
4177.4, 0.361343
4180.77, 0.359979
4184.14, 0.358421
4187.52, 0.356862
4190.91, 0.355255
4194.3, 0.353453
4197.69, 0.351261
4201.1, 0.348534
4204.5, 0.345465
4207.92, 0.341861
4211.34, 0.337819
4214.76, 0.333581
4218.19, 0.329344
4221.62, 0.325301
4225.06, 0.321649
4228.51, 0.318483
4231.96, 0.315853
4235.42, 0.313953
4238.88, 0.312589
4242.35, 0.311956
4245.83, 0.312005
4249.31, 0.312882
4252.79, 0.314148
4256.28, 0.313758
4259.78, 0.310057
4263.29, 0.305040
4266.79, 0.300900
4270.31, 0.298027
4273.83, 0.296030
4277.35, 0.294568
4280.89, 0.293253
4284.42, 0.292084
4287.97, 0.291208
4291.52, 0.290623
4295.07, 0.290282
4298.63, 0.290234
4302.2, 0.290380
4305.78, 0.290721
4309.35, 0.291403
4312.94, 0.292182
4316.53, 0.293156
4320.13, 0.294081
4323.73, 0.295007
4327.34, 0.295981
4330.96, 0.296906
4334.58, 0.297539
4338.21, 0.297929
4341.84, 0.298173
4345.48, 0.298270
4349.12, 0.298027
4352.77, 0.297539
4356.43, 0.297004
4360.1, 0.296322
4363.76, 0.295689
4367.44, 0.295007
4371.12, 0.294081
4374.81, 0.293059
4378.51, 0.292084
4382.21, 0.290964
4385.92, 0.289795
4389.63, 0.288773
4393.35, 0.287604
4397.08, 0.286435
4400.81, 0.285217
4404.55, 0.283999
4408.29, 0.282733
4412.04, 0.281369
4415.8, 0.279957
4419.57, 0.278447
4423.34, 0.276888
4427.12, 0.275184
4430.9, 0.273382
4434.69, 0.271190
4438.49, 0.268706
4442.29, 0.265735
4446.1, 0.262326
4449.92, 0.258478
4453.74, 0.254435
4457.57, 0.250539
4461.41, 0.247276
4465.25, 0.244694
4469.1, 0.242698
4472.95, 0.241139
4476.82, 0.239824
4480.69, 0.238460
4484.56, 0.237048
4488.44, 0.235538
4492.33, 0.233687
4496.23, 0.231495
4500.13, 0.228963
4504.04, 0.226040
4507.96, 0.222728
4511.88, 0.218929
4515.81, 0.214692
4519.75, 0.210114
4523.69, 0.204902
4527.65, 0.199399
4531.6, 0.193992
4535.57, 0.188878
4539.54, 0.184251
4543.52, 0.180501
4547.5, 0.177676
4551.5, 0.176020
4555.5, 0.175777
4559.5, 0.176897
4563.52, 0.179089
4567.54, 0.181719
4571.56, 0.184349
4575.6, 0.186589
4579.64, 0.188148
4583.69, 0.189122
4587.75, 0.189414
4591.81, 0.189365
4595.88, 0.188878
4599.96, 0.188197
4604.04, 0.187174
4608.14, 0.186005
4612.24, 0.184641
4616.34, 0.183180
4620.46, 0.181865
4624.58, 0.180842
4628.71, 0.180111
4632.84, 0.179673
4636.99, 0.179430
4641.14, 0.179430
4645.3, 0.179332
4649.47, 0.178943
4653.64, 0.178163
4657.82, 0.176800
4662.01, 0.174608
4666.21, 0.171783
4670.41, 0.168374
4674.62, 0.164575
4678.84, 0.160483
4683.07, 0.156489
4687.3, 0.152690
4691.54, 0.149476
4695.79, 0.146651
4700.05, 0.144070
4704.31, 0.141683
4708.59, 0.139784
4712.87, 0.138566
4717.15, 0.138322
4721.45, 0.139004
4725.76, 0.140660
4730.07, 0.142755
4734.39, 0.144946
4738.72, 0.146310
4743.05, 0.146456
4747.39, 0.145385
4751.75, 0.143339
4756.1, 0.140417
4760.47, 0.136910
4764.85, 0.133111
4769.23, 0.129117
4773.62, 0.125172
4778.02, 0.121714
4782.43, 0.119425
4786.85, 0.118743
4791.27, 0.119425
4795.7, 0.120983
4800.14, 0.122396
4804.59, 0.123273
4809.05, 0.122834
4813.51, 0.121081
4817.99, 0.118207
4822.47, 0.114652
4826.96, 0.110512
4831.46, 0.106031
4835.96, 0.101355
4840.48, 0.0967280
4845.0, 0.0922960
4849.54, 0.0880590
4854.08, 0.0839680
4858.63, 0.0800220
4863.18, 0.0760770
4867.75, 0.0720840
4872.33, 0.0679920
4876.91, 0.0641930
4881.5, 0.0609300
4886.1, 0.0588840
4890.71, 0.0584460
4895.33, 0.0601510
4899.96, 0.0641450
4904.59, 0.0701840
4909.24, 0.0777820
4913.89, 0.0862570
4918.55, 0.0947310
4923.22, 0.102670
4927.9, 0.109781
4932.59, 0.115918
4937.29, 0.120789
4942.0, 0.124393
4946.71, 0.126438
4951.44, 0.127023
4956.17, 0.126341
4960.91, 0.125221
4965.67, 0.123808
4970.43, 0.121811
4975.2, 0.118694
4979.98, 0.114360
4984.76, 0.108807
4989.56, 0.102427
4994.37, 0.0954620
4999.18, 0.0884000
5004.01, 0.0815320
5008.84, 0.0752980
5013.69, 0.0699890
5018.54, 0.0660930
5023.4, 0.0644370
5028.28, 0.0652160
5033.16, 0.0679440
5038.05, 0.0725710
5042.95, 0.0789020
5047.86, 0.0868410
5052.78, 0.0959980
5057.71, 0.105982
5062.65, 0.116259
5067.6, 0.126585
5072.56, 0.136813
5077.53, 0.146846
5082.5, 0.156733
5087.49, 0.166961
5092.49, 0.177384
5097.5, 0.187807
5102.51, 0.198473
5107.54, 0.209091
5112.58, 0.219270
5117.62, 0.229158
5122.68, 0.238509
5127.75, 0.247227
5132.82, 0.255215
5137.91, 0.262569
5143.01, 0.269047
5148.12, 0.275330
5153.23, 0.282392
5158.36, 0.288675
5163.5, 0.294130
5168.65, 0.299293
5173.81, 0.304261
5178.98, 0.308839
5184.15, 0.313222
5189.34, 0.317216
5194.54, 0.320480
5199.75, 0.323645
5204.98, 0.327493
5210.21, 0.329685
5215.45, 0.332753
5220.7, 0.337575
5225.96, 0.340887
5231.23, 0.343274
5236.52, 0.345465
5241.81, 0.348144
5247.12, 0.350531
5252.44, 0.352625
5257.76, 0.354330
5263.1, 0.356034
5268.45, 0.357252
5273.81, 0.358177
5279.18, 0.359492
5284.56, 0.360466
5289.95, 0.360223
5295.36, 0.361684
5300.77, 0.363437
5306.2, 0.364168
5311.63, 0.364801
5317.08, 0.365337
5322.54, 0.365775
5328.01, 0.366068
5333.49, 0.366262
5338.98, 0.366311
5344.49, 0.364265
5350.0, 0.362074
5355.53, 0.363973
5361.07, 0.365970
5366.62, 0.366457
5372.18, 0.366262
5377.75, 0.366019
5383.34, 0.365775
5388.93, 0.365727
5394.54, 0.365483
5400.16, 0.365191
5405.79, 0.364460
5411.44, 0.363437
5417.09, 0.359785
5422.76, 0.357155
5428.43, 0.361100
5434.12, 0.362707
5439.83, 0.361879
5445.54, 0.361197
5451.26, 0.360661
5457.0, 0.358470
5462.75, 0.354719
5468.52, 0.354914
5474.29, 0.354719
5480.08, 0.353307
5485.88, 0.354378
5491.69, 0.353891
5497.51, 0.352528
5503.35, 0.350920
5509.2, 0.349849
5515.06, 0.347706
5520.93, 0.345368
5526.82, 0.344102
5532.71, 0.343322
5538.63, 0.341715
5544.55, 0.339134
5550.49, 0.335822
5556.44, 0.334507
5562.4, 0.334214
5568.37, 0.332656
5574.36, 0.327590
5580.36, 0.325009
5586.37, 0.327834
5592.4, 0.328857
5598.44, 0.326909
5604.49, 0.325935
5610.56, 0.325496
5616.63, 0.324425
5622.73, 0.324766
5628.83, 0.323938
5634.95, 0.319749
5641.08, 0.314586
5647.23, 0.317070
5653.39, 0.318629
5659.56, 0.319652
5665.74, 0.320187
5671.94, 0.316145
5678.15, 0.314586
5684.38, 0.314927
5690.62, 0.312589
5696.87, 0.312687
5703.14, 0.310690
5709.42, 0.306112
5715.72, 0.306696
5722.03, 0.308596
5728.35, 0.309911
5734.69, 0.309375
5741.03, 0.307670
5747.4, 0.305430
5753.78, 0.307134
5760.17, 0.301241
5766.58, 0.294374
5773.0, 0.300072
5779.44, 0.303043
5785.88, 0.302800
5792.35, 0.301777
5798.83, 0.299147
5805.32, 0.297101
5811.83, 0.292377
5818.35, 0.283025
5824.89, 0.280347
5831.45, 0.284146
5838.01, 0.287214
5844.59, 0.288870
5851.19, 0.288870
5857.8, 0.287847
5864.43, 0.287798
5871.07, 0.288285
5877.73, 0.279080
5884.4, 0.279957
5891.09, 0.283074
5897.79, 0.281759
5904.5, 0.288626
5911.23, 0.289308
5917.98, 0.286581
5924.75, 0.283025
5931.53, 0.272700
5938.32, 0.266709
5945.13, 0.272359
5951.96, 0.272700
5958.8, 0.269388
5965.65, 0.261303
5972.53, 0.258088
5979.42, 0.256091
5986.32, 0.249565
5993.24, 0.247032
6000.18, 0.247714
6007.13, 0.243818
6014.1, 0.239483
6021.08, 0.239191
6028.09, 0.238411
6035.1, 0.234710
6042.14, 0.223508
6049.19, 0.214108
6056.25, 0.221267
6063.34, 0.221608
6070.44, 0.213280
6077.55, 0.210163
6084.69, 0.210211
6091.84, 0.207094
6099.0, 0.203490
6106.19, 0.198230
6113.39, 0.195648
6120.61, 0.203100
6127.84, 0.211380
6135.09, 0.215764
6142.36, 0.219222
6149.65, 0.222436
6156.95, 0.223118
6164.27, 0.225797
6171.61, 0.228768
6178.97, 0.225261
6186.34, 0.223264
6193.73, 0.228135
6201.14, 0.229791
6208.57, 0.228914
6216.01, 0.227891
6223.47, 0.227112
6230.95, 0.225894
6238.45, 0.224238
6245.97, 0.222680
6253.5, 0.220975
6261.06, 0.218832
6268.63, 0.216689
6276.21, 0.215033
6283.82, 0.213669
6291.45, 0.212306
6299.1, 0.211429
6306.76, 0.210601
6314.44, 0.210260
6322.14, 0.210309
6329.86, 0.210309
6337.6, 0.206656
6345.35, 0.205243
6353.13, 0.211185
6360.92, 0.212695
6368.74, 0.210601
6376.57, 0.212793
6384.43, 0.214741
6392.3, 0.214692
6400.19, 0.212306
6408.1, 0.202418
6416.03, 0.199155
6423.98, 0.206510
6431.95, 0.209286
6439.94, 0.211137
6447.95, 0.211819
6455.98, 0.212062
6464.03, 0.211867
6472.1, 0.209237
6480.19, 0.206315
6488.31, 0.201737
6496.44, 0.203100
6504.59, 0.211526
6512.76, 0.213669
6520.95, 0.212208
6529.16, 0.215374
6537.4, 0.216153
6545.65, 0.214351
6553.92, 0.212744
6562.22, 0.211137
6570.54, 0.206510
6578.88, 0.207679
6587.23, 0.208701
6595.61, 0.208263
6604.02, 0.208750
6612.44, 0.206997
6620.89, 0.204123
6629.35, 0.196817
6637.84, 0.191557
6646.35, 0.196282
6654.88, 0.199058
6663.44, 0.196087
6672.01, 0.191606
6680.61, 0.187953
6689.23, 0.187807
6697.88, 0.186541
6706.54, 0.181475
6715.23, 0.178115
6723.94, 0.176410
6732.67, 0.174608
6741.42, 0.171491
6750.2, 0.167497
6759.0, 0.163990
6767.82, 0.159558
6776.67, 0.155028
6785.54, 0.150499
6794.44, 0.149232
6803.35, 0.150888
6812.29, 0.150304
6821.26, 0.147869
6830.24, 0.147333
6839.25, 0.148502
6848.29, 0.146797
6857.35, 0.142560
6866.43, 0.142414
6875.54, 0.147333
6884.67, 0.148989
6893.82, 0.149135
6903.0, 0.148356
6912.2, 0.148891
6921.43, 0.149671
6930.69, 0.149817
6939.96, 0.149622
6949.27, 0.147917
6958.59, 0.145044
6967.95, 0.146505
6977.33, 0.147674
6986.73, 0.146651
6996.16, 0.145872
7005.61, 0.145872
7015.09, 0.144898
7024.6, 0.144070
7034.13, 0.142511
7043.69, 0.139540
7053.27, 0.140027
7062.88, 0.141147
7072.52, 0.140709
7082.18, 0.139832
7091.87, 0.138810
7101.58, 0.137689
7111.32, 0.136082
7121.09, 0.135205
7130.88, 0.134767
7140.71, 0.133257
7150.56, 0.132088
7160.43, 0.131260
7170.33, 0.130237
7180.27, 0.130676
7190.23, 0.130335
7200.21, 0.128776
7210.23, 0.127851
7220.27, 0.128289
7230.34, 0.127997
7240.44, 0.127510
7250.56, 0.126828
7260.72, 0.126292
7270.9, 0.125075
7281.12, 0.124442
7291.36, 0.124198
7301.63, 0.123370
7311.93, 0.122299
7322.25, 0.121081
7332.61, 0.119230
7343.0, 0.118159
7353.41, 0.117574
7363.86, 0.116844
7374.33, 0.115772
7384.83, 0.114847
7395.37, 0.114116
7405.93, 0.113532
7416.53, 0.112996
7427.15, 0.112509
7437.81, 0.112022
7448.5, 0.111535
7459.22, 0.110463
7469.96, 0.109733
7480.74, 0.109148
7491.55, 0.108418
7502.39, 0.107346
7513.27, 0.106226
7524.17, 0.104862
7535.11, 0.103498
7546.08, 0.102086
7557.08, 0.100722
7568.11, 0.0993100
7579.17, 0.0979950
7590.27, 0.0968740
7601.4, 0.0959980
7612.56, 0.0951210
7623.76, 0.0945850
7634.98, 0.0941960
7646.24, 0.0938060
7657.54, 0.0932700
7668.87, 0.0927350
7680.23, 0.0919070
7691.62, 0.0908350
7703.05, 0.0894230
7714.51, 0.0877670
7726.01, 0.0857700
7737.54, 0.0836270
7749.11, 0.0811430
7760.71, 0.0786100
7772.35, 0.0759310
7784.02, 0.0732520
7795.72, 0.0705250
7807.46, 0.0679920
7819.23, 0.0654600
7831.04, 0.0631710
7842.89, 0.0608810
7854.77, 0.0587380
7866.69, 0.0566440
7878.65, 0.0548420
7890.64, 0.0529910
7902.67, 0.0512380
7914.74, 0.0493380
7926.84, 0.0476340
7938.98, 0.0461240
7951.16, 0.0446140
7963.37, 0.0430070
7975.62, 0.0416920
7987.91, 0.0404740
8000.24, 0.0398410
8012.6, 0.0397920
8025.01, 0.0404250
8037.45, 0.0408640
8049.93, 0.0410580
8062.45, 0.0408150
8075.01, 0.0403770
8087.61, 0.0396460
8100.24, 0.0389150
8112.91, 0.0381360
8125.63, 0.0373570
8138.39, 0.0364310
8151.18, 0.0355550
8164.02, 0.0348240
8176.9, 0.0343860
8189.81, 0.0338010
8202.77, 0.0333630
8215.77, 0.0331190
8228.82, 0.0329250
8241.9, 0.0325840
8255.02, 0.0322910
8268.19, 0.0318530
8281.39, 0.0314150
8294.65, 0.0308300
8307.94, 0.0301480
8321.28, 0.0291740
8334.66, 0.0281030
8348.08, 0.0267880
8361.54, 0.0253750
8375.05, 0.0237680
8388.6, 0.0222580
8402.2, 0.0207970
8415.84, 0.0195790
8429.52, 0.0183620
8443.25, 0.0172420
8457.02, 0.0162680
8470.84, 0.0155370
8484.7, 0.0150010
8498.61, 0.0146120
8512.57, 0.0141730
8526.57, 0.0140270
8540.62, 0.0140760
8554.71, 0.0145140
8568.85, 0.0151960
8583.04, 0.0162680
8597.27, 0.0176800
8611.55, 0.0195790
8625.88, 0.0217710
8640.26, 0.0245960
8654.68, 0.0282490
8669.16, 0.0327300
8683.68, 0.0378930
8698.25, 0.0440780
8712.87, 0.0511890
8727.53, 0.0594690
8742.25, 0.0688690
8757.02, 0.0792920
8771.83, 0.0902510
8786.7, 0.101355
8801.62, 0.111924
8816.59, 0.121519
8831.61, 0.129799
8846.68, 0.136910
8861.8, 0.142901
8876.97, 0.147869
8892.2, 0.152057
8907.48, 0.155515
8922.81, 0.158486
8938.2, 0.160776
8953.63, 0.161944
8969.13, 0.162334
8984.67, 0.162139
9000.27, 0.161555
9015.92, 0.160678
9031.63, 0.159948
9047.39, 0.159071
9063.21, 0.157853
9079.08, 0.155710
9095.01, 0.152106
9111.0, 0.146505
9127.04, 0.138225
9143.13, 0.126536
9159.28, 0.111729
9175.49, 0.0958520
9191.76, 0.0822140
9208.09, 0.0717910
9224.47, 0.0637060
9240.92, 0.0564010
9257.42, 0.0492410
9273.98, 0.0427630
9290.6, 0.0377460
9307.28, 0.0341420
9324.02, 0.0313660
9340.82, 0.0288820
9357.68, 0.0264470
9374.6, 0.0238660
9391.58, 0.0215760
9408.62, 0.0191900
9425.73, 0.0169980
9442.9, 0.0149520
9460.13, 0.0134430
9477.42, 0.0131500
9494.78, 0.0150500
9512.2, 0.0197260
9529.69, 0.0280050
9547.24, 0.0394510
9564.86, 0.0526500
9582.54, 0.0660930
9600.28, 0.0787560
9618.1, 0.0899580
9635.97, 0.0996510
9653.92, 0.107346
9671.93, 0.113337
9690.01, 0.117964
9708.16, 0.121373
9726.37, 0.123565
9744.65, 0.124636
9763.0, 0.124831
9781.43, 0.123954
9799.92, 0.121617
9818.48, 0.117184
9837.1, 0.109879
9855.8, 0.100430
9874.58, 0.0929290
9893.42, 0.0902020
9912.34, 0.0879130
9931.33, 0.0837240
9950.39, 0.0784640
9969.52, 0.0732520
9988.74, 0.0685280
10008.0, 0.0649730
10027.4, 0.0624890
10046.8, 0.0610760
10066.3, 0.0600050
10085.9, 0.0593720
10105.6, 0.0592740
10125.3, 0.0599070
10145.1, 0.0609300
10165.0, 0.0622450
10185.0, 0.0635110
10205.0, 0.0648260
10225.2, 0.0661900
10245.4, 0.0677000
10265.7, 0.0691610
10286.0, 0.0705740
10306.5, 0.0718890
10327.0, 0.0730580
10347.6, 0.0740800
10368.3, 0.0752010
10389.1, 0.0762230
10409.9, 0.0774410
10430.9, 0.0785610
10451.9, 0.0797300
10473.0, 0.0808500
10494.2, 0.0822630
10515.5, 0.0837730
10536.9, 0.0853800
10558.4, 0.0870850
10579.9, 0.0892280
10601.5, 0.0914190
10623.3, 0.0936600
10645.1, 0.0958520
10667.0, 0.0979950
10689.0, 0.100235
10711.1, 0.102476
10733.2, 0.104521
10755.5, 0.106323
10777.9, 0.107736
10800.3, 0.108856
10822.9, 0.109733
10845.5, 0.110561
10868.2, 0.111194
10891.1, 0.111924
10914.0, 0.112557
10937.0, 0.112996
10960.2, 0.112996
10983.4, 0.113142
11006.7, 0.113093
11030.1, 0.112850
11053.6, 0.112460
11077.3, 0.112411
11101.0, 0.112168
11124.8, 0.111486
11148.7, 0.110853
11172.7, 0.110561
11196.9, 0.110171
11221.1, 0.109927
11245.4, 0.109246
11269.9, 0.108271
11294.4, 0.107200
11319.1, 0.106518
11343.9, 0.106128
11368.8, 0.106031
11393.7, 0.105982
11418.8, 0.105982
11444.0, 0.106128
11469.4, 0.106275
11494.8, 0.106469
11520.3, 0.107103
11546.0, 0.107833
11571.8, 0.108905
11597.7, 0.110220
11623.7, 0.111632
11649.8, 0.113337
11676.0, 0.115382
11702.4, 0.117672
11728.9, 0.119766
11755.5, 0.121276
11782.2, 0.122834
11809.0, 0.124977
11836.0, 0.127315
11863.0, 0.129458
11890.3, 0.131699
11917.6, 0.133890
11945.0, 0.135692
11972.6, 0.136813
12000.4, 0.137397
12028.2, 0.137446
12056.2, 0.137446
12084.3, 0.137154
12112.5, 0.136715
12140.9, 0.136082
12169.4, 0.135303
12198.0, 0.134426
12226.8, 0.133890
12255.7, 0.132916
12284.7, 0.131796
12313.9, 0.130773
12343.2, 0.129750
12372.7, 0.128581
12402.3, 0.127169
12432.0, 0.125464
12461.9, 0.123954
12491.9, 0.122591
12522.1, 0.121032
12552.4, 0.119522
12582.9, 0.118500
12613.5, 0.117379
12644.3, 0.116210
12675.2, 0.114944
12706.3, 0.113921
12737.5, 0.112947
12768.9, 0.111778
12800.4, 0.110171
12832.1, 0.109148
12863.9, 0.108125
12895.9, 0.106713
12928.1, 0.105447
12960.4, 0.103888
12992.9, 0.101940
13025.5, 0.100430
13058.3, 0.0990170
13091.3, 0.0973610
13124.4, 0.0954130
13157.8, 0.0932220
13191.2, 0.0912250
13224.9, 0.0890330
13258.7, 0.0862080
13292.7, 0.0835290
13326.9, 0.0809480
13361.2, 0.0785610
13395.7, 0.0759310
13430.4, 0.0730090
13465.3, 0.0698920
13500.4, 0.0671160
13535.7, 0.0644860
13571.1, 0.0616120
13606.7, 0.0581540
13642.5, 0.0550370
13678.5, 0.0519680
13714.7, 0.0489000
13751.1, 0.0456850
13787.6, 0.0426170
13824.4, 0.0395000
13861.4, 0.0366260
13898.5, 0.0338990
13935.9, 0.0313660
13973.5, 0.0286390
14011.2, 0.0262030
14049.2, 0.0238660
14087.4, 0.0219170
14125.8, 0.0205050
14164.3, 0.0188980
14203.2, 0.0170950
14242.2, 0.0161700
14281.4, 0.0154400
14320.9, 0.0149520
14360.5, 0.0143190
14400.4, 0.0142220
14440.5, 0.0142220
14480.9, 0.0147580
14521.4, 0.0150990
14562.2, 0.0155860
14603.3, 0.0160730
14644.5, 0.0168030
14686.0, 0.0173880
14727.7, 0.0182640
14769.7, 0.0187510
14811.9, 0.0191900
14854.3, 0.0195310
14897.0, 0.0200660
14939.9, 0.0203100
14983.1, 0.0207480
15026.5, 0.0212350
15070.2, 0.0219660
15114.2, 0.0223070
15158.3, 0.0225990
15202.8, 0.0230860
15247.5, 0.0236710
15292.5, 0.0238170
15337.7, 0.0243040
15383.2, 0.0250830
15429.0, 0.0256680
15475.1, 0.0266420
15521.4, 0.0283460
15568.0, 0.0299050
15614.9, 0.0312690
15662.1, 0.0323400
15709.6, 0.0325840
15757.3, 0.0317070
15805.4, 0.0296130
15853.7, 0.0266900
15902.3, 0.0241090
15951.2, 0.0218200
16000.5, 0.0202610
16050.0, 0.0197260
16099.8, 0.0199200
16150.0, 0.0195790
16200.5, 0.0190440
16251.3, 0.0186050
16302.4, 0.0178750
16353.8, 0.0165110
16405.5, 0.0154880
16457.6, 0.0145140
16510.0, 0.0135400
16562.8, 0.0125170
16615.9, 0.0118840
16669.3, 0.0112020
16723.1, 0.0104720
16777.2, 0.00993600
16831.7, 0.0104720
16886.5, 0.0110560
16941.7, 0.0116890
16997.2, 0.0121280
17053.1, 0.0127120
17109.4, 0.0133450
17166.1, 0.0147090
17223.1, 0.0156830
17280.5, 0.0169980
17338.3, 0.0184110
17396.5, 0.0201640
17455.1, 0.0224040
17514.0, 0.0254240
17573.4, 0.0286870
17633.2, 0.0326320
17693.4, 0.0371130
17754.0, 0.0426170
17815.0, 0.0486080
17876.4, 0.0549390
17938.3, 0.0608810
18000.5, 0.0672620
18063.3, 0.0729120
18126.4, 0.0782200
18190.0, 0.0838700
18254.1, 0.0889360
18318.6, 0.0926860
18383.5, 0.0970210
18449.0, 0.100673
18514.9, 0.103401
18581.2, 0.106275
18648.0, 0.109635
18715.4, 0.111583
18783.2, 0.112606
18851.5, 0.113970
18920.3, 0.115675
18989.6, 0.115918
19059.4, 0.116113
19129.7, 0.116746
19200.6, 0.117720
19272.0, 0.117184
19343.9, 0.115821
19416.3, 0.115139
19489.3, 0.115188
19562.8, 0.113678
19637.0, 0.111535
19711.6, 0.107249
19786.8, 0.102232
19862.6, 0.0954130
19939.0, 0.0876200
20016.0, 0.0790970
20093.6, 0.0696480
20171.8, 0.0599560
20250.6, 0.0526020
20330.0, 0.0486080
20410.0, 0.0492900
20490.7, 0.0562060
20572.0, 0.0692100
20654.0, 0.0827990
20736.6, 0.0932700
20819.9, 0.0998450
20903.8, 0.103596
20988.5, 0.103839
21073.8, 0.103206
21159.8, 0.100089
21246.5, 0.0947310
21334.0, 0.0883020
21422.1, 0.0820190
21511.0, 0.0773920
21600.7, 0.0736420
21691.0, 0.0690150
21782.1, 0.0658980
21874.0, 0.0641450
21966.7, 0.0625860
22060.2, 0.0607840
22154.5, 0.0581290
22249.6, 0.0537560
22345.5, 0.0528810
22442.2, 0.0563130
22539.8, 0.0593400
22638.2, 0.0612240
22737.5, 0.0627040
22837.7, 0.0652610
22938.7, 0.0683550
23040.7, 0.0708450
23143.5, 0.0742090
23247.3, 0.0778420
23352.1, 0.0817440
23457.7, 0.0857130
23564.4, 0.0901540
23672.0, 0.0948630
23780.5, 0.100044
23890.1, 0.104148
24000.7, 0.105561
24112.3, 0.108185
24225.0, 0.111481
24338.7, 0.113701
24453.5, 0.114576
24569.4, 0.114711
24686.4, 0.115518
24804.5, 0.115854
24923.8, 0.115854
25044.2, 0.117200
25165.8, 0.116527
25288.6, 0.112894
25412.5, 0.110068
25537.7, 0.107579
25664.1, 0.106503
25791.8, 0.106435
25920.8, 0.106637
26051.1, 0.105964
26182.6, 0.104753
26315.5, 0.103744
26449.8, 0.103340
26585.4, 0.104013
26722.5, 0.102197
26860.9, 0.0976890
27000.8, 0.0947290
27142.1, 0.0919700
27285.0, 0.0880680
27429.4, 0.0836950
27575.3, 0.0786490
27722.7, 0.0742090
27871.8, 0.0724590
28022.4, 0.0713830
28174.7, 0.0706430
28328.7, 0.0703740
28484.4, 0.0693650
28641.7, 0.0670100
28800.9, 0.0651930
28961.8, 0.0653280
29124.5, 0.0664720
29289.0, 0.0657990
29455.4, 0.0627040
29623.8, 0.0602150
29794.0, 0.0604840
29966.3, 0.0611570
30140.5, 0.0606860
30316.7, 0.0620980
30495.1, 0.0659330
30675.5, 0.0685570
30858.1, 0.0703070
31042.8, 0.0690280
31229.8, 0.0677500
31419.1, 0.0674810
31610.7, 0.0680860
31804.6, 0.0688940
32000.9, 0.0674140
32199.7, 0.0668750
32400.9, 0.0673460
32604.8, 0.0663370
32811.1, 0.0662700
33020.1, 0.0673460
33231.8, 0.0609550
33446.2, 0.0552360
33663.4, 0.0518050
33883.4, 0.0481040
34106.3, 0.0442020
34332.1, 0.0410400
34561.0, 0.0366670
34792.9, 0.0318230
35028.0, 0.0294010
35266.3, 0.0286610
35507.8, 0.0298050
35752.7, 0.0328320
36001.0, 0.0366670
36252.8, 0.0409060
36508.1, 0.0472300
36767.0, 0.0540920
37029.7, 0.0610890
37296.1, 0.0688260
37566.3, 0.0758910
37840.5, 0.0789180
38118.8, 0.0805330
38401.2, 0.0800620
38687.8, 0.0764960
38978.6, 0.0719890
39273.9, 0.0675480
39573.7, 0.0558420
39878.1, 0.0468930
40187.3, 0.0490460
40501.2, 0.0594070
40820.0, 0.0711140
41144.0, 0.0800620
41473.2, 0.0855790
41807.6, 0.0893460
42147.5, 0.0910960
42493.0, 0.0931140
42844.2, 0.0959400
43201.2, 0.0987660
43564.3, 0.103610
43933.5, 0.110741
44309.0, 0.104013
44691.0, 0.0966800
45079.6, 0.0921720
45475.0, 0.0840990
45877.5, 0.0787160
46287.1, 0.0758910
46704.2, 0.0727960
47128.7, 0.0662700
47561.1, 0.0664720
48001.5, 0.0759580
48450.1, 0.0793220
48907.2, 0.0893460
49373.0, 0.109127
49847.7, 0.111885
50331.5, 0.118209
50825.0, 0.129243
51328.2, 0.140008
51841.5, 0.144044
52365.1, 0.142026
52899.4, 0.143371
53444.8, 0.138662
54001.5, 0.128166
54570.1, 0.121439
55150.6, 0.115249
55743.6, 0.109597
56349.5, 0.104619
56968.7, 0.0903560
57601.7, 0.0729980
58248.9, 0.0558420
58910.9, 0.0348510
59588.1, 0.0229420
60281.0, 0.0301410
60990.2, 0.0438660
61716.3, 0.0540920
62459.8, 0.0646550
63221.6, 0.0795910
64002.1, 0.0826860
64802.1, 0.0840990
65622.1, 0.0916340
66463.4, 0.0954690
67326.6, 0.0868570
68212.4, 0.0796580
69121.9, 0.0790530
70056.0, 0.0816090
71015.7, 0.0888080
72002.0, 0.0877990
73016.3, 0.0780440
74059.4, 0.0777070
75132.7, 0.0885390
76237.6, 0.0948630
77375.5, 0.100582
78547.9, 0.114307
79756.3, 0.115114
81002.5, 0.117873
82288.5, 0.126686
83615.7, 0.119622
84986.5, 0.109530
86402.9, 0.105090
87867.4, 0.103071
89382.4, 0.100246
90950.5, 0.0907590
92574.6, 0.0821480
94257.2, 0.0842330
96002.7, 0.0733340
97814.1, 0.0618970
99695.1, 0.0584650
101650.0, 0.0505940
103683.0, 0.0392910
105799.0, 0.0359270
108003.0, 0.0352540
110301.0, 0.0304770
112699.0, 0.0293340
115204.0, 0.0263060
117822.0, 0.0227400
120562.0, 0.0206550
123433.0, 0.0174250
126443.0, 0.00928400
129604.0, 0.00874600
132926.0, 0.0163490
136424.0, 0.0139270
140111.0, 0.0197800
144003.0, 0.0298720
148118.0, 0.0400980
152474.0, 0.0421170
157095.0, 0.0445390
162004.0, 0.0668750
167231.0, 0.0706430
172805.0, 0.0653280
178764.0, 0.0713160
185148.0, 0.0711810
192005.0, 0.0918360
199390.0, 0.118209
207366.0, 0.236687
216006.0, 0.257477
