Database of Origin,USGS Spectral Database
Sample Description,See USGS database for additional info
Date Added,2017-02-22 02:49:13.529542

Data ID,USGS_top25          
Sample ID,topaz_42.22094
Mineral Name,topaz

Wavelength
1383.55, 0.829558
1383.92, 0.827573
1384.29, 0.826319
1384.66, 0.826841
1385.03, 0.827259
1385.4, 0.825692
1385.77, 0.824333
1386.14, 0.823706
1386.51, 0.822975
1386.88, 0.822557
1387.25, 0.822452
1387.62, 0.822452
1387.99, 0.821094
1388.36, 0.819004
1388.74, 0.818481
1389.11, 0.818690
1389.48, 0.818272
1389.85, 0.818063
1390.23, 0.817645
1390.6, 0.816600
1390.97, 0.816704
1391.35, 0.815868
1391.72, 0.814719
1392.09, 0.814301
1392.47, 0.813465
1392.84, 0.812315
1393.21, 0.811584
1393.59, 0.810225
1393.96, 0.808658
1394.34, 0.808971
1394.71, 0.808867
1395.09, 0.807090
1395.46, 0.806045
1395.84, 0.806254
1396.22, 0.806672
1396.59, 0.804895
1396.97, 0.803119
1397.35, 0.802178
1397.72, 0.800297
1398.1, 0.798312
1398.48, 0.797476
1398.85, 0.796013
1399.23, 0.793922
1399.61, 0.791310
1399.99, 0.788488
1400.37, 0.785562
1400.74, 0.780232
1401.12, 0.773648
1401.5, 0.766751
1401.88, 0.757032
1402.26, 0.745223
1402.64, 0.732160
1403.02, 0.717843
1403.4, 0.704048
1403.78, 0.693598
1404.16, 0.690149
1404.54, 0.694956
1404.92, 0.705511
1405.3, 0.717634
1405.68, 0.729652
1406.06, 0.740416
1406.44, 0.749508
1406.83, 0.757032
1407.21, 0.761944
1407.59, 0.765497
1407.97, 0.768005
1408.35, 0.770095
1408.74, 0.771558
1409.12, 0.773021
1409.5, 0.774067
1409.89, 0.774171
1410.27, 0.774485
1410.65, 0.775425
1411.04, 0.776052
1411.42, 0.776261
1411.81, 0.777202
1412.19, 0.778038
1412.58, 0.777933
1412.96, 0.778142
1413.35, 0.778142
1413.73, 0.777829
1414.12, 0.777411
1414.5, 0.776888
1414.89, 0.775948
1415.28, 0.776157
1415.66, 0.776470
1416.05, 0.776052
1416.44, 0.775634
1416.82, 0.775948
1417.21, 0.775425
1417.6, 0.774902
1417.98, 0.774694
1418.37, 0.774067
1418.76, 0.773439
1419.15, 0.772603
1419.54, 0.772081
1419.93, 0.772394
1420.32, 0.772081
1420.71, 0.771767
1421.09, 0.770931
1421.48, 0.770200
1421.88, 0.769782
1422.27, 0.769782
1422.66, 0.769573
1423.05, 0.768423
1423.44, 0.768005
1423.83, 0.767692
1424.22, 0.766960
1424.61, 0.766751
1425.0, 0.766229
1425.39, 0.766542
1425.78, 0.766960
1426.18, 0.766960
1426.57, 0.766333
1426.96, 0.765915
1427.36, 0.765288
1427.75, 0.764452
1428.14, 0.764243
1428.54, 0.764243
1428.93, 0.764348
1429.32, 0.764139
1429.72, 0.763303
1430.11, 0.762571
1430.51, 0.761839
1430.9, 0.761630
1431.3, 0.760794
1431.69, 0.760690
1432.09, 0.760376
1432.48, 0.760376
1432.88, 0.760167
1433.28, 0.759749
1433.67, 0.759540
1434.07, 0.759645
1434.46, 0.759540
1434.86, 0.759227
1435.26, 0.758495
1435.66, 0.757450
1436.05, 0.757137
1436.45, 0.756614
1436.85, 0.756928
1437.25, 0.756719
1437.65, 0.756510
1438.05, 0.755569
1438.44, 0.755151
1438.84, 0.755256
1439.24, 0.754838
1439.64, 0.754942
1440.04, 0.754524
1440.44, 0.753270
1440.84, 0.753061
1441.24, 0.752852
1441.65, 0.753166
1442.05, 0.752957
1442.45, 0.752539
1442.85, 0.752120
1443.25, 0.751703
1443.65, 0.751389
1444.05, 0.750971
1444.46, 0.750866
1444.86, 0.750657
1445.26, 0.750553
1445.67, 0.750239
1446.07, 0.750239
1446.47, 0.750344
1446.88, 0.750239
1447.28, 0.749612
1447.68, 0.748985
1448.09, 0.748567
1448.49, 0.747836
1448.9, 0.747731
1449.3, 0.747627
1449.71, 0.747522
1450.11, 0.746791
1450.52, 0.746791
1450.93, 0.746686
1451.33, 0.746373
1451.74, 0.746164
1452.14, 0.745746
1452.55, 0.746059
1452.96, 0.745746
1453.36, 0.745014
1453.77, 0.744701
1454.18, 0.744805
1454.59, 0.744387
1455.0, 0.744701
1455.41, 0.744492
1455.81, 0.743238
1456.22, 0.742506
1456.63, 0.742715
1457.04, 0.743133
1457.45, 0.742715
1457.86, 0.742611
1458.27, 0.742506
1458.68, 0.741566
1459.09, 0.741357
1459.5, 0.741879
1459.91, 0.742297
1460.32, 0.741879
1460.74, 0.741148
1461.15, 0.740625
1461.56, 0.740939
1461.97, 0.741043
1462.39, 0.740521
1462.8, 0.739998
1463.21, 0.739162
1463.62, 0.739162
1464.04, 0.739371
1464.45, 0.739684
1464.86, 0.739371
1465.28, 0.739162
1465.69, 0.739162
1466.11, 0.738744
1466.52, 0.738430
1466.94, 0.738012
1467.35, 0.738012
1467.77, 0.738221
1468.18, 0.737908
1468.6, 0.736967
1469.02, 0.737490
1469.43, 0.738012
1469.85, 0.737281
1470.27, 0.737699
1470.68, 0.737803
1471.1, 0.737176
1471.52, 0.736967
1471.94, 0.736863
1472.35, 0.736340
1472.77, 0.735922
1473.19, 0.735818
1473.61, 0.735818
1474.03, 0.736131
1474.45, 0.736236
1474.87, 0.735818
1475.29, 0.735191
1475.71, 0.735086
1476.13, 0.734982
1476.55, 0.735609
1476.97, 0.735400
1477.39, 0.734773
1477.81, 0.735086
1478.23, 0.735295
1478.65, 0.735086
1479.07, 0.735191
1479.5, 0.735191
1479.92, 0.734982
1480.34, 0.735295
1480.76, 0.735295
1481.19, 0.735400
1481.61, 0.735504
1482.03, 0.735086
1482.46, 0.735295
1482.88, 0.735191
1483.31, 0.734877
1483.73, 0.734668
1484.16, 0.735295
1484.58, 0.735295
1485.01, 0.735609
1485.43, 0.735609
1485.86, 0.735818
1486.28, 0.735504
1486.71, 0.734982
1487.14, 0.734982
1487.56, 0.735609
1487.99, 0.735609
1488.42, 0.735295
1488.84, 0.735400
1489.27, 0.735400
1489.7, 0.735818
1490.13, 0.736027
1490.56, 0.735400
1490.98, 0.734877
1491.41, 0.734250
1491.84, 0.734250
1492.27, 0.734668
1492.7, 0.734355
1493.13, 0.734668
1493.56, 0.734982
1493.99, 0.734668
1494.42, 0.734982
1494.85, 0.735191
1495.29, 0.735609
1495.72, 0.735400
1496.15, 0.735086
1496.58, 0.735086
1497.01, 0.735191
1497.44, 0.735191
1497.88, 0.735504
1498.31, 0.736340
1498.74, 0.736131
1499.18, 0.736027
1499.61, 0.735609
1500.04, 0.735922
1500.48, 0.736236
1500.91, 0.736131
1501.35, 0.736340
1501.78, 0.736863
1502.22, 0.736967
1502.65, 0.736445
1503.09, 0.735713
1503.53, 0.735504
1503.96, 0.736027
1504.4, 0.736549
1504.83, 0.736549
1505.27, 0.736131
1505.71, 0.736445
1506.15, 0.736863
1506.58, 0.736445
1507.02, 0.736236
1507.46, 0.736131
1507.9, 0.736549
1508.34, 0.736549
1508.78, 0.736236
1509.21, 0.736654
1509.66, 0.736967
1510.09, 0.736236
1510.53, 0.736027
1510.97, 0.736758
1511.42, 0.737281
1511.86, 0.736863
1512.3, 0.736758
1512.74, 0.737385
1513.18, 0.737072
1513.62, 0.737385
1514.06, 0.737490
1514.51, 0.737072
1514.95, 0.737072
1515.39, 0.737490
1515.83, 0.737176
1516.28, 0.737072
1516.72, 0.736967
1517.16, 0.737490
1517.61, 0.737803
1518.05, 0.737803
1518.5, 0.737490
1518.94, 0.737281
1519.39, 0.737699
1519.83, 0.738430
1520.28, 0.738639
1520.73, 0.738326
1521.17, 0.738012
1521.62, 0.738117
1522.07, 0.738221
1522.51, 0.737803
1522.96, 0.737908
1523.41, 0.737908
1523.85, 0.738012
1524.3, 0.738326
1524.75, 0.738535
1525.2, 0.738535
1525.65, 0.738535
1526.1, 0.738430
1526.55, 0.738535
1527.0, 0.738744
1527.45, 0.738326
1527.9, 0.738430
1528.35, 0.739057
1528.8, 0.739475
1529.25, 0.739162
1529.7, 0.738848
1530.15, 0.738953
1530.6, 0.739371
1531.05, 0.739893
1531.51, 0.740207
1531.96, 0.740102
1532.41, 0.740102
1532.87, 0.740207
1533.32, 0.740625
1533.77, 0.740521
1534.23, 0.740312
1534.68, 0.740207
1535.14, 0.740416
1535.59, 0.741148
1536.05, 0.741252
1536.5, 0.740939
1536.96, 0.741148
1537.41, 0.741566
1537.87, 0.741879
1538.32, 0.741879
1538.78, 0.742193
1539.24, 0.742193
1539.7, 0.742506
1540.15, 0.742715
1540.61, 0.742715
1541.07, 0.742924
1541.53, 0.743447
1541.98, 0.744283
1542.44, 0.744283
1542.9, 0.744178
1543.36, 0.743865
1543.82, 0.743551
1544.28, 0.743865
1544.74, 0.744701
1545.2, 0.745119
1545.66, 0.745223
1546.12, 0.744910
1546.59, 0.744910
1547.05, 0.745119
1547.51, 0.745119
1547.97, 0.745641
1548.43, 0.746059
1548.9, 0.745850
1549.36, 0.746059
1549.82, 0.746059
1550.29, 0.746059
1550.75, 0.746477
1551.21, 0.746582
1551.68, 0.747209
1552.14, 0.747313
1552.61, 0.747209
1553.07, 0.747209
1553.54, 0.747104
1554.0, 0.747000
1554.47, 0.747522
1554.93, 0.748149
1555.4, 0.748672
1555.87, 0.749090
1556.34, 0.749299
1556.8, 0.749508
1557.27, 0.749508
1557.74, 0.749508
1558.21, 0.749612
1558.68, 0.749612
1559.14, 0.749821
1559.61, 0.750344
1560.08, 0.750866
1560.55, 0.750762
1561.02, 0.750657
1561.49, 0.750971
1561.96, 0.751389
1562.43, 0.751389
1562.9, 0.750866
1563.38, 0.750762
1563.85, 0.751389
1564.32, 0.751911
1564.79, 0.751911
1565.26, 0.752016
1565.74, 0.752016
1566.21, 0.751807
1566.68, 0.752434
1567.16, 0.752852
1567.63, 0.753061
1568.1, 0.752748
1568.58, 0.752643
1569.05, 0.753166
1569.53, 0.754106
1570.0, 0.754002
1570.48, 0.753793
1570.96, 0.753584
1571.43, 0.754002
1571.91, 0.754211
1572.39, 0.754420
1572.86, 0.754733
1573.34, 0.754733
1573.82, 0.754629
1574.3, 0.754315
1574.77, 0.754315
1575.25, 0.754420
1575.73, 0.754838
1576.21, 0.755569
1576.69, 0.755569
1577.17, 0.755674
1577.65, 0.755674
1578.13, 0.755778
1578.61, 0.756092
1579.09, 0.756196
1579.57, 0.756196
1580.05, 0.756196
1580.54, 0.756092
1581.02, 0.756510
1581.5, 0.756823
1581.98, 0.756823
1582.47, 0.757137
1582.95, 0.757346
1583.43, 0.757032
1583.92, 0.757137
1584.4, 0.757450
1584.88, 0.757659
1585.37, 0.757659
1585.85, 0.758182
1586.34, 0.758077
1586.82, 0.757868
1587.31, 0.758077
1587.8, 0.758182
1588.28, 0.758286
1588.77, 0.758913
1589.26, 0.758704
1589.74, 0.758809
1590.23, 0.759227
1590.72, 0.759331
1591.21, 0.759540
1591.7, 0.759749
1592.19, 0.759749
1592.67, 0.759958
1593.16, 0.760167
1593.65, 0.760272
1594.14, 0.760063
1594.63, 0.759958
1595.12, 0.760272
1595.61, 0.761212
1596.11, 0.760899
1596.6, 0.760794
1597.09, 0.761526
1597.58, 0.761944
1598.08, 0.762153
1598.57, 0.762048
1599.06, 0.762257
1599.55, 0.762362
1600.05, 0.762257
1600.54, 0.762780
1601.04, 0.763407
1601.53, 0.763616
1602.03, 0.763721
1602.52, 0.764243
1603.02, 0.763825
1603.51, 0.763511
1604.01, 0.764139
1604.5, 0.764975
1605.0, 0.765184
1605.5, 0.765393
1606.0, 0.765079
1606.49, 0.765706
1606.99, 0.766020
1607.49, 0.765915
1607.99, 0.765811
1608.49, 0.765915
1608.99, 0.766542
1609.49, 0.767169
1609.99, 0.767169
1610.49, 0.767692
1610.99, 0.767692
1611.49, 0.767587
1611.99, 0.767587
1612.49, 0.767483
1612.99, 0.767587
1613.49, 0.768110
1614.0, 0.768319
1614.5, 0.768528
1615.0, 0.768841
1615.51, 0.769468
1616.01, 0.769259
1616.51, 0.769155
1617.02, 0.769677
1617.52, 0.770304
1618.03, 0.770304
1618.53, 0.770304
1619.04, 0.770304
1619.54, 0.770304
1620.05, 0.770722
1620.55, 0.771454
1621.06, 0.771767
1621.57, 0.771767
1622.08, 0.772081
1622.58, 0.772499
1623.09, 0.772499
1623.6, 0.772394
1624.11, 0.772499
1624.62, 0.773021
1625.13, 0.773544
1625.64, 0.773335
1626.15, 0.773439
1626.66, 0.773962
1627.17, 0.774171
1627.68, 0.774171
1628.19, 0.774275
1628.7, 0.774694
1629.21, 0.775216
1629.72, 0.775216
1630.24, 0.774902
1630.75, 0.775007
1631.26, 0.775216
1631.78, 0.775530
1632.29, 0.776157
1632.8, 0.776470
1633.32, 0.775948
1633.83, 0.776052
1634.35, 0.776470
1634.86, 0.776679
1635.38, 0.776888
1635.9, 0.777306
1636.41, 0.777515
1636.93, 0.777411
1637.45, 0.777515
1637.96, 0.777724
1638.48, 0.777411
1639.0, 0.777306
1639.52, 0.777724
1640.04, 0.777829
1640.56, 0.777724
1641.08, 0.777933
1641.59, 0.778038
1642.11, 0.778038
1642.63, 0.778142
1643.16, 0.778456
1643.68, 0.778456
1644.2, 0.778978
1644.72, 0.779292
1645.24, 0.779396
1645.76, 0.779605
1646.29, 0.779292
1646.81, 0.779396
1647.33, 0.779605
1647.86, 0.780023
1648.38, 0.780546
1648.9, 0.780441
1649.43, 0.780337
1649.95, 0.780441
1650.48, 0.780755
1651.0, 0.780755
1651.53, 0.780650
1652.06, 0.780755
1652.58, 0.781277
1653.11, 0.781591
1653.64, 0.782009
1654.17, 0.782009
1654.69, 0.782113
1655.22, 0.781904
1655.75, 0.782218
1656.28, 0.782427
1656.81, 0.782218
1657.34, 0.781591
1657.87, 0.781695
1658.4, 0.782427
1658.93, 0.782949
1659.46, 0.783158
1659.99, 0.783681
1660.52, 0.783576
1661.05, 0.782949
1661.59, 0.783158
1662.12, 0.783681
1662.65, 0.784099
1663.19, 0.784412
1663.72, 0.784308
1664.26, 0.784308
1664.79, 0.784621
1665.32, 0.784935
1665.86, 0.785144
1666.39, 0.785562
1666.93, 0.785771
1667.47, 0.785667
1668.0, 0.785353
1668.54, 0.785457
1669.08, 0.785980
1669.61, 0.786503
1670.15, 0.786503
1670.69, 0.786607
1671.23, 0.786503
1671.77, 0.786816
1672.31, 0.786816
1672.85, 0.786503
1673.39, 0.786712
1673.93, 0.787025
1674.47, 0.787339
1675.01, 0.787130
1675.55, 0.787025
1676.09, 0.787548
1676.64, 0.787548
1677.18, 0.787234
1677.72, 0.787025
1678.26, 0.787130
1678.81, 0.786921
1679.35, 0.786607
1679.89, 0.786294
1680.44, 0.785876
1680.98, 0.785248
1681.53, 0.784621
1682.07, 0.784308
1682.62, 0.784621
1683.17, 0.784517
1683.71, 0.784726
1684.26, 0.785353
1684.81, 0.785980
1685.36, 0.787025
1685.9, 0.787757
1686.45, 0.788488
1687.0, 0.789324
1687.55, 0.789847
1688.1, 0.790474
1688.65, 0.790369
1689.2, 0.790996
1689.75, 0.791623
1690.3, 0.792041
1690.85, 0.792250
1691.41, 0.792564
1691.96, 0.792773
1692.51, 0.793086
1693.06, 0.793191
1693.61, 0.792982
1694.17, 0.793191
1694.72, 0.793609
1695.28, 0.794131
1695.83, 0.794131
1696.39, 0.794027
1696.94, 0.794549
1697.5, 0.794758
1698.05, 0.795072
1698.61, 0.795490
1699.17, 0.795699
1699.72, 0.795699
1700.28, 0.795385
1700.84, 0.795490
1701.4, 0.795908
1701.95, 0.795803
1702.51, 0.795908
1703.07, 0.796117
1703.63, 0.795908
1704.19, 0.796013
1704.75, 0.796117
1705.31, 0.796431
1705.88, 0.796221
1706.44, 0.796221
1707.0, 0.796535
1707.56, 0.796431
1708.12, 0.796639
1708.69, 0.797162
1709.25, 0.797162
1709.81, 0.796953
1710.38, 0.796953
1710.94, 0.796849
1711.51, 0.797267
1712.07, 0.797476
1712.64, 0.797684
1713.2, 0.797371
1713.77, 0.797162
1714.34, 0.797371
1714.9, 0.797371
1715.47, 0.797476
1716.04, 0.797998
1716.61, 0.797894
1717.18, 0.797684
1717.74, 0.797894
1718.31, 0.797894
1718.88, 0.798103
1719.45, 0.797998
1720.02, 0.797789
1720.59, 0.797789
1721.17, 0.798103
1721.74, 0.798416
1722.31, 0.798312
1722.88, 0.798207
1723.45, 0.798416
1724.03, 0.798521
1724.6, 0.798207
1725.18, 0.798416
1725.75, 0.798625
1726.33, 0.798834
1726.9, 0.798939
1727.48, 0.799252
1728.05, 0.799357
1728.63, 0.799461
1729.2, 0.800088
1729.78, 0.800193
1730.36, 0.799670
1730.94, 0.799461
1731.51, 0.800193
1732.09, 0.800506
1732.67, 0.800506
1733.25, 0.800506
1733.83, 0.800611
1734.41, 0.800193
1734.99, 0.800297
1735.57, 0.800820
1736.15, 0.800924
1736.73, 0.801133
1737.32, 0.801551
1737.9, 0.802283
1738.48, 0.802178
1739.07, 0.801969
1739.65, 0.801760
1740.23, 0.802074
1740.82, 0.802492
1741.4, 0.802596
1741.99, 0.802178
1742.57, 0.802387
1743.16, 0.803014
1743.74, 0.803537
1744.33, 0.803746
1744.92, 0.803641
1745.51, 0.803537
1746.09, 0.803746
1746.68, 0.804164
1747.27, 0.804477
1747.86, 0.804268
1748.45, 0.803850
1749.04, 0.804164
1749.63, 0.804791
1750.22, 0.805104
1750.81, 0.805104
1751.4, 0.804895
1751.99, 0.805104
1752.59, 0.805418
1753.18, 0.805627
1753.77, 0.805313
1754.37, 0.805627
1754.96, 0.805940
1755.56, 0.806254
1756.15, 0.806254
1756.74, 0.806672
1757.34, 0.806985
1757.94, 0.806672
1758.53, 0.806567
1759.13, 0.807090
1759.73, 0.806881
1760.32, 0.806567
1760.92, 0.806985
1761.52, 0.807613
1762.12, 0.807508
1762.72, 0.807508
1763.32, 0.808135
1763.92, 0.808344
1764.52, 0.807822
1765.12, 0.807926
1765.72, 0.808344
1766.32, 0.808449
1766.92, 0.808658
1767.53, 0.808867
1768.13, 0.808658
1768.73, 0.809285
1769.34, 0.810016
1769.94, 0.809703
1770.55, 0.809389
1771.15, 0.809703
1771.76, 0.810225
1772.36, 0.810330
1772.97, 0.810225
1773.57, 0.809807
1774.18, 0.810016
1774.79, 0.810539
1775.4, 0.810539
1776.0, 0.810330
1776.61, 0.810957
1777.22, 0.811270
1777.83, 0.810852
1778.44, 0.811166
1779.05, 0.811166
1779.66, 0.811061
1780.27, 0.810957
1780.88, 0.811061
1781.5, 0.810957
1782.11, 0.810957
1782.72, 0.810748
1783.33, 0.810748
1783.95, 0.810957
1784.56, 0.810957
1785.18, 0.811061
1785.79, 0.810957
1786.41, 0.810852
1787.02, 0.810957
1787.64, 0.811166
1788.26, 0.811375
1788.87, 0.811479
1789.49, 0.811584
1790.11, 0.811479
1790.73, 0.811479
1791.35, 0.811270
1791.96, 0.811270
1792.58, 0.811166
1793.21, 0.811166
1793.83, 0.811375
1794.45, 0.811584
1795.07, 0.811375
1795.69, 0.811375
1796.31, 0.811584
1796.93, 0.811375
1797.56, 0.811584
1798.18, 0.811688
1798.8, 0.811688
1799.43, 0.812002
1800.05, 0.812211
1800.68, 0.812002
1801.3, 0.811793
1801.93, 0.811897
1802.56, 0.812002
1803.18, 0.811897
1803.81, 0.811897
1804.44, 0.812420
1805.07, 0.812211
1805.7, 0.812106
1806.33, 0.812002
1806.95, 0.812211
1807.58, 0.812629
1808.22, 0.812420
1808.85, 0.812420
1809.48, 0.812629
1810.11, 0.812629
1810.74, 0.812942
1811.38, 0.812838
1812.01, 0.813047
1812.64, 0.813047
1813.28, 0.812629
1813.91, 0.812524
1814.55, 0.813151
1815.18, 0.813778
1815.82, 0.813674
1816.45, 0.813151
1817.09, 0.813151
1817.73, 0.813465
1818.36, 0.813569
1819.0, 0.813465
1819.64, 0.813674
1820.28, 0.814092
1820.92, 0.814405
1821.56, 0.814510
1822.2, 0.814405
1822.84, 0.814196
1823.48, 0.814196
1824.12, 0.814301
1824.76, 0.813987
1825.41, 0.814719
1826.05, 0.815868
1826.69, 0.815450
1827.34, 0.815346
1827.98, 0.815555
1828.63, 0.815659
1829.27, 0.815555
1829.92, 0.815868
1830.56, 0.816286
1831.21, 0.816182
1831.86, 0.815764
1832.5, 0.816182
1833.15, 0.816077
1833.8, 0.816077
1834.45, 0.816495
1835.1, 0.816600
1835.75, 0.817122
1836.4, 0.817750
1837.05, 0.817958
1837.7, 0.817958
1838.35, 0.816913
1839.01, 0.817227
1839.66, 0.817958
1840.31, 0.817645
1840.96, 0.817958
1841.62, 0.819108
1842.27, 0.818481
1842.93, 0.817645
1843.58, 0.817645
1844.24, 0.817854
1844.9, 0.817645
1845.55, 0.817436
1846.21, 0.818585
1846.87, 0.820153
1847.53, 0.819735
1848.18, 0.819422
1848.84, 0.818899
1849.5, 0.818585
1850.16, 0.818690
1850.82, 0.818899
1851.48, 0.818481
1852.14, 0.819004
1852.81, 0.819631
1853.47, 0.820362
1854.13, 0.820153
1854.8, 0.819422
1855.46, 0.819526
1856.12, 0.820049
1856.79, 0.819631
1857.45, 0.819004
1858.12, 0.819422
1858.79, 0.819840
1859.45, 0.820362
1860.12, 0.819944
1860.79, 0.819422
1861.46, 0.818899
1862.12, 0.818795
1862.79, 0.819108
1863.46, 0.819631
1864.13, 0.819735
1864.8, 0.819526
1865.48, 0.819526
1866.15, 0.819317
1866.82, 0.819944
1867.49, 0.820676
1868.16, 0.820467
1868.84, 0.820049
1869.51, 0.820049
1870.19, 0.820989
1870.86, 0.821616
1871.54, 0.819944
1872.21, 0.819735
1872.89, 0.820885
1873.56, 0.819840
1874.24, 0.819213
1874.92, 0.819631
1875.6, 0.819213
1876.28, 0.819526
1876.96, 0.819735
1877.64, 0.819004
1878.32, 0.818481
1879.0, 0.818376
1879.68, 0.818168
1880.36, 0.818063
1881.04, 0.818063
1881.73, 0.817958
1882.41, 0.817750
1883.09, 0.818063
1883.78, 0.818899
1884.46, 0.818585
1885.15, 0.818063
1885.83, 0.817854
1886.52, 0.817854
1887.21, 0.817958
1887.89, 0.817854
1888.58, 0.817645
1889.27, 0.817436
1889.96, 0.817854
1890.65, 0.817645
1891.34, 0.817645
1892.03, 0.817645
1892.72, 0.817227
1893.41, 0.817645
1894.1, 0.817331
1894.79, 0.816913
1895.49, 0.816913
1896.18, 0.817018
1896.87, 0.817227
1897.57, 0.817331
1898.26, 0.817227
1898.96, 0.817854
1899.65, 0.818376
1900.35, 0.817958
1901.05, 0.817540
1901.74, 0.817540
1902.44, 0.818376
1903.14, 0.818585
1903.84, 0.817854
1904.54, 0.818272
1905.24, 0.818690
1905.94, 0.818272
1906.64, 0.818063
1907.34, 0.817645
1908.04, 0.817436
1908.75, 0.817540
1909.45, 0.817540
1910.15, 0.817540
1910.86, 0.818168
1911.56, 0.818168
1912.27, 0.818168
1912.97, 0.819317
1913.68, 0.819526
1914.39, 0.818272
1915.09, 0.818168
1915.8, 0.818690
1916.51, 0.818795
1917.22, 0.818585
1917.93, 0.818376
1918.64, 0.818585
1919.35, 0.819840
1920.06, 0.820258
1920.77, 0.819631
1921.48, 0.818899
1922.19, 0.818376
1922.91, 0.818272
1923.62, 0.819004
1924.33, 0.819422
1925.05, 0.819422
1925.76, 0.819631
1926.48, 0.819840
1927.19, 0.819840
1927.91, 0.819840
1928.63, 0.819944
1929.35, 0.819735
1930.07, 0.819735
1930.78, 0.819944
1931.5, 0.819735
1932.22, 0.819840
1932.94, 0.820153
1933.66, 0.820258
1934.39, 0.820153
1935.11, 0.820258
1935.83, 0.820780
1936.55, 0.820989
1937.28, 0.820780
1938.0, 0.820780
1938.73, 0.820989
1939.45, 0.821303
1940.18, 0.821198
1940.9, 0.821198
1941.63, 0.821198
1942.36, 0.821512
1943.09, 0.821616
1943.81, 0.821512
1944.54, 0.821721
1945.27, 0.821721
1946.0, 0.821616
1946.73, 0.821512
1947.47, 0.821616
1948.2, 0.821825
1948.93, 0.821616
1949.66, 0.821616
1950.4, 0.821721
1951.13, 0.821303
1951.86, 0.821407
1952.6, 0.821930
1953.34, 0.821825
1954.07, 0.821616
1954.81, 0.821512
1955.55, 0.821407
1956.29, 0.821198
1957.02, 0.821721
1957.76, 0.821721
1958.5, 0.821407
1959.24, 0.821512
1959.98, 0.821825
1960.72, 0.821407
1961.47, 0.820885
1962.21, 0.820467
1962.95, 0.820571
1963.7, 0.820676
1964.44, 0.820676
1965.18, 0.820362
1965.93, 0.820467
1966.67, 0.820676
1967.42, 0.820676
1968.17, 0.820571
1968.92, 0.820467
1969.66, 0.820258
1970.41, 0.820153
1971.16, 0.820258
1971.91, 0.820153
1972.66, 0.820153
1973.41, 0.820049
1974.16, 0.819944
1974.92, 0.820258
1975.67, 0.820049
1976.42, 0.820049
1977.18, 0.819840
1977.93, 0.820049
1978.69, 0.819944
1979.44, 0.819422
1980.2, 0.819317
1980.95, 0.819631
1981.71, 0.819631
1982.47, 0.819317
1983.23, 0.819526
1983.99, 0.819317
1984.74, 0.818899
1985.51, 0.818795
1986.27, 0.818795
1987.03, 0.818899
1987.79, 0.818795
1988.55, 0.818795
1989.32, 0.818899
1990.08, 0.818690
1990.84, 0.818899
1991.61, 0.819108
1992.37, 0.818899
1993.14, 0.818690
1993.9, 0.818376
1994.67, 0.818585
1995.44, 0.818376
1996.21, 0.818272
1996.98, 0.818376
1997.75, 0.818376
1998.52, 0.817958
1999.29, 0.818063
2000.06, 0.818168
2000.83, 0.818063
2001.6, 0.817958
2002.38, 0.818168
2003.15, 0.818376
2003.93, 0.818272
2004.7, 0.818272
2005.48, 0.818481
2006.25, 0.818376
2007.03, 0.818481
2007.81, 0.818481
2008.58, 0.818585
2009.36, 0.818795
2010.14, 0.818795
2010.92, 0.818481
2011.7, 0.818376
2012.48, 0.818899
2013.26, 0.819108
2014.05, 0.819213
2014.83, 0.819422
2015.61, 0.819526
2016.4, 0.819631
2017.18, 0.819526
2017.97, 0.819735
2018.75, 0.820153
2019.54, 0.820571
2020.32, 0.820571
2021.11, 0.820780
2021.9, 0.820885
2022.69, 0.820885
2023.48, 0.820885
2024.27, 0.821198
2025.06, 0.821512
2025.85, 0.821825
2026.64, 0.821303
2027.44, 0.820989
2028.23, 0.821303
2029.02, 0.821198
2029.82, 0.820676
2030.61, 0.820885
2031.41, 0.821303
2032.2, 0.821512
2033.0, 0.821303
2033.8, 0.821094
2034.6, 0.821407
2035.4, 0.821930
2036.2, 0.821721
2037.0, 0.821721
2037.8, 0.821721
2038.6, 0.821616
2039.4, 0.821407
2040.2, 0.821303
2041.01, 0.821094
2041.81, 0.821303
2042.61, 0.820989
2043.42, 0.820362
2044.22, 0.820258
2045.03, 0.820571
2045.84, 0.820362
2046.65, 0.820153
2047.46, 0.820153
2048.26, 0.819840
2049.07, 0.819526
2049.88, 0.819422
2050.69, 0.819213
2051.51, 0.818795
2052.32, 0.818063
2053.13, 0.817540
2053.94, 0.817436
2054.76, 0.817018
2055.57, 0.816286
2056.39, 0.815764
2057.2, 0.815241
2058.02, 0.814510
2058.84, 0.813569
2059.66, 0.812420
2060.48, 0.811166
2061.29, 0.810225
2062.11, 0.808971
2062.94, 0.807508
2063.76, 0.806045
2064.58, 0.804164
2065.4, 0.801760
2066.22, 0.799252
2067.05, 0.796117
2067.87, 0.792773
2068.7, 0.788906
2069.52, 0.784517
2070.35, 0.779292
2071.18, 0.772708
2072.0, 0.764766
2072.83, 0.754942
2073.66, 0.743029
2074.49, 0.728816
2075.32, 0.712409
2076.15, 0.693180
2076.98, 0.670502
2077.82, 0.644063
2078.65, 0.613965
2079.48, 0.580524
2080.32, 0.547291
2081.15, 0.520851
2081.99, 0.508624
2082.83, 0.513641
2083.66, 0.532661
2084.5, 0.560145
2085.34, 0.589825
2086.18, 0.618563
2087.02, 0.645212
2087.86, 0.668830
2088.7, 0.689522
2089.54, 0.706974
2090.39, 0.721814
2091.23, 0.734459
2092.07, 0.744701
2092.92, 0.753375
2093.76, 0.760585
2094.61, 0.766438
2095.45, 0.771663
2096.3, 0.775948
2097.15, 0.779396
2098.0, 0.782740
2098.85, 0.785562
2099.7, 0.788175
2100.55, 0.790474
2101.4, 0.792041
2102.25, 0.793400
2103.1, 0.794967
2103.96, 0.796117
2104.81, 0.797058
2105.67, 0.798312
2106.52, 0.799461
2107.38, 0.800297
2108.24, 0.800820
2109.09, 0.801238
2109.95, 0.802387
2110.81, 0.803537
2111.67, 0.804164
2112.53, 0.804582
2113.39, 0.805000
2114.25, 0.805731
2115.12, 0.805940
2115.98, 0.806045
2116.84, 0.806463
2117.71, 0.806881
2118.58, 0.806985
2119.44, 0.807090
2120.31, 0.807398
2121.18, 0.808014
2122.04, 0.808322
2122.91, 0.808117
2123.78, 0.806782
2124.65, 0.806371
2125.52, 0.806782
2126.4, 0.807603
2127.27, 0.807193
2128.14, 0.805961
2129.02, 0.805447
2129.89, 0.804934
2130.77, 0.802881
2131.64, 0.801032
2132.52, 0.801032
2133.4, 0.799801
2134.27, 0.798260
2135.15, 0.795899
2136.03, 0.793332
2136.91, 0.791587
2137.79, 0.790868
2138.68, 0.789944
2139.56, 0.788301
2140.44, 0.787069
2141.33, 0.786556
2142.21, 0.786659
2143.1, 0.786761
2143.99, 0.786453
2144.87, 0.786248
2145.76, 0.785324
2146.65, 0.782860
2147.54, 0.781731
2148.43, 0.781114
2149.32, 0.779472
2150.21, 0.778342
2151.1, 0.778034
2151.99, 0.777624
2152.89, 0.778445
2153.78, 0.779677
2154.68, 0.780806
2155.57, 0.782244
2156.47, 0.783271
2157.37, 0.784400
2158.27, 0.786248
2159.16, 0.787275
2160.06, 0.788199
2160.96, 0.790355
2161.86, 0.792100
2162.77, 0.793640
2163.67, 0.794667
2164.57, 0.794872
2165.48, 0.795899
2166.38, 0.795899
2167.29, 0.794770
2168.2, 0.793846
2169.1, 0.794359
2170.01, 0.794872
2170.92, 0.794359
2171.83, 0.794359
2172.74, 0.794667
2173.65, 0.795283
2174.56, 0.796104
2175.47, 0.796823
2176.39, 0.798363
2177.3, 0.799082
2178.22, 0.798671
2179.13, 0.798260
2180.05, 0.798466
2180.96, 0.799595
2181.88, 0.800211
2182.8, 0.801032
2183.72, 0.801238
2184.64, 0.800827
2185.56, 0.801546
2186.48, 0.802367
2187.41, 0.801546
2188.33, 0.801546
2189.25, 0.801649
2190.18, 0.801238
2191.1, 0.801135
2192.03, 0.800416
2192.96, 0.799184
2193.89, 0.798466
2194.82, 0.798876
2195.74, 0.798671
2196.68, 0.798774
2197.61, 0.798260
2198.54, 0.797028
2199.47, 0.796104
2200.4, 0.795591
2201.34, 0.795283
2202.28, 0.795386
2203.21, 0.795283
2204.15, 0.795386
2205.08, 0.795283
2206.02, 0.794256
2206.96, 0.794872
2207.9, 0.794462
2208.84, 0.794462
2209.78, 0.795078
2210.73, 0.795180
2211.67, 0.795078
2212.61, 0.794770
2213.56, 0.795180
2214.5, 0.795283
2215.45, 0.795488
2216.4, 0.796515
2217.35, 0.797542
2218.3, 0.798979
2219.24, 0.800519
2220.2, 0.801956
2221.15, 0.802881
2222.1, 0.803599
2223.05, 0.804215
2224.0, 0.804421
2224.96, 0.804523
2225.91, 0.805961
2226.87, 0.807501
2227.83, 0.807501
2228.79, 0.806782
2229.74, 0.807090
2230.7, 0.807398
2231.66, 0.807295
2232.63, 0.807398
2233.59, 0.807809
2234.55, 0.808219
2235.51, 0.809246
2236.48, 0.809451
2237.44, 0.808938
2238.41, 0.809143
2239.38, 0.808938
2240.34, 0.809143
2241.31, 0.807911
2242.28, 0.808014
2243.25, 0.808527
2244.22, 0.808219
2245.19, 0.808117
2246.17, 0.808219
2247.14, 0.809143
2248.12, 0.809349
2249.09, 0.808835
2250.07, 0.808219
2251.04, 0.807603
2252.02, 0.807706
2253.0, 0.806577
2253.98, 0.804626
2254.96, 0.802778
2255.94, 0.800725
2256.92, 0.797644
2257.91, 0.794462
2258.89, 0.790868
2259.88, 0.788404
2260.86, 0.787891
2261.85, 0.789123
2262.83, 0.791587
2263.82, 0.794154
2264.81, 0.797028
2265.8, 0.799492
2266.79, 0.800725
2267.78, 0.802162
2268.78, 0.803394
2269.77, 0.804831
2270.76, 0.805345
2271.76, 0.806166
2272.75, 0.806987
2273.75, 0.807398
2274.75, 0.807603
2275.75, 0.808014
2276.75, 0.808527
2277.75, 0.808835
2278.75, 0.807603
2279.75, 0.807193
2280.75, 0.808117
2281.76, 0.808630
2282.76, 0.808117
2283.77, 0.808014
2284.77, 0.807911
2285.78, 0.807706
2286.79, 0.807706
2287.8, 0.806679
2288.81, 0.805961
2289.82, 0.805242
2290.83, 0.804729
2291.84, 0.804421
2292.86, 0.802778
2293.87, 0.801443
2294.89, 0.799698
2295.91, 0.798876
2296.92, 0.798671
2297.94, 0.797644
2298.96, 0.796412
2299.98, 0.796207
2301.0, 0.795283
2302.02, 0.794872
2303.04, 0.794770
2304.07, 0.794154
2305.09, 0.793846
2306.12, 0.793743
2307.15, 0.793435
2308.17, 0.793024
2309.2, 0.792922
2310.23, 0.792716
2311.26, 0.792100
2312.29, 0.791484
2313.32, 0.790663
2314.35, 0.790355
2315.39, 0.789841
2316.42, 0.789225
2317.46, 0.789020
2318.5, 0.788609
2319.53, 0.786761
2320.57, 0.785221
2321.61, 0.784297
2322.65, 0.783579
2323.69, 0.782655
2324.73, 0.782039
2325.78, 0.781217
2326.82, 0.781114
2327.86, 0.781217
2328.91, 0.781217
2329.96, 0.780601
2331.01, 0.780909
2332.05, 0.781320
2333.1, 0.781628
2334.15, 0.781320
2335.21, 0.780704
2336.26, 0.780601
2337.31, 0.780909
2338.36, 0.780909
2339.42, 0.779985
2340.48, 0.778650
2341.53, 0.778342
2342.59, 0.778958
2343.65, 0.779164
2344.71, 0.779164
2345.77, 0.779985
2346.83, 0.780498
2347.9, 0.780088
2348.96, 0.779985
2350.02, 0.780601
2351.09, 0.780806
2352.16, 0.780909
2353.23, 0.780909
2354.29, 0.780088
2355.36, 0.779369
2356.43, 0.778856
2357.51, 0.778445
2358.58, 0.777418
2359.65, 0.776392
2360.73, 0.775878
2361.8, 0.775981
2362.88, 0.775673
2363.96, 0.775468
2365.03, 0.775057
2366.11, 0.774544
2367.19, 0.773825
2368.27, 0.773209
2369.36, 0.772696
2370.44, 0.771669
2371.53, 0.771155
2372.61, 0.770847
2373.7, 0.770437
2374.78, 0.770539
2375.87, 0.771258
2376.96, 0.771669
2378.05, 0.772285
2379.14, 0.772285
2380.24, 0.772388
2381.33, 0.772696
2382.42, 0.772490
2383.52, 0.772696
2384.61, 0.773106
2385.71, 0.773106
2386.81, 0.772901
2387.91, 0.772696
2389.01, 0.772080
2390.11, 0.770950
2391.22, 0.770129
2392.32, 0.769513
2393.42, 0.768897
2394.53, 0.768999
2395.64, 0.768794
2396.74, 0.768281
2397.85, 0.767870
2398.96, 0.767665
2400.07, 0.767459
2401.18, 0.767049
2402.3, 0.766433
2403.41, 0.766330
2404.52, 0.766638
2405.64, 0.766843
2406.76, 0.765201
2407.88, 0.763661
2408.99, 0.763045
2410.11, 0.761402
2411.23, 0.758938
2412.36, 0.757398
2413.48, 0.755960
2414.6, 0.754420
2415.73, 0.753804
2416.85, 0.753085
2417.98, 0.752572
2419.11, 0.752880
2420.24, 0.752470
2421.37, 0.752264
2422.5, 0.752367
2423.64, 0.752264
2424.77, 0.752162
2425.9, 0.751545
2427.04, 0.751032
2428.18, 0.751135
2429.31, 0.751545
2430.45, 0.751854
2431.59, 0.751545
2432.73, 0.751751
2433.88, 0.752059
2435.02, 0.752264
2436.16, 0.753291
2437.31, 0.754831
2438.45, 0.756268
2439.6, 0.756679
2440.75, 0.756371
2441.9, 0.755550
2443.05, 0.754215
2444.2, 0.752059
2445.35, 0.749595
2446.51, 0.747952
2447.67, 0.747131
2448.82, 0.746515
2449.98, 0.745796
2451.14, 0.744256
2452.3, 0.741997
2453.46, 0.740560
2454.62, 0.739122
2455.78, 0.736761
2456.94, 0.733886
2458.11, 0.730909
2459.28, 0.728034
2460.44, 0.725981
2461.61, 0.724030
2462.78, 0.721874
2463.95, 0.720231
2465.12, 0.718280
2466.3, 0.716432
2467.47, 0.714995
2468.65, 0.713250
2469.82, 0.711812
2471.0, 0.710785
2472.18, 0.710477
2473.36, 0.711196
2474.54, 0.711709
2475.72, 0.712017
2476.9, 0.712017
2478.08, 0.711709
2479.27, 0.711299
2480.46, 0.710580
2481.64, 0.709143
2482.83, 0.706576
2484.02, 0.703393
2485.21, 0.700518
2486.4, 0.698054
2487.6, 0.696309
2488.79, 0.695180
2489.99, 0.694153
2491.18, 0.692818
2492.38, 0.689841
2493.58, 0.684296
2494.78, 0.678239
2495.98, 0.671565
2497.18, 0.665611
2498.39, 0.661196
2499.59, 0.657705
2500.8, 0.655754
2502.01, 0.655036
2503.21, 0.654214
2504.42, 0.653598
2505.63, 0.654112
2506.84, 0.654830
2508.06, 0.654317
2509.27, 0.652571
2510.49, 0.649697
2511.7, 0.646103
2512.92, 0.641791
2514.14, 0.636247
2515.36, 0.628855
2516.58, 0.620949
2517.8, 0.614994
2519.03, 0.611401
2520.25, 0.610066
2521.48, 0.609039
2522.7, 0.608218
2523.93, 0.607602
2525.16, 0.607191
2526.39, 0.604830
2527.62, 0.600518
2528.86, 0.595897
2530.09, 0.591072
2531.33, 0.587273
2532.56, 0.585939
2533.8, 0.586247
2535.04, 0.586657
2536.28, 0.588300
2537.52, 0.591893
2538.76, 0.595795
2540.01, 0.598054
2541.25, 0.598156
2542.5, 0.596000
2543.75, 0.591893
2544.99, 0.587787
2546.24, 0.585733
2547.49, 0.586452
2548.75, 0.587273
2550.0, 0.588916
2551.26, 0.592304
2552.51, 0.596616
2553.77, 0.601852
2555.03, 0.608423
2556.29, 0.615713
2557.55, 0.623002
2558.81, 0.629471
2560.08, 0.633783
2561.34, 0.636555
2562.61, 0.638916
2563.88, 0.642612
2565.14, 0.648157
2566.41, 0.653598
2567.68, 0.656473
2568.96, 0.658526
2570.23, 0.660888
2571.51, 0.664892
2572.78, 0.668691
2574.06, 0.672387
2575.34, 0.677520
2576.62, 0.682756
2577.9, 0.687069
2579.18, 0.691175
2580.47, 0.694153
2581.75, 0.695693
2583.04, 0.694666
2584.32, 0.690662
2585.61, 0.686555
2586.9, 0.683989
2588.2, 0.683372
2589.49, 0.684296
2590.78, 0.685118
2592.08, 0.684810
2593.37, 0.682962
2594.67, 0.679368
2595.97, 0.676186
2597.27, 0.674132
2598.57, 0.670949
2599.88, 0.668075
2601.18, 0.666945
2602.49, 0.667253
2603.79, 0.669101
2605.1, 0.671155
2606.41, 0.672695
2607.72, 0.675159
2609.03, 0.677212
2610.35, 0.678855
2611.66, 0.680087
2612.98, 0.679882
2614.3, 0.678342
2615.62, 0.675775
2616.94, 0.672592
2618.26, 0.671052
2619.58, 0.671052
2620.91, 0.672489
2622.23, 0.676494
2623.56, 0.681011
2624.89, 0.684707
2626.22, 0.688609
2627.55, 0.692613
2628.88, 0.696104
2630.21, 0.699081
2631.55, 0.702469
2632.89, 0.705344
2634.22, 0.707295
2635.56, 0.709245
2636.9, 0.710888
2638.25, 0.711915
2639.59, 0.712428
2640.93, 0.712942
2642.28, 0.713763
2643.63, 0.714995
2644.98, 0.715611
2646.33, 0.715714
2647.68, 0.716843
2649.03, 0.717767
2650.39, 0.717767
2651.74, 0.716740
2653.1, 0.716638
2654.46, 0.717151
2655.82, 0.716843
2657.18, 0.716740
2658.54, 0.716535
2659.9, 0.715406
2661.27, 0.715098
2662.64, 0.714687
2664.01, 0.713455
2665.38, 0.711812
2666.74, 0.710888
2668.12, 0.710375
2669.49, 0.710169
2670.87, 0.708424
2672.24, 0.707808
2673.62, 0.707500
2675.0, 0.705960
2676.38, 0.703599
2677.76, 0.701442
2679.15, 0.699697
2680.54, 0.698568
2681.92, 0.697233
2683.31, 0.694974
2684.7, 0.692510
2686.09, 0.690559
2687.48, 0.687890
2688.88, 0.685221
2690.27, 0.682756
2691.67, 0.680087
2693.07, 0.676288
2694.47, 0.671873
2695.87, 0.668280
2697.27, 0.664687
2698.67, 0.660169
2700.08, 0.655138
2701.49, 0.649389
2702.9, 0.644152
2704.31, 0.638711
2705.72, 0.632345
2707.13, 0.625056
2708.54, 0.616842
2709.96, 0.608218
2711.38, 0.599080
2712.8, 0.589635
2714.22, 0.579470
2715.64, 0.566739
2717.06, 0.552776
2718.49, 0.538402
2719.91, 0.521667
2721.34, 0.501133
2722.77, 0.481215
2724.2, 0.457704
2725.63, 0.431009
2727.07, 0.401440
2728.5, 0.367764
2729.94, 0.328750
2731.38, 0.284294
2732.82, 0.233575
2734.26, 0.177311
2735.7, 0.121869
2737.15, 0.0797750
2738.59, 0.0526700
2740.04, 0.0436350
2741.49, 0.0536960
2742.94, 0.0748470
2744.39, 0.100206
2745.84, 0.125155
2747.3, 0.145381
2748.76, 0.162527
2750.21, 0.189016
2751.67, 0.230905
2753.14, 0.277517
2754.6, 0.322487
2756.06, 0.363555
2757.53, 0.394048
2759.0, 0.416430
2760.46, 0.434192
2761.94, 0.449901
2763.41, 0.464582
2764.88, 0.478443
2766.36, 0.490353
2767.83, 0.500312
2769.31, 0.507909
2770.79, 0.512119
2772.27, 0.514583
2773.76, 0.518792
2775.24, 0.524850
2776.73, 0.530907
2778.22, 0.535630
2779.71, 0.538916
2781.2, 0.541277
2782.69, 0.544152
2784.18, 0.548053
2785.68, 0.551236
2787.18, 0.553392
2788.68, 0.555651
2790.18, 0.558218
2791.68, 0.559963
2793.19, 0.562016
2794.69, 0.564070
2796.2, 0.566123
2797.71, 0.567766
2799.22, 0.569409
2800.73, 0.570538
2802.24, 0.571154
2803.76, 0.572386
2805.28, 0.573618
2806.8, 0.574850
2808.32, 0.576288
2809.84, 0.576801
2811.36, 0.576801
2812.89, 0.576596
2814.42, 0.576082
2815.94, 0.575569
2817.48, 0.574850
2819.01, 0.573413
2820.54, 0.571873
2822.08, 0.571051
2823.61, 0.570127
2825.15, 0.568690
2826.69, 0.567047
2828.23, 0.565815
2829.78, 0.565815
2831.32, 0.567150
2832.87, 0.569717
2834.42, 0.572386
2835.97, 0.573721
2837.52, 0.574337
2839.08, 0.574234
2840.63, 0.574029
2842.19, 0.573515
2843.75, 0.572386
2845.31, 0.571051
2846.87, 0.569922
2848.44, 0.568690
2850.0, 0.567150
2851.57, 0.565610
2853.14, 0.563762
2854.71, 0.562016
2856.28, 0.560476
2857.86, 0.558423
2859.43, 0.555959
2861.01, 0.553495
2862.59, 0.550415
2864.17, 0.546719
2865.76, 0.542714
2867.34, 0.539326
2868.93, 0.537786
2870.52, 0.537786
2872.11, 0.538402
2873.7, 0.539326
2875.29, 0.540764
2876.89, 0.542612
2878.49, 0.544562
2880.08, 0.546103
2881.69, 0.547129
2883.29, 0.547848
2884.89, 0.547848
2886.5, 0.548053
2888.11, 0.547951
2889.72, 0.547335
2891.33, 0.547027
2892.94, 0.546513
2894.56, 0.545589
2896.17, 0.545076
2897.79, 0.545589
2899.42, 0.546513
2901.04, 0.548259
2902.66, 0.550825
2904.29, 0.552571
2905.92, 0.552057
2907.55, 0.548977
2909.18, 0.545487
2910.81, 0.546719
2912.45, 0.551852
2914.08, 0.556575
2915.72, 0.559758
2917.36, 0.561298
2919.01, 0.561914
2920.65, 0.561708
2922.3, 0.560990
2923.94, 0.559758
2925.59, 0.559860
2927.25, 0.561195
2928.9, 0.562530
2930.56, 0.562940
2932.21, 0.563043
2933.87, 0.563146
2935.53, 0.563556
2937.2, 0.563454
2938.86, 0.563351
2940.53, 0.562324
2942.2, 0.560682
2943.87, 0.559860
2945.54, 0.559860
2947.22, 0.559758
2948.89, 0.558834
2950.57, 0.556780
2952.25, 0.554419
2953.93, 0.552468
2955.62, 0.550825
2957.3, 0.549080
2958.99, 0.547232
2960.68, 0.545487
2962.37, 0.543946
2964.07, 0.542098
2965.76, 0.540353
2967.46, 0.540250
2969.16, 0.541174
2970.86, 0.542509
2972.56, 0.543433
2974.27, 0.543638
2975.98, 0.542509
2977.69, 0.541174
2979.4, 0.540661
2981.11, 0.540353
2982.83, 0.540353
2984.54, 0.541380
2986.26, 0.542612
2987.98, 0.544254
2989.71, 0.546513
2991.43, 0.548977
2993.16, 0.551339
2994.89, 0.552879
2996.62, 0.553803
2998.35, 0.554522
3000.09, 0.555445
3001.83, 0.556062
3003.57, 0.556472
3005.31, 0.556986
3007.05, 0.558423
3008.79, 0.560579
3010.54, 0.562940
3012.29, 0.564994
3014.04, 0.567355
3015.8, 0.569819
3017.55, 0.571873
3019.31, 0.573515
3021.07, 0.574542
3022.83, 0.575466
3024.59, 0.576288
3026.36, 0.576904
3028.13, 0.577109
3029.9, 0.577725
3031.67, 0.578238
3033.44, 0.578444
3035.22, 0.579162
3037.0, 0.580394
3038.78, 0.581934
3040.56, 0.583782
3042.34, 0.585425
3044.13, 0.587068
3045.92, 0.588095
3047.71, 0.588711
3049.5, 0.589840
3051.3, 0.590867
3053.09, 0.591893
3054.89, 0.592817
3056.69, 0.593844
3058.5, 0.594768
3060.3, 0.595692
3062.11, 0.596411
3063.92, 0.597027
3065.73, 0.597951
3067.55, 0.598567
3069.36, 0.598875
3071.18, 0.598978
3073.0, 0.599183
3074.82, 0.599491
3076.65, 0.599799
3078.48, 0.600312
3080.31, 0.601236
3082.14, 0.602058
3083.97, 0.602674
3085.8, 0.603084
3087.64, 0.603700
3089.48, 0.604522
3091.33, 0.605138
3093.17, 0.605857
3095.02, 0.606678
3096.87, 0.607397
3098.72, 0.608013
3100.57, 0.608629
3102.43, 0.609553
3104.28, 0.610271
3106.14, 0.610887
3108.01, 0.611298
3109.87, 0.612222
3111.74, 0.613146
3113.61, 0.613454
3115.48, 0.613660
3117.35, 0.614173
3119.23, 0.615302
3121.1, 0.616124
3122.98, 0.616534
3124.87, 0.617048
3126.75, 0.617253
3128.64, 0.617664
3130.53, 0.618177
3132.42, 0.618280
3134.31, 0.618280
3136.21, 0.618588
3138.11, 0.619101
3140.01, 0.619717
3141.91, 0.620230
3143.82, 0.620744
3145.73, 0.621154
3147.64, 0.621462
3149.55, 0.621668
3151.46, 0.621976
3153.38, 0.622181
3155.3, 0.622592
3157.22, 0.623105
3159.14, 0.623413
3161.07, 0.623516
3163.0, 0.623926
3164.93, 0.624440
3166.86, 0.624953
3168.8, 0.625261
3170.74, 0.625672
3172.68, 0.626596
3174.62, 0.627417
3176.56, 0.627931
3178.51, 0.628341
3180.46, 0.629060
3182.42, 0.629368
3184.37, 0.629881
3186.33, 0.630292
3188.29, 0.630908
3190.25, 0.631421
3192.21, 0.631524
3194.18, 0.631935
3196.15, 0.632448
3198.12, 0.632551
3200.09, 0.633167
3202.07, 0.633680
3204.05, 0.633988
3206.03, 0.634296
3208.02, 0.634810
3210.0, 0.634912
3211.99, 0.635220
3213.98, 0.635631
3215.98, 0.636350
3217.97, 0.636658
3219.97, 0.636658
3221.97, 0.637068
3223.98, 0.637684
3225.98, 0.637890
3227.99, 0.637992
3230.0, 0.638300
3232.02, 0.638814
3234.03, 0.639019
3236.05, 0.639122
3238.07, 0.639327
3240.1, 0.639635
3242.12, 0.639738
3244.15, 0.639840
3246.18, 0.640148
3248.22, 0.640456
3250.25, 0.640764
3252.29, 0.641380
3254.33, 0.641791
3256.38, 0.642202
3258.43, 0.642510
3260.47, 0.643023
3262.53, 0.643228
3264.58, 0.643639
3266.64, 0.644152
3268.7, 0.644461
3270.76, 0.644769
3272.82, 0.645282
3274.89, 0.645795
3276.96, 0.646103
3279.04, 0.646411
3281.11, 0.646617
3283.19, 0.647027
3285.27, 0.647130
3287.35, 0.647027
3289.44, 0.647335
3291.53, 0.647746
3293.62, 0.647643
3295.71, 0.647951
3297.81, 0.648259
3299.91, 0.648773
3302.01, 0.649389
3304.11, 0.649594
3306.22, 0.649697
3308.33, 0.649902
3310.44, 0.650313
3312.56, 0.650621
3314.68, 0.650929
3316.8, 0.651134
3318.92, 0.651237
3321.05, 0.651237
3323.18, 0.651545
3325.31, 0.651853
3327.44, 0.651853
3329.58, 0.652161
3331.72, 0.652571
3333.86, 0.652674
3336.01, 0.652982
3338.16, 0.653188
3340.31, 0.653393
3342.46, 0.653393
3344.61, 0.653393
3346.77, 0.653188
3348.94, 0.653085
3351.1, 0.652879
3353.27, 0.652777
3355.44, 0.652161
3357.61, 0.651545
3359.79, 0.650929
3361.97, 0.650107
3364.15, 0.649594
3366.33, 0.649081
3368.52, 0.648567
3370.71, 0.648362
3372.9, 0.648773
3375.1, 0.648978
3377.3, 0.649286
3379.5, 0.649697
3381.71, 0.650005
3383.91, 0.650415
3386.12, 0.650723
3388.34, 0.650929
3390.55, 0.651031
3392.77, 0.651031
3394.99, 0.650621
3397.22, 0.650415
3399.45, 0.649799
3401.68, 0.649286
3403.91, 0.649081
3406.15, 0.648670
3408.39, 0.648465
3410.63, 0.648362
3412.87, 0.648259
3415.12, 0.648567
3417.37, 0.648978
3419.63, 0.650005
3421.88, 0.650929
3424.14, 0.652058
3426.41, 0.653393
3428.67, 0.654420
3430.94, 0.655241
3433.21, 0.656165
3435.49, 0.656986
3437.77, 0.657500
3440.05, 0.658218
3442.33, 0.658937
3444.62, 0.659450
3446.91, 0.659861
3449.2, 0.660272
3451.5, 0.660374
3453.8, 0.660785
3456.1, 0.661298
3458.41, 0.661298
3460.72, 0.661504
3463.03, 0.661606
3465.34, 0.661504
3467.66, 0.661401
3469.98, 0.661504
3472.31, 0.661298
3474.63, 0.661196
3476.96, 0.661298
3479.3, 0.661298
3481.64, 0.661401
3483.97, 0.661504
3486.32, 0.661504
3488.66, 0.661298
3491.01, 0.660990
3493.36, 0.660785
3495.72, 0.660272
3498.08, 0.659656
3500.44, 0.659758
3502.81, 0.660374
3505.18, 0.660990
3507.55, 0.661709
3509.92, 0.662428
3512.3, 0.663147
3514.68, 0.663968
3517.06, 0.664892
3519.45, 0.665097
3521.84, 0.665303
3524.24, 0.665405
3526.64, 0.665405
3529.04, 0.665405
3531.44, 0.665816
3533.85, 0.665919
3536.26, 0.665713
3538.67, 0.665508
3541.09, 0.665816
3543.51, 0.666227
3545.93, 0.666021
3548.36, 0.665919
3550.79, 0.665816
3553.22, 0.666021
3555.66, 0.665919
3558.1, 0.665816
3560.54, 0.665919
3562.99, 0.666124
3565.44, 0.666329
3567.9, 0.666329
3570.35, 0.666329
3572.81, 0.666432
3575.28, 0.666432
3577.75, 0.666329
3580.22, 0.666329
3582.69, 0.666432
3585.17, 0.666432
3587.65, 0.666535
3590.14, 0.666432
3592.62, 0.666432
3595.11, 0.666432
3597.61, 0.666432
3600.11, 0.666432
3602.61, 0.666432
3605.11, 0.666329
3607.62, 0.666432
3610.14, 0.666535
3612.65, 0.666535
3615.17, 0.666535
3617.69, 0.666329
3620.22, 0.666329
3622.75, 0.666432
3625.28, 0.666535
3627.82, 0.666329
3630.36, 0.666329
3632.9, 0.666535
3635.45, 0.666637
3638.0, 0.666945
3640.56, 0.667151
3643.12, 0.667253
3645.68, 0.667459
3648.24, 0.667767
3650.81, 0.668383
3653.39, 0.668999
3655.96, 0.669307
3658.54, 0.669717
3661.13, 0.670231
3663.71, 0.670641
3666.3, 0.671052
3668.9, 0.671668
3671.5, 0.672284
3674.1, 0.672695
3676.7, 0.673003
3679.31, 0.673619
3681.93, 0.674030
3684.54, 0.674132
3687.17, 0.674543
3689.79, 0.674851
3692.42, 0.675159
3695.05, 0.675364
3697.69, 0.675467
3700.32, 0.675672
3702.97, 0.675775
3705.61, 0.675570
3708.27, 0.675056
3710.92, 0.673003
3713.58, 0.669717
3716.24, 0.670128
3718.91, 0.673619
3721.58, 0.675570
3724.25, 0.676391
3726.93, 0.676596
3729.61, 0.676699
3732.29, 0.676699
3734.98, 0.676699
3737.67, 0.676494
3740.37, 0.676699
3743.07, 0.676596
3745.78, 0.676391
3748.49, 0.676288
3751.2, 0.676288
3753.91, 0.675980
3756.63, 0.675672
3759.36, 0.675364
3762.09, 0.675159
3764.82, 0.674748
3767.55, 0.674440
3770.29, 0.674132
3773.04, 0.673824
3775.78, 0.673208
3778.54, 0.672489
3781.29, 0.671873
3784.05, 0.671668
3786.82, 0.671360
3789.59, 0.670847
3792.36, 0.670231
3795.13, 0.669717
3797.92, 0.669204
3800.7, 0.668691
3803.49, 0.668075
3806.28, 0.667561
3809.08, 0.667048
3811.88, 0.666432
3814.68, 0.665816
3817.49, 0.665097
3820.31, 0.664584
3823.12, 0.663968
3825.94, 0.663249
3828.77, 0.662428
3831.6, 0.661709
3834.43, 0.661093
3837.27, 0.660477
3840.11, 0.659861
3842.96, 0.659245
3845.81, 0.658937
3848.67, 0.658937
3851.53, 0.658834
3854.39, 0.658937
3857.26, 0.659348
3860.13, 0.659656
3863.01, 0.659964
3865.89, 0.660580
3868.77, 0.661298
3871.66, 0.662017
3874.55, 0.662941
3877.45, 0.663968
3880.35, 0.664995
3883.26, 0.665919
3886.17, 0.666637
3889.09, 0.667459
3892.01, 0.668280
3894.93, 0.669204
3897.86, 0.670025
3900.79, 0.670847
3903.73, 0.671360
3906.67, 0.671565
3909.62, 0.671873
3912.57, 0.672181
3915.52, 0.672592
3918.48, 0.672797
3921.45, 0.672900
3924.42, 0.672900
3927.39, 0.673003
3930.37, 0.673208
3933.35, 0.673208
3936.34, 0.673105
3939.33, 0.673208
3942.32, 0.673311
3945.32, 0.673311
3948.33, 0.673105
3951.34, 0.673208
3954.35, 0.673208
3957.37, 0.673105
3960.39, 0.673105
3963.42, 0.673003
3966.45, 0.672900
3969.49, 0.672592
3972.53, 0.672592
3975.58, 0.672797
3978.63, 0.672695
3981.68, 0.672489
3984.75, 0.672284
3987.81, 0.672284
3990.88, 0.672284
3993.95, 0.672181
3997.03, 0.671668
4000.12, 0.671155
4003.21, 0.670333
4006.3, 0.669409
4009.4, 0.667972
4012.5, 0.666535
4015.61, 0.664892
4018.72, 0.663044
4021.84, 0.661709
4024.96, 0.661298
4028.09, 0.661914
4031.22, 0.663249
4034.36, 0.664789
4037.5, 0.666124
4040.65, 0.667151
4043.8, 0.667972
4046.96, 0.668280
4050.12, 0.668485
4053.29, 0.668691
4056.46, 0.668793
4059.64, 0.668588
4062.82, 0.668485
4066.0, 0.668383
4069.19, 0.668485
4072.39, 0.668177
4075.59, 0.667869
4078.8, 0.667459
4082.01, 0.667151
4085.23, 0.666945
4088.45, 0.666843
4091.68, 0.666432
4094.91, 0.666021
4098.15, 0.665611
4101.39, 0.665303
4104.63, 0.665097
4107.89, 0.664789
4111.14, 0.664276
4114.41, 0.664070
4117.67, 0.664173
4120.95, 0.664173
4124.23, 0.663763
4127.51, 0.663454
4130.8, 0.663249
4134.09, 0.663249
4137.39, 0.663147
4140.7, 0.663147
4144.01, 0.663044
4147.32, 0.663044
4150.64, 0.663044
4153.97, 0.662838
4157.3, 0.662325
4160.64, 0.662120
4163.98, 0.662222
4167.33, 0.662120
4170.68, 0.661812
4174.04, 0.661606
4177.4, 0.661401
4180.77, 0.661196
4184.14, 0.660888
4187.52, 0.660580
4190.91, 0.660374
4194.3, 0.660066
4197.69, 0.659656
4201.1, 0.659245
4204.5, 0.658629
4207.92, 0.658116
4211.34, 0.657602
4214.76, 0.656986
4218.19, 0.656268
4221.62, 0.655036
4225.06, 0.653598
4228.51, 0.652366
4231.96, 0.651031
4235.42, 0.650005
4238.88, 0.648773
4242.35, 0.647438
4245.83, 0.645693
4249.31, 0.643947
4252.79, 0.641688
4256.28, 0.639019
4259.78, 0.636144
4263.29, 0.632448
4266.79, 0.627725
4270.31, 0.622489
4273.83, 0.616842
4277.35, 0.609963
4280.89, 0.601955
4284.42, 0.593433
4287.97, 0.583577
4291.52, 0.571667
4295.07, 0.557807
4298.63, 0.542509
4302.2, 0.526184
4305.78, 0.510681
4309.35, 0.498874
4312.94, 0.493946
4316.53, 0.497129
4320.13, 0.507601
4323.73, 0.522591
4327.34, 0.539326
4330.96, 0.555445
4334.58, 0.570025
4338.21, 0.582550
4341.84, 0.593023
4345.48, 0.601750
4349.12, 0.608937
4352.77, 0.615097
4356.43, 0.620538
4360.1, 0.624748
4363.76, 0.628341
4367.44, 0.631113
4371.12, 0.633577
4374.81, 0.635528
4378.51, 0.636966
4382.21, 0.637890
4385.92, 0.638814
4389.63, 0.639635
4393.35, 0.640456
4397.08, 0.640662
4400.81, 0.640867
4404.55, 0.640867
4408.29, 0.641175
4412.04, 0.641483
4415.8, 0.641483
4419.57, 0.641380
4423.34, 0.641175
4427.12, 0.640867
4430.9, 0.640764
4434.69, 0.640662
4438.49, 0.640662
4442.29, 0.640354
4446.1, 0.640046
4449.92, 0.639738
4453.74, 0.639327
4457.57, 0.639224
4461.41, 0.639122
4465.25, 0.638711
4469.1, 0.638300
4472.95, 0.638198
4476.82, 0.637890
4480.69, 0.637582
4484.56, 0.637274
4488.44, 0.636863
4492.33, 0.636452
4496.23, 0.636042
4500.13, 0.635528
4504.04, 0.634912
4507.96, 0.634399
4511.88, 0.633988
4515.81, 0.633372
4519.75, 0.632551
4523.69, 0.631832
4527.65, 0.630908
4531.6, 0.630087
4535.57, 0.629265
4539.54, 0.628444
4543.52, 0.627520
4547.5, 0.626699
4551.5, 0.625877
4555.5, 0.625159
4559.5, 0.624337
4563.52, 0.623516
4567.54, 0.622900
4571.56, 0.622386
4575.6, 0.621770
4579.64, 0.621360
4583.69, 0.620744
4587.75, 0.620230
4591.81, 0.619614
4595.88, 0.618998
4599.96, 0.618485
4604.04, 0.617766
4608.14, 0.617048
4612.24, 0.616432
4616.34, 0.615713
4620.46, 0.615200
4624.58, 0.614891
4628.71, 0.614789
4632.84, 0.614686
4636.99, 0.614481
4641.14, 0.614378
4645.3, 0.614276
4649.47, 0.614070
4653.64, 0.613967
4657.82, 0.613865
4662.01, 0.613660
4666.21, 0.613454
4670.41, 0.613146
4674.62, 0.612633
4678.84, 0.612530
4683.07, 0.612119
4687.3, 0.611503
4691.54, 0.610785
4695.79, 0.610374
4700.05, 0.609861
4704.31, 0.609450
4708.59, 0.608834
4712.87, 0.608321
4717.15, 0.607705
4721.45, 0.607191
4725.76, 0.606473
4730.07, 0.605857
4734.39, 0.605241
4738.72, 0.604522
4743.05, 0.603803
4747.39, 0.603084
4751.75, 0.602366
4756.1, 0.601647
4760.47, 0.600928
4764.85, 0.600210
4769.23, 0.599183
4773.62, 0.598259
4778.02, 0.597232
4782.43, 0.596206
4786.85, 0.595076
4791.27, 0.593741
4795.7, 0.592304
4800.14, 0.590764
4804.59, 0.589121
4809.05, 0.587171
4813.51, 0.585015
4817.99, 0.583064
4822.47, 0.581010
4826.96, 0.578649
4831.46, 0.575877
4835.96, 0.573310
4840.48, 0.570435
4845.0, 0.567150
4849.54, 0.563762
4854.08, 0.560374
4858.63, 0.556370
4863.18, 0.552057
4867.75, 0.547540
4872.33, 0.542509
4876.91, 0.536759
4881.5, 0.530291
4886.1, 0.523412
4890.71, 0.515917
4895.33, 0.507499
4899.96, 0.498464
4904.59, 0.488813
4909.24, 0.478751
4913.89, 0.468689
4918.55, 0.458628
4923.22, 0.449079
4927.9, 0.440352
4932.59, 0.432857
4937.29, 0.426902
4942.0, 0.422488
4946.71, 0.419716
4951.44, 0.418689
4956.17, 0.419305
4960.91, 0.420845
4965.67, 0.423309
4970.43, 0.426800
4975.2, 0.430496
4979.98, 0.433473
4984.76, 0.435937
4989.56, 0.437786
4994.37, 0.438915
4999.18, 0.439223
5004.01, 0.439018
5008.84, 0.438504
5013.69, 0.437477
5018.54, 0.436143
5023.4, 0.434295
5028.28, 0.432139
5033.16, 0.429983
5038.05, 0.427724
5042.95, 0.425157
5047.86, 0.422488
5052.78, 0.419613
5057.71, 0.416430
5062.65, 0.413145
5067.6, 0.409654
5072.56, 0.405855
5077.53, 0.401851
5082.5, 0.397950
5087.49, 0.393535
5092.49, 0.388812
5097.5, 0.384294
5102.51, 0.379982
5107.54, 0.375875
5112.58, 0.371666
5117.62, 0.367764
5122.68, 0.363966
5127.75, 0.360167
5132.82, 0.356676
5137.91, 0.353185
5143.01, 0.349900
5148.12, 0.346306
5153.23, 0.342097
5158.36, 0.337990
5163.5, 0.333473
5168.65, 0.328647
5173.81, 0.323514
5178.98, 0.317867
5184.15, 0.311912
5189.34, 0.305854
5194.54, 0.299284
5199.75, 0.292302
5204.98, 0.285012
5210.21, 0.277825
5215.45, 0.270228
5220.7, 0.262322
5225.96, 0.254314
5231.23, 0.246306
5236.52, 0.238708
5241.81, 0.231419
5247.12, 0.224437
5252.44, 0.218071
5257.76, 0.212425
5263.1, 0.207496
5268.45, 0.203082
5273.81, 0.199385
5279.18, 0.195997
5284.56, 0.193225
5289.95, 0.190556
5295.36, 0.187989
5300.77, 0.185320
5306.2, 0.182856
5311.63, 0.180186
5317.08, 0.177517
5322.54, 0.174847
5328.01, 0.172486
5333.49, 0.170432
5338.98, 0.168584
5344.49, 0.166942
5350.0, 0.165710
5355.53, 0.164478
5361.07, 0.163554
5366.62, 0.162938
5372.18, 0.162630
5377.75, 0.162630
5383.34, 0.163040
5388.93, 0.163451
5394.54, 0.164067
5400.16, 0.164786
5405.79, 0.165504
5411.44, 0.165607
5417.09, 0.165504
5422.76, 0.164683
5428.43, 0.163246
5434.12, 0.161603
5439.83, 0.159960
5445.54, 0.157907
5451.26, 0.155853
5457.0, 0.153800
5462.75, 0.152260
5468.52, 0.150412
5474.29, 0.148974
5480.08, 0.147948
5485.88, 0.147024
5491.69, 0.146100
5497.51, 0.145176
5503.35, 0.144354
5509.2, 0.143944
5515.06, 0.143430
5520.93, 0.143636
5526.82, 0.144046
5532.71, 0.145073
5538.63, 0.146613
5544.55, 0.149077
5550.49, 0.152054
5556.44, 0.155648
5562.4, 0.159857
5568.37, 0.164786
5574.36, 0.170330
5580.36, 0.176798
5586.37, 0.183472
5592.4, 0.190658
5598.44, 0.198564
5604.49, 0.206778
5610.56, 0.214683
5616.63, 0.222384
5622.73, 0.229673
5628.83, 0.236757
5634.95, 0.243534
5641.08, 0.250002
5647.23, 0.255443
5653.39, 0.260577
5659.56, 0.265300
5665.74, 0.269612
5671.94, 0.274232
5678.15, 0.278133
5684.38, 0.281522
5690.62, 0.284704
5696.87, 0.287168
5703.14, 0.289427
5709.42, 0.291481
5715.72, 0.292097
5722.03, 0.291891
5728.35, 0.290967
5734.69, 0.289222
5741.03, 0.286963
5747.4, 0.284191
5753.78, 0.281008
5760.17, 0.278749
5766.58, 0.276285
5773.0, 0.273308
5779.44, 0.271973
5785.88, 0.271460
5792.35, 0.272281
5798.83, 0.274437
5805.32, 0.277209
5811.83, 0.280598
5818.35, 0.285012
5824.89, 0.289324
5831.45, 0.293637
5838.01, 0.298154
5844.59, 0.303390
5851.19, 0.309140
5857.8, 0.315197
5864.43, 0.320742
5871.07, 0.325259
5877.73, 0.330187
5884.4, 0.333370
5891.09, 0.336142
5897.79, 0.339428
5904.5, 0.341686
5911.23, 0.345074
5917.98, 0.348873
5924.75, 0.352261
5931.53, 0.355957
5938.32, 0.358422
5945.13, 0.359038
5951.96, 0.359756
5958.8, 0.360064
5965.65, 0.360578
5972.53, 0.359448
5979.42, 0.358011
5986.32, 0.357087
5993.24, 0.354725
6000.18, 0.351645
6007.13, 0.349489
6014.1, 0.347333
6021.08, 0.344356
6028.09, 0.341686
6035.1, 0.339428
6042.14, 0.338709
6049.19, 0.336450
6056.25, 0.331933
6063.34, 0.329571
6070.44, 0.327826
6077.55, 0.324951
6084.69, 0.322179
6091.84, 0.320331
6099.0, 0.318791
6106.19, 0.318072
6113.39, 0.317148
6120.61, 0.315197
6127.84, 0.313657
6135.09, 0.312528
6142.36, 0.311399
6149.65, 0.309961
6156.95, 0.309037
6164.27, 0.307292
6171.61, 0.305649
6178.97, 0.304930
6186.34, 0.303801
6193.73, 0.301748
6201.14, 0.300310
6208.57, 0.299078
6216.01, 0.297641
6223.47, 0.295998
6230.95, 0.294355
6238.45, 0.292713
6245.97, 0.290865
6253.5, 0.289427
6261.06, 0.288400
6268.63, 0.287682
6276.21, 0.286963
6283.82, 0.286142
6291.45, 0.285628
6299.1, 0.285115
6306.76, 0.284499
6314.44, 0.283678
6322.14, 0.282548
6329.86, 0.281316
6337.6, 0.280700
6345.35, 0.279263
6353.13, 0.277004
6360.92, 0.275567
6368.74, 0.274437
6376.57, 0.272589
6384.43, 0.271049
6392.3, 0.269714
6400.19, 0.268893
6408.1, 0.269098
6416.03, 0.267866
6423.98, 0.265505
6431.95, 0.263862
6439.94, 0.261706
6447.95, 0.260371
6455.98, 0.258934
6464.03, 0.257599
6472.1, 0.256778
6480.19, 0.256162
6488.31, 0.255546
6496.44, 0.254211
6504.59, 0.252363
6512.76, 0.251850
6520.95, 0.251542
6529.16, 0.250721
6537.4, 0.249796
6545.65, 0.249180
6553.92, 0.248256
6562.22, 0.247024
6570.54, 0.245792
6578.88, 0.243636
6587.23, 0.241480
6595.61, 0.239427
6604.02, 0.236963
6612.44, 0.234807
6620.89, 0.232856
6629.35, 0.231419
6637.84, 0.228954
6646.35, 0.225772
6654.88, 0.223410
6663.44, 0.221768
6672.01, 0.220330
6680.61, 0.218790
6689.23, 0.216839
6697.88, 0.215299
6706.54, 0.214273
6715.23, 0.213143
6723.94, 0.211706
6732.67, 0.210576
6741.42, 0.210166
6750.2, 0.210063
6759.0, 0.209858
6767.82, 0.210063
6776.67, 0.210474
6785.54, 0.210884
6794.44, 0.210576
6803.35, 0.209960
6812.29, 0.209858
6821.26, 0.209960
6830.24, 0.209139
6839.25, 0.207907
6848.29, 0.207086
6857.35, 0.206367
6866.43, 0.204416
6875.54, 0.202363
6884.67, 0.200617
6893.82, 0.198564
6903.0, 0.196716
6912.2, 0.194765
6921.43, 0.192815
6930.69, 0.190966
6939.96, 0.189118
6949.27, 0.187784
6958.59, 0.186346
6967.95, 0.184396
6977.33, 0.182856
6986.73, 0.181726
6996.16, 0.180699
7005.61, 0.179570
7015.09, 0.178441
7024.6, 0.177619
7034.13, 0.177209
7043.69, 0.176901
7053.27, 0.176079
7062.88, 0.175361
7072.52, 0.174642
7082.18, 0.173821
7091.87, 0.173102
7101.58, 0.172178
7111.32, 0.170946
7121.09, 0.169816
7130.88, 0.168379
7140.71, 0.166839
7150.56, 0.165196
7160.43, 0.163656
7170.33, 0.162014
7180.27, 0.160268
7190.23, 0.158728
7200.21, 0.157393
7210.23, 0.156161
7220.27, 0.154519
7230.34, 0.152671
7240.44, 0.151130
7250.56, 0.149488
7260.72, 0.147948
7270.9, 0.146408
7281.12, 0.144765
7291.36, 0.143122
7301.63, 0.141685
7311.93, 0.139631
7322.25, 0.137270
7332.61, 0.135217
7343.0, 0.133061
7353.41, 0.130391
7363.86, 0.127824
7374.33, 0.125360
7384.83, 0.122999
7395.37, 0.120637
7405.93, 0.118481
7416.53, 0.116428
7427.15, 0.114375
7437.81, 0.112732
7448.5, 0.111294
7459.22, 0.109754
7469.96, 0.108317
7480.74, 0.106572
7491.55, 0.105134
7502.39, 0.103697
7513.27, 0.102362
7524.17, 0.100822
7535.11, 0.0991790
7546.08, 0.0973310
7557.08, 0.0956890
7568.11, 0.0942510
7579.17, 0.0929160
7590.27, 0.0914790
7601.4, 0.0902470
7612.56, 0.0890150
7623.76, 0.0876800
7634.98, 0.0864480
7646.24, 0.0853190
7657.54, 0.0837790
7668.87, 0.0825470
7680.23, 0.0813150
7691.62, 0.0801850
7703.05, 0.0789530
7714.51, 0.0777210
7726.01, 0.0763870
7737.54, 0.0750520
7749.11, 0.0734090
7760.71, 0.0713560
7772.35, 0.0692000
7784.02, 0.0669410
7795.72, 0.0646820
7807.46, 0.0626290
7819.23, 0.0601650
7831.04, 0.0575980
7842.89, 0.0554420
7854.77, 0.0534910
7866.69, 0.0513350
7878.65, 0.0492820
7890.64, 0.0471260
7902.67, 0.0453800
7914.74, 0.0435320
7926.84, 0.0415810
7938.98, 0.0396310
7951.16, 0.0378850
7963.37, 0.0362430
7975.62, 0.0348050
7987.91, 0.0331620
8000.24, 0.0315200
8012.6, 0.0300820
8025.01, 0.0289530
8037.45, 0.0275160
8049.93, 0.0260780
8062.45, 0.0246410
8075.01, 0.0234090
8087.61, 0.0223820
8100.24, 0.0213550
8112.91, 0.0201230
8125.63, 0.0190970
8138.39, 0.0177620
8151.18, 0.0168380
8164.02, 0.0156060
8176.9, 0.0142710
8189.81, 0.0129360
8202.77, 0.0118070
8215.77, 0.0108830
8228.82, 0.0103700
8241.9, 0.00954800
8255.02, 0.00862400
8268.19, 0.00800800
8281.39, 0.00729000
8294.65, 0.00657100
8307.94, 0.00605800
8321.28, 0.00523600
8334.66, 0.00472300
8348.08, 0.00400400
8361.54, 0.00359300
8375.05, 0.00308000
8388.6, 0.00266900
8402.2, 0.00236100
8415.84, 0.00205300
8429.52, 0.00174500
8443.25, 0.00164300
8457.02, 0.00164300
8470.84, 0.00133500
8484.7, 0.00123200
8498.61, 0.00143700
8512.57, 0.00154000
8526.57, 0.00184800
8540.62, 0.00215600
8554.71, 0.00287500
8568.85, 0.00349100
8583.04, 0.00379900
8597.27, 0.00338800
8611.55, 0.00318300
8625.88, 0.00287500
8640.26, 0.00246400
8654.68, 0.00184800
8669.16, 0.00164300
8683.68, 0.00133500
8698.25, 0.00123200
8712.87, 0.00102700
8727.53, 0.000924000
8742.25, 0.000719000
8757.02, 0.000616000
8771.83, 0.000308000
8786.7, 0.000103000
8801.62, 0.000308000
8816.59, 0.000821000
8831.61, 0.00102700
8846.68, 0.00133500
8861.8, 0.00184800
8876.97, 0.00236100
8892.2, 0.00266900
8907.48, 0.00297700
8922.81, 0.00297700
8938.2, 0.00349100
8953.63, 0.00431200
8969.13, 0.00472300
8984.67, 0.00523600
9000.27, 0.00626300
9015.92, 0.00739200
9031.63, 0.00841900
9047.39, 0.00944600
9063.21, 0.0106780
9079.08, 0.0123200
9095.01, 0.0136550
9111.0, 0.0152980
9127.04, 0.0174540
9143.13, 0.0195070
9159.28, 0.0218690
9175.49, 0.0244350
9191.76, 0.0273100
9208.09, 0.0301850
9224.47, 0.0331620
9240.92, 0.0364480
9257.42, 0.0397330
9273.98, 0.0430190
9290.6, 0.0464070
9307.28, 0.0501030
9324.02, 0.0542100
9340.82, 0.0581110
9357.68, 0.0620130
9374.6, 0.0660170
9391.58, 0.0694050
9408.62, 0.0726900
9425.73, 0.0763870
9442.9, 0.0797750
9460.13, 0.0832650
9477.42, 0.0864480
9494.78, 0.0899390
9512.2, 0.0930190
9529.69, 0.0956890
9547.24, 0.0981530
9564.86, 0.100309
9582.54, 0.101849
9600.28, 0.103184
9618.1, 0.104826
9635.97, 0.106264
9653.92, 0.106880
9671.93, 0.107804
9690.01, 0.108830
9708.16, 0.109754
9726.37, 0.110678
9744.65, 0.111500
9763.0, 0.112116
9781.43, 0.112834
9799.92, 0.113964
9818.48, 0.115607
9837.1, 0.116633
9855.8, 0.117455
9874.58, 0.117249
9893.42, 0.116223
9912.34, 0.114785
9931.33, 0.112526
9950.39, 0.110062
9969.52, 0.107598
9988.74, 0.104416
10008.0, 0.101438
10027.4, 0.0988710
10046.8, 0.0968180
10066.3, 0.0952780
10085.9, 0.0946620
10105.6, 0.0942510
10125.3, 0.0947650
10145.1, 0.0965100
10165.0, 0.0996930
10185.0, 0.104518
10205.0, 0.109960
10225.2, 0.115401
10245.4, 0.121253
10265.7, 0.125771
10286.0, 0.128543
10306.5, 0.131007
10327.0, 0.133369
10347.6, 0.135011
10368.3, 0.135935
10389.1, 0.136551
10409.9, 0.137167
10430.9, 0.137578
10451.9, 0.137783
10473.0, 0.137886
10494.2, 0.137989
10515.5, 0.137578
10536.9, 0.136654
10558.4, 0.135319
10579.9, 0.133163
10601.5, 0.130186
10623.3, 0.126592
10645.1, 0.122075
10667.0, 0.117352
10689.0, 0.113451
10711.1, 0.111602
10733.2, 0.111808
10755.5, 0.112937
10777.9, 0.114580
10800.3, 0.115915
10822.9, 0.116120
10845.5, 0.115607
10868.2, 0.114375
10891.1, 0.112629
10914.0, 0.111294
10937.0, 0.110473
10960.2, 0.110884
10983.4, 0.112937
11006.7, 0.115915
11030.1, 0.118995
11053.6, 0.121356
11077.3, 0.123102
11101.0, 0.123615
11124.8, 0.123102
11148.7, 0.122177
11172.7, 0.121253
11196.9, 0.120843
11221.1, 0.121972
11245.4, 0.124128
11269.9, 0.125771
11294.4, 0.127414
11319.1, 0.128851
11343.9, 0.129262
11368.8, 0.129467
11393.7, 0.129262
11418.8, 0.128440
11444.0, 0.126284
11469.4, 0.123615
11494.8, 0.120329
11520.3, 0.116736
11546.0, 0.113245
11571.8, 0.109960
11597.7, 0.106469
11623.7, 0.102567
11649.8, 0.0981530
11676.0, 0.0929160
11702.4, 0.0873720
11728.9, 0.0833680
11755.5, 0.0797750
11782.2, 0.0766950
11809.0, 0.0741280
11836.0, 0.0721770
11863.0, 0.0705340
11890.3, 0.0694050
11917.6, 0.0687890
11945.0, 0.0679680
11972.6, 0.0670440
12000.4, 0.0670440
12028.2, 0.0668380
12056.2, 0.0669410
12084.3, 0.0670440
12112.5, 0.0667360
12140.9, 0.0666330
12169.4, 0.0671460
12198.0, 0.0671460
12226.8, 0.0671460
12255.7, 0.0676600
12284.7, 0.0682760
12313.9, 0.0686860
12343.2, 0.0689940
12372.7, 0.0688920
12402.3, 0.0689940
12432.0, 0.0694050
12461.9, 0.0700210
12491.9, 0.0702260
12522.1, 0.0703290
12552.4, 0.0706370
12582.9, 0.0705340
12613.5, 0.0698160
12644.3, 0.0699180
12675.2, 0.0694050
12706.3, 0.0684810
12737.5, 0.0677620
12768.9, 0.0669410
12800.4, 0.0647850
12832.1, 0.0624230
12863.9, 0.0590350
12895.9, 0.0554420
12928.1, 0.0518480
12960.4, 0.0494870
12992.9, 0.0492820
13025.5, 0.0506160
13058.3, 0.0526700
13091.3, 0.0543130
13124.4, 0.0549290
13157.8, 0.0547230
13191.2, 0.0541070
13224.9, 0.0529780
13258.7, 0.0513350
13292.7, 0.0496920
13326.9, 0.0476390
13361.2, 0.0457910
13395.7, 0.0439430
13430.4, 0.0420950
13465.3, 0.0399390
13500.4, 0.0370640
13535.7, 0.0336760
13571.1, 0.0312120
13606.7, 0.0284400
13642.5, 0.0253600
13678.5, 0.0228950
13714.7, 0.0205340
13751.1, 0.0177620
13787.6, 0.0152980
13824.4, 0.0130390
13861.4, 0.0109860
13898.5, 0.00883000
13935.9, 0.00739200
13973.5, 0.00667400
14011.2, 0.00657100
14049.2, 0.00698200
14087.4, 0.00841900
14125.8, 0.00965100
14164.3, 0.00965100
14203.2, 0.00985600
14242.2, 0.00985600
14281.4, 0.00903500
14320.9, 0.00934300
14360.5, 0.0109860
14400.4, 0.0131420
14440.5, 0.0162220
14480.9, 0.0217660
14521.4, 0.0288500
14562.2, 0.0368590
14603.3, 0.0446620
14644.5, 0.0512320
14686.0, 0.0558530
14727.7, 0.0602670
14769.7, 0.0669410
14811.9, 0.0756680
14854.3, 0.0841900
14897.0, 0.0914790
14939.9, 0.0971260
14983.1, 0.102567
15026.5, 0.108214
15070.2, 0.112526
15114.2, 0.115812
15158.3, 0.118481
15202.8, 0.120227
15247.5, 0.122177
15292.5, 0.123923
15337.7, 0.124847
15383.2, 0.125874
15429.0, 0.126695
15475.1, 0.126387
15521.4, 0.126798
15568.0, 0.127414
15614.9, 0.127311
15662.1, 0.127619
15709.6, 0.129364
15757.3, 0.129775
15805.4, 0.129159
15853.7, 0.127722
15902.3, 0.127414
15951.2, 0.127208
16000.5, 0.126387
16050.0, 0.125668
16099.8, 0.125360
16150.0, 0.124847
16200.5, 0.123512
16251.3, 0.120227
16302.4, 0.113656
16353.8, 0.106366
16405.5, 0.0988710
16457.6, 0.0900420
16510.0, 0.0817250
16562.8, 0.0749490
16615.9, 0.0690970
16669.3, 0.0634500
16723.1, 0.0592410
16777.2, 0.0552370
16831.7, 0.0495900
16886.5, 0.0438400
16941.7, 0.0405550
16997.2, 0.0402470
17053.1, 0.0414790
17109.4, 0.0419920
17166.1, 0.0420950
17223.1, 0.0402470
17280.5, 0.0387070
17338.3, 0.0366530
17396.5, 0.0351130
17455.1, 0.0359350
17514.0, 0.0389120
17573.4, 0.0416840
17633.2, 0.0418890
17693.4, 0.0397330
17754.0, 0.0379880
17815.0, 0.0388090
17876.4, 0.0467150
17938.3, 0.0622180
18000.5, 0.0792610
18063.3, 0.0947650
18126.4, 0.105032
18190.0, 0.109960
18254.1, 0.111397
18318.6, 0.110678
18383.5, 0.107496
18449.0, 0.104210
18514.9, 0.101130
18581.2, 0.0955860
18648.0, 0.0890150
18715.4, 0.0839840
18783.2, 0.0822390
18851.5, 0.0822390
18920.3, 0.0824440
18989.6, 0.0798770
19059.4, 0.0758730
19129.7, 0.0716640
19200.6, 0.0686860
19272.0, 0.0661200
19343.9, 0.0660170
19416.3, 0.0689940
19489.3, 0.0716640
19562.8, 0.0713560
19637.0, 0.0721770
19711.6, 0.0743330
19786.8, 0.0798770
19862.6, 0.0876800
19939.0, 0.0946620
20016.0, 0.0992820
20093.6, 0.102773
20171.8, 0.102670
20250.6, 0.0989740
20330.0, 0.0925060
20410.0, 0.0903500
20490.7, 0.0933270
20572.0, 0.0994870
20654.0, 0.105956
20736.6, 0.105340
20819.9, 0.0969210
20903.8, 0.0876800
20988.5, 0.0803910
21073.8, 0.0722800
21159.8, 0.0726900
21246.5, 0.0918900
21334.0, 0.113245
21422.1, 0.125360
21511.0, 0.131931
21600.7, 0.136654
21691.0, 0.142095
21782.1, 0.149385
21874.0, 0.153389
21966.7, 0.151644
22060.2, 0.143944
22154.5, 0.138605
22249.6, 0.133471
22345.5, 0.129364
22442.2, 0.126798
22539.8, 0.123204
22638.2, 0.117865
22737.5, 0.114888
22837.7, 0.110884
22938.7, 0.102773
23040.7, 0.0938410
23143.5, 0.0943540
23247.3, 0.0947650
23352.1, 0.0907600
23457.7, 0.0841900
23564.4, 0.0791590
23672.0, 0.0802880
23780.5, 0.0877830
23890.1, 0.0902470
24000.7, 0.0902470
24112.3, 0.0934300
24225.0, 0.0945590
24338.7, 0.0852160
24453.5, 0.0770030
24569.4, 0.0661200
24686.4, 0.0605750
24804.5, 0.0591380
24923.8, 0.0612940
