Database of Origin, USGS Spectral Database
Sample Description, See USGS database for additional info
Date Added,2016-08-03 21:05:37.186726

Data ID,USGS_ber02          
Sample ID, beryl_gds9.3488
Mineral Name, beryl
Material Class,Cyclosilicate

Wavelength
1374.74, 0.676357
1375.11, 0.676667
1375.47, 0.677223
1375.84, 0.677099
1376.2, 0.677656
1376.57, 0.678460
1376.93, 0.678398
1377.3, 0.678027
1377.67, 0.677718
1378.03, 0.677780
1378.4, 0.678398
1378.76, 0.678460
1379.13, 0.677471
1379.5, 0.677347
1379.87, 0.676790
1380.23, 0.676172
1380.6, 0.676481
1380.97, 0.676790
1381.34, 0.675863
1381.7, 0.675553
1382.07, 0.674997
1382.44, 0.674007
1382.81, 0.673636
1383.18, 0.673512
1383.55, 0.672708
1383.92, 0.671162
1384.29, 0.669987
1384.66, 0.669121
1385.03, 0.668379
1385.4, 0.667637
1385.77, 0.667451
1386.14, 0.666833
1386.51, 0.665472
1386.88, 0.664545
1387.25, 0.663493
1387.62, 0.662875
1387.99, 0.662009
1388.36, 0.660710
1388.74, 0.659164
1389.11, 0.657865
1389.48, 0.656937
1389.85, 0.655577
1390.23, 0.653165
1390.6, 0.652299
1390.97, 0.651247
1391.35, 0.649639
1391.72, 0.647846
1392.09, 0.646423
1392.47, 0.644444
1392.84, 0.642465
1393.21, 0.640672
1393.59, 0.638631
1393.96, 0.636157
1394.34, 0.632879
1394.71, 0.628612
1395.09, 0.624530
1395.46, 0.620324
1395.84, 0.614325
1396.22, 0.607460
1396.59, 0.600224
1396.97, 0.591318
1397.35, 0.579691
1397.72, 0.565404
1398.1, 0.548334
1398.48, 0.527368
1398.85, 0.503372
1399.23, 0.479066
1399.61, 0.460697
1399.99, 0.454513
1400.37, 0.461007
1400.74, 0.476963
1401.12, 0.497744
1401.5, 0.519143
1401.88, 0.538624
1402.26, 0.554890
1402.64, 0.567631
1403.02, 0.577155
1403.4, 0.584020
1403.78, 0.589091
1404.16, 0.592679
1404.54, 0.595276
1404.92, 0.596822
1405.3, 0.597812
1405.68, 0.598492
1406.06, 0.598925
1406.44, 0.598492
1406.83, 0.597626
1407.21, 0.596266
1407.59, 0.593235
1407.97, 0.589153
1408.35, 0.584391
1408.74, 0.581237
1409.12, 0.581361
1409.5, 0.584082
1409.89, 0.587793
1410.27, 0.590328
1410.65, 0.591503
1411.04, 0.592060
1411.42, 0.592431
1411.81, 0.592617
1412.19, 0.592493
1412.58, 0.591874
1412.96, 0.590947
1413.35, 0.590452
1413.73, 0.590143
1414.12, 0.589772
1414.5, 0.590266
1414.89, 0.591503
1415.28, 0.593111
1415.66, 0.595338
1416.05, 0.597503
1416.44, 0.599358
1416.82, 0.600719
1417.21, 0.602327
1417.6, 0.603625
1417.98, 0.604429
1418.37, 0.604368
1418.76, 0.604368
1419.15, 0.604924
1419.54, 0.605419
1419.93, 0.605481
1420.32, 0.605666
1420.71, 0.606347
1421.09, 0.607522
1421.48, 0.608759
1421.88, 0.609563
1422.27, 0.610367
1422.66, 0.611542
1423.05, 0.612346
1423.44, 0.612964
1423.83, 0.613645
1424.22, 0.614078
1424.61, 0.614449
1425.0, 0.614758
1425.39, 0.614758
1425.78, 0.614696
1426.18, 0.614758
1426.57, 0.614820
1426.96, 0.614634
1427.36, 0.614387
1427.75, 0.614387
1428.14, 0.613954
1428.54, 0.613892
1428.93, 0.614139
1429.32, 0.614263
1429.72, 0.614387
1430.11, 0.614510
1430.51, 0.614696
1430.9, 0.614943
1431.3, 0.614758
1431.69, 0.614387
1432.09, 0.614016
1432.48, 0.613830
1432.88, 0.613830
1433.28, 0.614201
1433.67, 0.614634
1434.07, 0.615067
1434.46, 0.615376
1434.86, 0.615562
1435.26, 0.615500
1435.66, 0.615871
1436.05, 0.616242
1436.45, 0.616799
1436.85, 0.616861
1437.25, 0.616613
1437.65, 0.616366
1438.05, 0.616922
1438.44, 0.617294
1438.84, 0.617108
1439.24, 0.617046
1439.64, 0.617541
1440.04, 0.617912
1440.44, 0.617850
1440.84, 0.617727
1441.24, 0.617232
1441.65, 0.617479
1442.05, 0.617727
1442.45, 0.617294
1442.85, 0.617046
1443.25, 0.617541
1443.65, 0.618098
1444.05, 0.618531
1444.46, 0.619273
1444.86, 0.619829
1445.26, 0.619644
1445.67, 0.619520
1446.07, 0.619891
1446.47, 0.620262
1446.88, 0.619953
1447.28, 0.620448
1447.68, 0.620819
1448.09, 0.620448
1448.49, 0.620386
1448.9, 0.620695
1449.3, 0.620943
1449.71, 0.620819
1450.11, 0.620633
1450.52, 0.620510
1450.93, 0.621190
1451.33, 0.621437
1451.74, 0.620819
1452.14, 0.620633
1452.55, 0.620448
1452.96, 0.620695
1453.36, 0.620510
1453.77, 0.620015
1454.18, 0.619706
1454.59, 0.619706
1455.0, 0.619706
1455.41, 0.619334
1455.81, 0.618902
1456.22, 0.618531
1456.63, 0.618036
1457.04, 0.617294
1457.45, 0.617108
1457.86, 0.616861
1458.27, 0.616551
1458.68, 0.616304
1459.09, 0.615686
1459.5, 0.614758
1459.91, 0.614263
1460.32, 0.613645
1460.74, 0.612841
1461.15, 0.612098
1461.56, 0.611356
1461.97, 0.610429
1462.39, 0.609563
1462.8, 0.608697
1463.21, 0.607645
1463.62, 0.606037
1464.04, 0.603935
1464.45, 0.602017
1464.86, 0.599420
1465.28, 0.597131
1465.69, 0.594781
1466.11, 0.593173
1466.52, 0.592864
1466.94, 0.593668
1467.35, 0.595276
1467.77, 0.598183
1468.18, 0.601090
1468.6, 0.603873
1469.02, 0.607089
1469.43, 0.609192
1469.85, 0.610738
1470.27, 0.612346
1470.68, 0.613335
1471.1, 0.614139
1471.52, 0.615067
1471.94, 0.615871
1472.35, 0.616242
1472.77, 0.616551
1473.19, 0.617232
1473.61, 0.617603
1474.03, 0.617417
1474.45, 0.617788
1474.87, 0.618159
1475.29, 0.618345
1475.71, 0.618283
1476.13, 0.618407
1476.55, 0.618902
1476.97, 0.619582
1477.39, 0.619458
1477.81, 0.619273
1478.23, 0.619767
1478.65, 0.620077
1479.07, 0.619891
1479.5, 0.619767
1479.92, 0.620077
1480.34, 0.620510
1480.76, 0.620943
1481.19, 0.621375
1481.61, 0.621499
1482.03, 0.621375
1482.46, 0.621128
1482.88, 0.620757
1483.31, 0.620943
1483.73, 0.621375
1484.16, 0.621623
1484.58, 0.621685
1485.01, 0.621499
1485.43, 0.621561
1485.86, 0.622241
1486.28, 0.622427
1486.71, 0.622674
1487.14, 0.622427
1487.56, 0.622303
1487.99, 0.622550
1488.42, 0.622860
1488.84, 0.622983
1489.27, 0.623169
1489.7, 0.623169
1490.13, 0.623354
1490.56, 0.623726
1490.98, 0.623973
1491.41, 0.623664
1491.84, 0.623664
1492.27, 0.623726
1492.7, 0.623911
1493.13, 0.623849
1493.56, 0.623726
1493.99, 0.623726
1494.42, 0.623973
1494.85, 0.623973
1495.29, 0.624406
1495.72, 0.624777
1496.15, 0.624715
1496.58, 0.624653
1497.01, 0.624963
1497.44, 0.624653
1497.88, 0.624715
1498.31, 0.625210
1498.74, 0.625519
1499.18, 0.625828
1499.61, 0.626076
1500.04, 0.626076
1500.48, 0.625890
1500.91, 0.625705
1501.35, 0.625519
1501.78, 0.625767
1502.22, 0.626261
1502.65, 0.626261
1503.09, 0.626385
1503.53, 0.626447
1503.96, 0.626571
1504.4, 0.626323
1504.83, 0.626447
1505.27, 0.627189
1505.71, 0.627746
1506.15, 0.627622
1506.58, 0.627127
1507.02, 0.627065
1507.46, 0.627684
1507.9, 0.627622
1508.34, 0.627313
1508.78, 0.627622
1509.21, 0.627622
1509.66, 0.627684
1510.09, 0.627869
1510.53, 0.628426
1510.97, 0.628797
1511.42, 0.628673
1511.86, 0.628797
1512.3, 0.629044
1512.74, 0.629292
1513.18, 0.629477
1513.62, 0.629354
1514.06, 0.629168
1514.51, 0.629354
1514.95, 0.629539
1515.39, 0.629601
1515.83, 0.629910
1516.28, 0.630096
1516.72, 0.630096
1517.16, 0.630343
1517.61, 0.630467
1518.05, 0.630220
1518.5, 0.630776
1518.94, 0.631271
1519.39, 0.631209
1519.83, 0.630900
1520.28, 0.631271
1520.73, 0.631518
1521.17, 0.631580
1521.62, 0.631642
1522.07, 0.631889
1522.51, 0.632137
1522.96, 0.632137
1523.41, 0.632446
1523.85, 0.632570
1524.3, 0.632508
1524.75, 0.632446
1525.2, 0.632508
1525.65, 0.632632
1526.1, 0.633065
1526.55, 0.632879
1527.0, 0.633250
1527.45, 0.633250
1527.9, 0.633621
1528.35, 0.633807
1528.8, 0.633869
1529.25, 0.634054
1529.7, 0.633930
1530.15, 0.633807
1530.6, 0.633930
1531.05, 0.634487
1531.51, 0.634796
1531.96, 0.635044
1532.41, 0.635105
1532.87, 0.635105
1533.32, 0.635291
1533.77, 0.635353
1534.23, 0.635291
1534.68, 0.635353
1535.14, 0.635662
1535.59, 0.635971
1536.05, 0.636033
1536.5, 0.635971
1536.96, 0.635971
1537.41, 0.635909
1537.87, 0.636281
1538.32, 0.636837
1538.78, 0.637146
1539.24, 0.637270
1539.7, 0.636899
1540.15, 0.636899
1540.61, 0.637579
1541.07, 0.638012
1541.53, 0.638383
1541.98, 0.638507
1542.44, 0.638569
1542.9, 0.638693
1543.36, 0.638754
1543.82, 0.639002
1544.28, 0.639002
1544.74, 0.639126
1545.2, 0.639497
1545.66, 0.639558
1546.12, 0.639682
1546.59, 0.639744
1547.05, 0.639991
1547.51, 0.640610
1547.97, 0.641228
1548.43, 0.641352
1548.9, 0.641290
1549.36, 0.641414
1549.82, 0.641414
1550.29, 0.641785
1550.75, 0.641785
1551.21, 0.642280
1551.68, 0.642403
1552.14, 0.642527
1552.61, 0.642836
1553.07, 0.643084
1553.54, 0.643207
1554.0, 0.643331
1554.47, 0.643517
1554.93, 0.643888
1555.4, 0.644011
1555.87, 0.644135
1556.34, 0.644382
1556.8, 0.644692
1557.27, 0.645125
1557.74, 0.645186
1558.21, 0.645186
1558.68, 0.645248
1559.14, 0.645743
1559.61, 0.645805
1560.08, 0.645619
1560.55, 0.645867
1561.02, 0.646238
1561.49, 0.646733
1561.96, 0.647104
1562.43, 0.647042
1562.9, 0.647166
1563.38, 0.647289
1563.85, 0.647537
1564.32, 0.647846
1564.79, 0.648217
1565.26, 0.648279
1565.74, 0.648217
1566.21, 0.648464
1566.68, 0.648464
1567.16, 0.648774
1567.63, 0.649021
1568.1, 0.649083
1568.58, 0.648959
1569.05, 0.649454
1569.53, 0.649701
1570.0, 0.649516
1570.48, 0.649825
1570.96, 0.650134
1571.43, 0.650320
1571.91, 0.650753
1572.39, 0.651000
1572.86, 0.651124
1573.34, 0.651000
1573.82, 0.651062
1574.3, 0.651371
1574.77, 0.651309
1575.25, 0.651495
1575.73, 0.651804
1576.21, 0.652175
1576.69, 0.652361
1577.17, 0.652608
1577.65, 0.652979
1578.13, 0.652917
1578.61, 0.652546
1579.09, 0.652608
1579.57, 0.652979
1580.05, 0.653103
1580.54, 0.653288
1581.02, 0.653288
1581.5, 0.653474
1581.98, 0.653783
1582.47, 0.653845
1582.95, 0.654154
1583.43, 0.654216
1583.92, 0.654278
1584.4, 0.654216
1584.88, 0.654216
1585.37, 0.654773
1585.85, 0.655082
1586.34, 0.655020
1586.82, 0.655020
1587.31, 0.655453
1587.8, 0.655762
1588.28, 0.655824
1588.77, 0.656071
1589.26, 0.656010
1589.74, 0.655948
1590.23, 0.655886
1590.72, 0.656071
1591.21, 0.656690
1591.7, 0.656999
1592.19, 0.657185
1592.67, 0.657308
1593.16, 0.657370
1593.65, 0.657556
1594.14, 0.657741
1594.63, 0.658051
1595.12, 0.658236
1595.61, 0.658236
1596.11, 0.658236
1596.6, 0.658422
1597.09, 0.658793
1597.58, 0.658855
1598.08, 0.659102
1598.57, 0.659535
1599.06, 0.659906
1599.55, 0.659906
1600.05, 0.660215
1600.54, 0.660153
1601.04, 0.660463
1601.53, 0.660710
1602.03, 0.661081
1602.52, 0.661143
1603.02, 0.661019
1603.51, 0.661143
1604.01, 0.661452
1604.5, 0.661700
1605.0, 0.661885
1605.5, 0.662133
1606.0, 0.662627
1606.49, 0.662813
1606.99, 0.662751
1607.49, 0.662627
1607.99, 0.662998
1608.49, 0.663369
1608.99, 0.663802
1609.49, 0.663988
1609.99, 0.664112
1610.49, 0.664421
1610.99, 0.664545
1611.49, 0.664545
1611.99, 0.664668
1612.49, 0.664916
1612.99, 0.664977
1613.49, 0.665287
1614.0, 0.665349
1614.5, 0.665349
1615.0, 0.665967
1615.51, 0.666338
1616.01, 0.666771
1616.51, 0.666586
1617.02, 0.666957
1617.52, 0.667451
1618.03, 0.667575
1618.53, 0.667575
1619.04, 0.667884
1619.54, 0.667884
1620.05, 0.668008
1620.55, 0.668317
1621.06, 0.668688
1621.57, 0.668997
1622.08, 0.668874
1622.58, 0.668812
1623.09, 0.669121
1623.6, 0.669554
1624.11, 0.669863
1624.62, 0.669678
1625.13, 0.669802
1625.64, 0.670111
1626.15, 0.670296
1626.66, 0.670482
1627.17, 0.670853
1627.68, 0.670915
1628.19, 0.671224
1628.7, 0.671410
1629.21, 0.671595
1629.72, 0.671904
1630.24, 0.671904
1630.75, 0.672214
1631.26, 0.672152
1631.78, 0.672275
1632.29, 0.672028
1632.8, 0.672337
1633.32, 0.672894
1633.83, 0.672956
1634.35, 0.673018
1634.86, 0.673389
1635.38, 0.673760
1635.9, 0.673512
1636.41, 0.673636
1636.93, 0.673574
1637.45, 0.673945
1637.96, 0.674255
1638.48, 0.674626
1639.0, 0.674564
1639.52, 0.674502
1640.04, 0.674749
1640.56, 0.674626
1641.08, 0.674749
1641.59, 0.675120
1642.11, 0.675368
1642.63, 0.675615
1643.16, 0.675677
1643.68, 0.675430
1644.2, 0.675553
1644.72, 0.675986
1645.24, 0.676172
1645.76, 0.675924
1646.29, 0.675986
1646.81, 0.676110
1647.33, 0.676481
1647.86, 0.676728
1648.38, 0.676790
1648.9, 0.676914
1649.43, 0.676976
1649.95, 0.677038
1650.48, 0.677161
1651.0, 0.677409
1651.53, 0.677656
1652.06, 0.677718
1652.58, 0.677594
1653.11, 0.677780
1653.64, 0.678089
1654.17, 0.678213
1654.69, 0.678027
1655.22, 0.678398
1655.75, 0.678831
1656.28, 0.678831
1656.81, 0.678831
1657.34, 0.679017
1657.87, 0.679079
1658.4, 0.679079
1658.93, 0.679202
1659.46, 0.679573
1659.99, 0.679697
1660.52, 0.679821
1661.05, 0.680006
1661.59, 0.680006
1662.12, 0.680254
1662.65, 0.680625
1663.19, 0.680810
1663.72, 0.681058
1664.26, 0.680872
1664.79, 0.680996
1665.32, 0.681305
1665.86, 0.681243
1666.39, 0.681367
1666.93, 0.681738
1667.47, 0.681676
1668.0, 0.681552
1668.54, 0.681676
1669.08, 0.681924
1669.61, 0.682047
1670.15, 0.682295
1670.69, 0.682789
1671.23, 0.683099
1671.77, 0.683346
1672.31, 0.683408
1672.85, 0.683717
1673.39, 0.683964
1673.93, 0.683903
1674.47, 0.683841
1675.01, 0.683717
1675.55, 0.683964
1676.09, 0.684336
1676.64, 0.684459
1677.18, 0.684707
1677.72, 0.684768
1678.26, 0.684954
1678.81, 0.684830
1679.35, 0.685078
1679.89, 0.685140
1680.44, 0.685201
1680.98, 0.685263
1681.53, 0.685634
1682.07, 0.686500
1682.62, 0.686377
1683.17, 0.686253
1683.71, 0.686438
1684.26, 0.686438
1684.81, 0.686624
1685.36, 0.686933
1685.9, 0.687304
1686.45, 0.687428
1687.0, 0.687552
1687.55, 0.687552
1688.1, 0.687675
1688.65, 0.687923
1689.2, 0.687985
1689.75, 0.688046
1690.3, 0.688170
1690.85, 0.688417
1691.41, 0.688541
1691.96, 0.688727
1692.51, 0.689036
1693.06, 0.689283
1693.61, 0.689654
1694.17, 0.689407
1694.72, 0.689345
1695.28, 0.689593
1695.83, 0.689531
1696.39, 0.689593
1696.94, 0.689964
1697.5, 0.690149
1698.05, 0.690211
1698.61, 0.690335
1699.17, 0.690335
1699.72, 0.690582
1700.28, 0.690768
1700.84, 0.690891
1701.4, 0.691200
1701.95, 0.690891
1702.51, 0.690768
1703.07, 0.691200
1703.63, 0.691262
1704.19, 0.691633
1704.75, 0.691695
1705.31, 0.691572
1705.88, 0.691572
1706.44, 0.691757
1707.0, 0.691881
1707.56, 0.692005
1708.12, 0.691819
1708.69, 0.691881
1709.25, 0.692066
1709.81, 0.692376
1710.38, 0.692437
1710.94, 0.692499
1711.51, 0.692685
1712.07, 0.692561
1712.64, 0.692747
1713.2, 0.692809
1713.77, 0.692932
1714.34, 0.692870
1714.9, 0.692870
1715.47, 0.693118
1716.04, 0.693180
1716.61, 0.693365
1717.18, 0.693427
1717.74, 0.693551
1718.31, 0.693613
1718.88, 0.693427
1719.45, 0.693427
1720.02, 0.693427
1720.59, 0.693551
1721.17, 0.693427
1721.74, 0.693674
1722.31, 0.693922
1722.88, 0.693860
1723.45, 0.693922
1724.03, 0.694045
1724.6, 0.694045
1725.18, 0.693922
1725.75, 0.693922
1726.33, 0.694355
1726.9, 0.694478
1727.48, 0.694540
1728.05, 0.694355
1728.63, 0.694602
1729.2, 0.694788
1729.78, 0.694973
1730.36, 0.695282
1730.94, 0.694973
1731.51, 0.694726
1732.09, 0.694726
1732.67, 0.694911
1733.25, 0.695159
1733.83, 0.695221
1734.41, 0.695406
1734.99, 0.695592
1735.57, 0.695468
1736.15, 0.695282
1736.73, 0.695468
1737.32, 0.695654
1737.9, 0.695715
1738.48, 0.695839
1739.07, 0.695963
1739.65, 0.696210
1740.23, 0.696148
1740.82, 0.696210
1741.4, 0.696210
1741.99, 0.696148
1742.57, 0.696210
1743.16, 0.696334
1743.74, 0.696334
1744.33, 0.696396
1744.92, 0.696519
1745.51, 0.696705
1746.09, 0.696829
1746.68, 0.696952
1747.27, 0.696952
1747.86, 0.697138
1748.45, 0.697138
1749.04, 0.696952
1749.63, 0.697076
1750.22, 0.697385
1750.81, 0.697509
1751.4, 0.697571
1751.99, 0.697509
1752.59, 0.697756
1753.18, 0.697695
1753.77, 0.697633
1754.37, 0.697695
1754.96, 0.697633
1755.56, 0.697695
1756.15, 0.697880
1756.74, 0.697695
1757.34, 0.697509
1757.94, 0.697942
1758.53, 0.698251
1759.13, 0.697942
1759.73, 0.697756
1760.32, 0.698066
1760.92, 0.698004
1761.52, 0.697880
1762.12, 0.697942
1762.72, 0.697942
1763.32, 0.697880
1763.92, 0.697695
1764.52, 0.697695
1765.12, 0.697633
1765.72, 0.697756
1766.32, 0.697571
1766.92, 0.697262
1767.53, 0.697262
1768.13, 0.697200
1768.73, 0.697323
1769.34, 0.697262
1769.94, 0.696890
1770.55, 0.696643
1771.15, 0.696829
1771.76, 0.696890
1772.36, 0.696643
1772.97, 0.696272
1773.57, 0.696148
1774.18, 0.695963
1774.79, 0.695715
1775.4, 0.695282
1776.0, 0.695097
1776.61, 0.695097
1777.22, 0.694973
1777.83, 0.694664
1778.44, 0.694540
1779.05, 0.694293
1779.66, 0.693984
1780.27, 0.693613
1780.88, 0.693303
1781.5, 0.693242
1782.11, 0.693118
1782.72, 0.692870
1783.33, 0.692314
1783.95, 0.691757
1784.56, 0.691510
1785.18, 0.691324
1785.79, 0.690953
1786.41, 0.690768
1787.02, 0.690458
1787.64, 0.689964
1788.26, 0.689654
1788.87, 0.689840
1789.49, 0.689840
1790.11, 0.689531
1790.73, 0.689036
1791.35, 0.688974
1791.96, 0.688727
1792.58, 0.688541
1793.21, 0.688356
1793.83, 0.688479
1794.45, 0.688356
1795.07, 0.687861
1795.69, 0.687985
1796.31, 0.688108
1796.93, 0.687737
1797.56, 0.687861
1798.18, 0.687985
1798.8, 0.687737
1799.43, 0.687799
1800.05, 0.687490
1800.68, 0.687428
1801.3, 0.687242
1801.93, 0.686871
1802.56, 0.686809
1803.18, 0.686500
1803.81, 0.686067
1804.44, 0.685449
1805.07, 0.684768
1805.7, 0.684150
1806.33, 0.683655
1806.95, 0.683222
1807.58, 0.682542
1808.22, 0.681924
1808.85, 0.681367
1809.48, 0.680501
1810.11, 0.679697
1810.74, 0.678646
1811.38, 0.677780
1812.01, 0.676852
1812.64, 0.675553
1813.28, 0.674316
1813.91, 0.673018
1814.55, 0.671533
1815.18, 0.669925
1815.82, 0.668441
1816.45, 0.666771
1817.09, 0.664916
1817.73, 0.662689
1818.36, 0.660586
1819.0, 0.658545
1819.64, 0.656319
1820.28, 0.654402
1820.92, 0.652856
1821.56, 0.651124
1822.2, 0.649578
1822.84, 0.647908
1823.48, 0.646547
1824.12, 0.645186
1824.76, 0.643826
1825.41, 0.642589
1826.05, 0.641970
1826.69, 0.641290
1827.34, 0.640301
1827.98, 0.639497
1828.63, 0.639187
1829.27, 0.638693
1829.92, 0.638198
1830.56, 0.637827
1831.21, 0.637394
1831.86, 0.636714
1832.5, 0.636219
1833.15, 0.635909
1833.8, 0.635600
1834.45, 0.635353
1835.1, 0.635229
1835.75, 0.634920
1836.4, 0.634611
1837.05, 0.634301
1837.7, 0.634178
1838.35, 0.634425
1839.01, 0.634301
1839.66, 0.634425
1840.31, 0.634673
1840.96, 0.634796
1841.62, 0.635229
1842.27, 0.635848
1842.93, 0.635971
1843.58, 0.636281
1844.24, 0.637023
1844.9, 0.637703
1845.55, 0.638383
1846.21, 0.639064
1846.87, 0.639558
1847.53, 0.640301
1848.18, 0.641043
1848.84, 0.641785
1849.5, 0.642280
1850.16, 0.642960
1850.82, 0.643578
1851.48, 0.644073
1852.14, 0.644692
1852.81, 0.645125
1853.47, 0.645743
1854.13, 0.646423
1854.8, 0.646733
1855.46, 0.646794
1856.12, 0.647042
1856.79, 0.647227
1857.45, 0.647289
1858.12, 0.647227
1858.79, 0.646980
1859.45, 0.647042
1860.12, 0.646980
1860.79, 0.646485
1861.46, 0.646300
1862.12, 0.646362
1862.79, 0.645990
1863.46, 0.645186
1864.13, 0.644692
1864.8, 0.644382
1865.48, 0.644073
1866.15, 0.643146
1866.82, 0.642465
1867.49, 0.642094
1868.16, 0.641599
1868.84, 0.640857
1869.51, 0.640115
1870.19, 0.639249
1870.86, 0.638631
1871.54, 0.638198
1872.21, 0.636961
1872.89, 0.636033
1873.56, 0.635353
1874.24, 0.634363
1874.92, 0.633250
1875.6, 0.631951
1876.28, 0.630962
1876.96, 0.629972
1877.64, 0.628426
1878.32, 0.626694
1879.0, 0.624839
1879.68, 0.623169
1880.36, 0.621252
1881.04, 0.618902
1881.73, 0.616118
1882.41, 0.613088
1883.09, 0.609625
1883.78, 0.605543
1884.46, 0.601152
1885.15, 0.595956
1885.83, 0.590205
1886.52, 0.583463
1887.21, 0.575547
1887.89, 0.566517
1888.58, 0.556065
1889.27, 0.544129
1889.96, 0.530151
1890.65, 0.513267
1891.34, 0.493352
1892.03, 0.469603
1892.72, 0.442081
1893.41, 0.411653
1894.1, 0.381348
1894.79, 0.357970
1895.49, 0.350486
1896.18, 0.362361
1896.87, 0.387780
1897.57, 0.417652
1898.26, 0.445607
1898.96, 0.469789
1899.65, 0.490260
1900.35, 0.507392
1901.05, 0.522049
1901.74, 0.534666
1902.44, 0.545984
1903.14, 0.556745
1903.84, 0.566455
1904.54, 0.574990
1905.24, 0.582969
1905.94, 0.590019
1906.64, 0.596080
1907.34, 0.601523
1908.04, 0.606223
1908.75, 0.610738
1909.45, 0.614882
1910.15, 0.618407
1910.86, 0.621499
1911.56, 0.624406
1912.27, 0.627065
1912.97, 0.629292
1913.68, 0.631580
1914.39, 0.633250
1915.09, 0.634858
1915.8, 0.636775
1916.51, 0.638198
1917.22, 0.639126
1917.93, 0.639682
1918.64, 0.639930
1919.35, 0.640053
1920.06, 0.640424
1920.77, 0.641105
1921.48, 0.642156
1922.19, 0.643393
1922.91, 0.644568
1923.62, 0.645743
1924.33, 0.646671
1925.05, 0.647351
1925.76, 0.647475
1926.48, 0.647351
1927.19, 0.648279
1927.91, 0.649763
1928.63, 0.651495
1929.35, 0.653165
1930.07, 0.654402
1930.78, 0.655268
1931.5, 0.655948
1932.22, 0.656814
1932.94, 0.657680
1933.66, 0.658484
1934.39, 0.659040
1935.11, 0.659349
1935.83, 0.660153
1936.55, 0.660834
1937.28, 0.660957
1938.0, 0.661452
1938.73, 0.661638
1939.45, 0.661823
1940.18, 0.661885
1940.9, 0.662009
1941.63, 0.662133
1942.36, 0.662318
1943.09, 0.662256
1943.81, 0.662194
1944.54, 0.662133
1945.27, 0.662256
1946.0, 0.662133
1946.73, 0.662071
1947.47, 0.661885
1948.2, 0.661514
1948.93, 0.661452
1949.66, 0.661761
1950.4, 0.661947
1951.13, 0.662133
1951.86, 0.662504
1952.6, 0.662813
1953.34, 0.662998
1954.07, 0.663122
1954.81, 0.663369
1955.55, 0.663679
1956.29, 0.663926
1957.02, 0.664359
1957.76, 0.664668
1958.5, 0.664977
1959.24, 0.665039
1959.98, 0.665101
1960.72, 0.665596
1961.47, 0.666276
1962.21, 0.666833
1962.95, 0.667390
1963.7, 0.667575
1964.44, 0.668132
1965.18, 0.668812
1965.93, 0.669245
1966.67, 0.669802
1967.42, 0.670482
1968.17, 0.670729
1968.92, 0.671286
1969.66, 0.671781
1970.41, 0.672585
1971.16, 0.673451
1971.91, 0.674069
1972.66, 0.674749
1973.41, 0.675492
1974.16, 0.676667
1974.92, 0.677780
1975.67, 0.678769
1976.42, 0.679697
1977.18, 0.680748
1977.93, 0.681924
1978.69, 0.683099
1979.44, 0.683903
1980.2, 0.684954
1980.95, 0.686129
1981.71, 0.686809
1982.47, 0.687861
1983.23, 0.688850
1983.99, 0.689593
1984.74, 0.690520
1985.51, 0.691200
1986.27, 0.691819
1987.03, 0.692376
1987.79, 0.693118
1988.55, 0.694045
1989.32, 0.694478
1990.08, 0.694911
1990.84, 0.695159
1991.61, 0.695221
1992.37, 0.695839
1993.14, 0.696086
1993.9, 0.696334
1994.67, 0.696581
1995.44, 0.697076
1996.21, 0.697323
1996.98, 0.697633
1997.75, 0.697880
1998.52, 0.698127
1999.29, 0.698251
2000.06, 0.698313
2000.83, 0.698622
2001.6, 0.698684
2002.38, 0.698931
2003.15, 0.699179
2003.93, 0.699055
2004.7, 0.698993
2005.48, 0.699364
2006.25, 0.699364
2007.03, 0.699179
2007.81, 0.699302
2008.58, 0.699612
2009.36, 0.699797
2010.14, 0.699859
2010.92, 0.699921
2011.7, 0.700168
2012.48, 0.700478
2013.26, 0.700601
2014.05, 0.700416
2014.83, 0.700539
2015.61, 0.700539
2016.4, 0.700601
2017.18, 0.700849
2017.97, 0.700787
2018.75, 0.700849
2019.54, 0.700849
2020.32, 0.701096
2021.11, 0.701220
2021.9, 0.701405
2022.69, 0.701715
2023.48, 0.701838
2024.27, 0.701715
2025.06, 0.701962
2025.85, 0.702147
2026.64, 0.702209
2027.44, 0.702209
2028.23, 0.702395
2029.02, 0.702642
2029.82, 0.702704
2030.61, 0.702642
2031.41, 0.702518
2032.2, 0.702642
2033.0, 0.703013
2033.8, 0.703013
2034.6, 0.702890
2035.4, 0.702951
2036.2, 0.702890
2037.0, 0.703199
2037.8, 0.703323
2038.6, 0.703261
2039.4, 0.703323
2040.2, 0.703384
2041.01, 0.703137
2041.81, 0.702890
2042.61, 0.703013
2043.42, 0.702766
2044.22, 0.702518
2045.03, 0.702024
2045.84, 0.701467
2046.65, 0.700663
2047.46, 0.699983
2048.26, 0.699735
2049.07, 0.699302
2049.88, 0.698870
2050.69, 0.698746
2051.51, 0.698684
2052.32, 0.698808
2053.13, 0.699117
2053.94, 0.698993
2054.76, 0.698993
2055.57, 0.699302
2056.39, 0.699364
2057.2, 0.699302
2058.02, 0.699612
2058.84, 0.699859
2059.66, 0.699921
2060.48, 0.700107
2061.29, 0.700045
2062.11, 0.700168
2062.94, 0.700292
2063.76, 0.700292
2064.58, 0.700230
2065.4, 0.700354
2066.22, 0.700354
2067.05, 0.700539
2067.87, 0.700416
2068.7, 0.700354
2069.52, 0.700478
2070.35, 0.700478
2071.18, 0.700478
2072.0, 0.700416
2072.83, 0.700539
2073.66, 0.700478
2074.49, 0.700168
2075.32, 0.700168
2076.15, 0.700107
2076.98, 0.700045
2077.82, 0.700045
2078.65, 0.699488
2079.48, 0.699302
2080.32, 0.699179
2081.15, 0.698870
2081.99, 0.698560
2082.83, 0.698560
2083.66, 0.698746
2084.5, 0.698993
2085.34, 0.699241
2086.18, 0.699364
2087.02, 0.699550
2087.86, 0.699674
2088.7, 0.699921
2089.54, 0.699921
2090.39, 0.700107
2091.23, 0.700292
2092.07, 0.700416
2092.92, 0.700601
2093.76, 0.700849
2094.61, 0.700972
2095.45, 0.700911
2096.3, 0.701096
2097.15, 0.701282
2098.0, 0.701405
2098.85, 0.701529
2099.7, 0.701405
2100.55, 0.701715
2101.4, 0.701776
2102.25, 0.701776
2103.1, 0.701776
2103.96, 0.701838
2104.81, 0.701838
2105.67, 0.701838
2106.52, 0.701776
2107.38, 0.701838
2108.24, 0.701715
2109.09, 0.701776
2109.95, 0.701715
2110.81, 0.701776
2111.67, 0.701838
2112.53, 0.702147
2113.39, 0.702395
2114.25, 0.702209
2115.12, 0.702086
2115.98, 0.702209
2116.84, 0.702271
2117.71, 0.702271
2118.58, 0.702518
2119.44, 0.702580
2120.31, 0.702518
2121.18, 0.702642
2122.04, 0.702580
2122.91, 0.702580
2123.78, 0.702828
2124.65, 0.703075
2125.52, 0.703075
2126.4, 0.702766
2127.27, 0.702704
2128.14, 0.702580
2129.02, 0.702642
2129.89, 0.702642
2130.77, 0.702518
2131.64, 0.702704
2132.52, 0.702642
2133.4, 0.702518
2134.27, 0.702395
2135.15, 0.702395
2136.03, 0.702209
2136.91, 0.702024
2137.79, 0.701776
2138.68, 0.701529
2139.56, 0.701158
2140.44, 0.700663
2141.33, 0.700107
2142.21, 0.699612
2143.1, 0.698870
2143.99, 0.698437
2144.87, 0.697756
2145.76, 0.697014
2146.65, 0.696519
2147.54, 0.696396
2148.43, 0.696334
2149.32, 0.696210
2150.21, 0.696086
2151.1, 0.696086
2151.99, 0.696210
2152.89, 0.696643
2153.78, 0.697076
2154.68, 0.697509
2155.57, 0.697880
2156.47, 0.698499
2157.37, 0.698931
2158.27, 0.699241
2159.16, 0.699426
2160.06, 0.699735
2160.96, 0.700168
2161.86, 0.700416
2162.77, 0.700663
2163.67, 0.700911
2164.57, 0.701034
2165.48, 0.701034
2166.38, 0.701096
2167.29, 0.701156
2168.2, 0.700735
2169.1, 0.700554
2170.01, 0.701277
2170.92, 0.701457
2171.83, 0.701217
2172.74, 0.701156
2173.65, 0.700976
2174.56, 0.701156
2175.47, 0.701096
2176.39, 0.700915
2177.3, 0.701036
2178.22, 0.701036
2179.13, 0.700675
2180.05, 0.700072
2180.96, 0.700494
2181.88, 0.700614
2182.8, 0.700193
2183.72, 0.699892
2184.64, 0.700133
2185.56, 0.700253
2186.48, 0.699771
2187.41, 0.699832
2188.33, 0.699530
2189.25, 0.698928
2190.18, 0.698748
2191.1, 0.698567
2192.03, 0.697905
2192.96, 0.697483
2193.89, 0.697664
2194.82, 0.697724
2195.74, 0.697302
2196.68, 0.697122
2197.61, 0.696219
2198.54, 0.695978
2199.47, 0.695797
2200.4, 0.695917
2201.34, 0.696158
2202.28, 0.696640
2203.21, 0.696761
2204.15, 0.697001
2205.08, 0.696821
2206.02, 0.697062
2206.96, 0.697664
2207.9, 0.698025
2208.84, 0.697965
2209.78, 0.698386
2210.73, 0.699109
2211.67, 0.699169
2212.61, 0.698988
2213.56, 0.699049
2214.5, 0.699350
2215.45, 0.700012
2216.4, 0.700072
2217.35, 0.700072
2218.3, 0.700253
2219.24, 0.700434
2220.2, 0.700253
2221.15, 0.699711
2222.1, 0.700193
2223.05, 0.700373
2224.0, 0.700253
2224.96, 0.699952
2225.91, 0.700193
2226.87, 0.700373
2227.83, 0.700313
2228.79, 0.700976
2229.74, 0.701337
2230.7, 0.701217
2231.66, 0.701096
2232.63, 0.700795
2233.59, 0.700554
2234.55, 0.700735
2235.51, 0.700735
2236.48, 0.700434
2237.44, 0.700735
2238.41, 0.701156
2239.38, 0.700675
2240.34, 0.700193
2241.31, 0.699952
2242.28, 0.699771
2243.25, 0.700072
2244.22, 0.700072
2245.19, 0.700072
2246.17, 0.699832
2247.14, 0.699711
2248.12, 0.699530
2249.09, 0.699350
2250.07, 0.698868
2251.04, 0.698808
2252.02, 0.699109
2253.0, 0.699290
2253.98, 0.699109
2254.96, 0.698206
2255.94, 0.698627
2256.92, 0.698687
2257.91, 0.698386
2258.89, 0.697965
2259.88, 0.697844
2260.86, 0.697844
2261.85, 0.697905
2262.83, 0.697664
2263.82, 0.697664
2264.81, 0.697302
2265.8, 0.697182
2266.79, 0.697182
2267.78, 0.697182
2268.78, 0.696761
2269.77, 0.696640
2270.76, 0.696520
2271.76, 0.696399
2272.75, 0.696339
2273.75, 0.695677
2274.75, 0.695315
2275.75, 0.695436
2276.75, 0.695195
2277.75, 0.694773
2278.75, 0.694472
2279.75, 0.694111
2280.75, 0.693569
2281.76, 0.693569
2282.76, 0.693629
2283.77, 0.693449
2284.77, 0.693087
2285.78, 0.692967
2286.79, 0.692786
2287.8, 0.692786
2288.81, 0.692545
2289.82, 0.692365
2290.83, 0.691943
2291.84, 0.691221
2292.86, 0.690920
2293.87, 0.691040
2294.89, 0.691160
2295.91, 0.690679
2296.92, 0.690317
2297.94, 0.690016
2298.96, 0.689715
2299.98, 0.689715
2301.0, 0.688872
2302.02, 0.688390
2303.04, 0.688270
2304.07, 0.687909
2305.09, 0.687427
2306.12, 0.686644
2307.15, 0.685861
2308.17, 0.686042
2309.2, 0.685861
2310.23, 0.685861
2311.26, 0.685079
2312.29, 0.684537
2313.32, 0.684597
2314.35, 0.684717
2315.39, 0.684175
2316.42, 0.683694
2317.46, 0.683212
2318.5, 0.683091
2319.53, 0.682790
2320.57, 0.682188
2321.61, 0.681706
2322.65, 0.681887
2323.69, 0.681466
2324.73, 0.680683
2325.78, 0.679900
2326.82, 0.679539
2327.86, 0.679057
2328.91, 0.678696
2329.96, 0.678214
2331.01, 0.677672
2332.05, 0.677070
2333.1, 0.676588
2334.15, 0.676287
2335.21, 0.675926
2336.26, 0.675263
2337.31, 0.674782
2338.36, 0.674420
2339.42, 0.674300
2340.48, 0.674119
2341.53, 0.674179
2342.59, 0.674360
2343.65, 0.674360
2344.71, 0.674059
2345.77, 0.673878
2346.83, 0.673276
2347.9, 0.673035
2348.96, 0.672855
2350.02, 0.672313
2351.09, 0.671650
2352.16, 0.671470
2353.23, 0.671108
2354.29, 0.670988
2355.36, 0.670868
2356.43, 0.670988
2357.51, 0.670807
2358.58, 0.670747
2359.65, 0.670085
2360.73, 0.669724
2361.8, 0.669302
2362.88, 0.669121
2363.96, 0.668519
2365.03, 0.668037
2366.11, 0.668158
2367.19, 0.668338
2368.27, 0.667857
2369.36, 0.667315
2370.44, 0.666833
2371.53, 0.667134
2372.61, 0.666954
2373.7, 0.666351
2374.78, 0.665749
2375.87, 0.665087
2376.96, 0.664786
2378.05, 0.664665
2379.14, 0.664184
2380.24, 0.663461
2381.33, 0.662919
2382.42, 0.662618
2383.52, 0.662377
2384.61, 0.662377
2385.71, 0.661895
2386.81, 0.661835
2387.91, 0.662136
2389.01, 0.662377
2390.11, 0.662196
2391.22, 0.662377
2392.32, 0.662136
2393.42, 0.661715
2394.53, 0.661113
2395.64, 0.660510
2396.74, 0.660270
2397.85, 0.660089
2398.96, 0.659607
2400.07, 0.658945
2401.18, 0.658523
2402.3, 0.658282
2403.41, 0.657620
2404.52, 0.657500
2405.64, 0.657319
2406.76, 0.656657
2407.88, 0.656054
2408.99, 0.655513
2410.11, 0.654850
2411.23, 0.653646
2412.36, 0.652863
2413.48, 0.652080
2414.6, 0.651478
2415.73, 0.650936
2416.85, 0.650213
2417.98, 0.649852
2419.11, 0.649009
2420.24, 0.648046
2421.37, 0.647142
2422.5, 0.646420
2423.64, 0.645637
2424.77, 0.644914
2425.9, 0.644252
2427.04, 0.643409
2428.18, 0.642325
2429.31, 0.641302
2430.45, 0.640458
2431.59, 0.639615
2432.73, 0.638772
2433.88, 0.637689
2435.02, 0.636424
2436.16, 0.635220
2437.31, 0.633955
2438.45, 0.633112
2439.6, 0.631727
2440.75, 0.630523
2441.9, 0.629499
2443.05, 0.627994
2444.2, 0.626669
2445.35, 0.625705
2446.51, 0.624140
2447.67, 0.622875
2448.82, 0.621551
2449.98, 0.619985
2451.14, 0.618118
2452.3, 0.616794
2453.46, 0.615288
2454.62, 0.613421
2455.78, 0.611374
2456.94, 0.609869
2458.11, 0.608604
2459.28, 0.607279
2460.44, 0.605232
2461.61, 0.603426
2462.78, 0.601920
2463.95, 0.600355
2465.12, 0.598066
2466.3, 0.595959
2467.47, 0.594212
2468.65, 0.592707
2469.82, 0.590901
2471.0, 0.588673
2472.18, 0.586505
2473.36, 0.585240
2474.54, 0.583133
2475.72, 0.580845
2476.9, 0.578677
2478.08, 0.576750
2479.27, 0.574462
2480.46, 0.571812
2481.64, 0.569223
2482.83, 0.566754
2484.02, 0.564104
2485.21, 0.561395
2486.4, 0.558745
2487.6, 0.555915
2488.79, 0.552784
2489.99, 0.549893
2491.18, 0.547184
2492.38, 0.544113
2493.58, 0.540741
2494.78, 0.537369
2495.98, 0.533816
2497.18, 0.530684
2498.39, 0.527493
2499.59, 0.524181
2500.8, 0.521050
2502.01, 0.518039
2503.21, 0.514426
2504.42, 0.511355
2505.63, 0.508525
2506.84, 0.505574
2508.06, 0.502624
2509.27, 0.500336
2510.49, 0.498108
2511.7, 0.495880
2512.92, 0.493712
2514.14, 0.491966
2515.36, 0.490581
2516.58, 0.489075
2517.8, 0.487449
2519.03, 0.486245
2520.25, 0.484740
2521.48, 0.483114
2522.7, 0.481849
2523.93, 0.480284
2525.16, 0.478417
2526.39, 0.477213
2527.62, 0.475587
2528.86, 0.473901
2530.09, 0.471974
2531.33, 0.470167
2532.56, 0.468180
2533.8, 0.465591
2535.04, 0.462761
2536.28, 0.459870
2537.52, 0.456257
2538.76, 0.452464
2540.01, 0.448369
2541.25, 0.444094
2542.5, 0.439638
2543.75, 0.434218
2544.99, 0.428317
2546.24, 0.422175
2547.49, 0.416334
2548.75, 0.410192
2550.0, 0.403629
2551.26, 0.397848
2552.51, 0.392368
2553.77, 0.386708
2555.03, 0.381108
2556.29, 0.376591
2557.55, 0.372798
2558.81, 0.369546
2560.08, 0.366776
2561.34, 0.364368
2562.61, 0.361297
2563.88, 0.358768
2565.14, 0.355998
2566.41, 0.352806
2567.68, 0.350819
2568.96, 0.350518
2570.23, 0.349374
2571.51, 0.346965
2572.78, 0.346122
2574.06, 0.344918
2575.34, 0.342810
2576.62, 0.341847
2577.9, 0.340040
2579.18, 0.338234
2580.47, 0.337812
2581.75, 0.336969
2583.04, 0.336307
2584.32, 0.335885
2585.61, 0.333417
2586.9, 0.332634
2588.2, 0.331730
2589.49, 0.330406
2590.78, 0.329081
2592.08, 0.328178
2593.37, 0.329081
2594.67, 0.331730
2595.97, 0.330105
2597.27, 0.327034
2598.57, 0.325528
2599.88, 0.324926
2601.18, 0.324986
2602.49, 0.324926
2603.79, 0.324866
2605.1, 0.325950
2606.41, 0.326492
2607.72, 0.325829
2609.03, 0.325769
2610.35, 0.325890
2611.66, 0.325829
2612.98, 0.326311
2614.3, 0.326431
2615.62, 0.327455
2616.94, 0.328599
2618.26, 0.327214
2619.58, 0.327455
2620.91, 0.328298
2622.23, 0.326431
2623.56, 0.325649
2624.89, 0.325107
2626.22, 0.325287
2627.55, 0.323782
2628.88, 0.322036
2630.21, 0.321855
2631.55, 0.320109
2632.89, 0.317339
2634.22, 0.315593
2635.56, 0.313003
2636.9, 0.310474
2638.25, 0.308306
2639.59, 0.306199
2640.93, 0.303790
2642.28, 0.301201
2643.63, 0.298311
2644.98, 0.295541
2646.33, 0.292289
2647.68, 0.288495
2649.03, 0.284702
2650.39, 0.281209
2651.74, 0.278259
2653.1, 0.275127
2654.46, 0.271394
2655.82, 0.268082
2657.18, 0.264108
2658.54, 0.260796
2659.9, 0.258086
2661.27, 0.254955
2662.64, 0.251402
2664.01, 0.249054
2665.38, 0.247067
2666.74, 0.243634
2668.12, 0.239058
2669.49, 0.236288
2670.87, 0.233879
2672.24, 0.229002
2673.62, 0.225389
2675.0, 0.222739
2676.38, 0.219969
2677.76, 0.216176
2679.15, 0.212503
2680.54, 0.207866
2681.92, 0.202868
2683.31, 0.198171
2684.7, 0.193113
2686.09, 0.188175
2687.48, 0.182876
2688.88, 0.176614
2690.27, 0.169087
2691.67, 0.160897
2693.07, 0.152046
2694.47, 0.141448
2695.87, 0.129404
2697.27, 0.116217
2698.67, 0.102729
2700.08, 0.0894810
2701.49, 0.0776790
2702.9, 0.0713560
2704.31, 0.0718980
2705.72, 0.0777390
2707.13, 0.0865310
2708.54, 0.0967070
2709.96, 0.106462
2711.38, 0.114832
2712.8, 0.120492
2714.22, 0.124346
2715.64, 0.127237
2717.06, 0.128983
2718.49, 0.129585
2719.91, 0.129525
2721.34, 0.128260
2722.77, 0.126153
2724.2, 0.124768
2725.63, 0.122841
2727.07, 0.120733
2728.5, 0.119409
2729.94, 0.118987
2731.38, 0.119047
2732.82, 0.119649
2734.26, 0.121034
2735.7, 0.123082
2737.15, 0.124828
2738.59, 0.128080
2740.04, 0.132596
2741.49, 0.136871
2742.94, 0.140725
2744.39, 0.145181
2745.84, 0.150059
2747.3, 0.155177
2748.76, 0.160355
2750.21, 0.165173
2751.67, 0.169809
2753.14, 0.174326
2754.6, 0.179384
2756.06, 0.184141
2757.53, 0.186730
2759.0, 0.189018
2760.46, 0.191186
2761.94, 0.193414
2763.41, 0.194980
2764.88, 0.194859
2766.36, 0.193233
2767.83, 0.189741
2769.31, 0.179444
2770.79, 0.156080
2772.27, 0.130308
2773.76, 0.119348
2775.24, 0.112062
2776.73, 0.100139
2778.22, 0.0878550
2779.71, 0.0805690
2781.2, 0.0810510
2782.69, 0.0877950
2784.18, 0.0960450
2785.68, 0.103391
2787.18, 0.112062
2788.68, 0.123082
2790.18, 0.135787
2791.68, 0.149456
2793.19, 0.162885
2794.69, 0.175108
2796.2, 0.185646
2797.71, 0.194438
2799.22, 0.201604
2800.73, 0.207685
2802.24, 0.212683
2803.76, 0.216778
2805.28, 0.219789
2806.8, 0.222378
2808.32, 0.224305
2809.84, 0.226051
2811.36, 0.227617
2812.89, 0.228881
2814.42, 0.230026
2815.94, 0.232374
2817.48, 0.236529
2819.01, 0.242430
2820.54, 0.248512
2822.08, 0.253992
2823.61, 0.258869
2825.15, 0.263265
2826.69, 0.266878
2828.23, 0.269708
2829.78, 0.271755
2831.32, 0.273140
2832.87, 0.274164
2834.42, 0.274947
2835.97, 0.275428
2837.52, 0.275970
2839.08, 0.276452
2840.63, 0.277355
2842.19, 0.278560
2843.75, 0.280186
2845.31, 0.282534
2846.87, 0.285304
2848.44, 0.288194
2850.0, 0.290784
2851.57, 0.293192
2853.14, 0.295601
2854.71, 0.297889
2856.28, 0.299936
2857.86, 0.302225
2859.43, 0.304633
2861.01, 0.306560
2862.59, 0.308547
2864.17, 0.310655
2865.76, 0.312883
2867.34, 0.315291
2868.93, 0.317700
2870.52, 0.320049
2872.11, 0.322578
2873.7, 0.325107
2875.29, 0.327576
2876.89, 0.330165
2878.49, 0.332935
2880.08, 0.335464
2881.69, 0.337632
2883.29, 0.340101
2884.89, 0.342870
2886.5, 0.345821
2888.11, 0.348591
2889.72, 0.350759
2891.33, 0.352565
2892.94, 0.354432
2894.56, 0.356118
2896.17, 0.358165
2897.79, 0.360213
2899.42, 0.362079
2901.04, 0.364127
2902.66, 0.365933
2904.29, 0.367740
2905.92, 0.369787
2907.55, 0.371473
2909.18, 0.373219
2910.81, 0.375327
2912.45, 0.377013
2914.08, 0.378759
2915.72, 0.380265
2917.36, 0.381650
2919.01, 0.383215
2920.65, 0.384600
2922.3, 0.385985
2923.94, 0.387430
2925.59, 0.388514
2927.25, 0.389658
2928.9, 0.390863
2930.56, 0.392007
2932.21, 0.393030
2933.87, 0.393994
2935.53, 0.395078
2937.2, 0.396162
2938.86, 0.397246
2940.53, 0.398390
2942.2, 0.399715
2943.87, 0.400798
2945.54, 0.401762
2947.22, 0.403026
2948.89, 0.403990
2950.57, 0.404953
2952.25, 0.405917
2953.93, 0.406820
2955.62, 0.407663
2957.3, 0.408325
2958.99, 0.409108
2960.68, 0.409831
2962.37, 0.410553
2964.07, 0.411216
2965.76, 0.411878
2967.46, 0.412420
2969.16, 0.412962
2970.86, 0.413564
2972.56, 0.414106
2974.27, 0.414769
2975.98, 0.415371
2977.69, 0.416093
2979.4, 0.416816
2981.11, 0.417298
2982.83, 0.417719
2984.54, 0.418321
2986.26, 0.419104
2987.98, 0.419766
2989.71, 0.420489
2991.43, 0.421272
2993.16, 0.422175
2994.89, 0.423139
2996.62, 0.423921
2998.35, 0.424825
3000.09, 0.425788
3001.83, 0.426751
3003.57, 0.427595
3005.31, 0.428257
3007.05, 0.428980
3008.79, 0.430003
3010.54, 0.430846
3012.29, 0.431509
3014.04, 0.432171
3015.8, 0.433074
3017.55, 0.434038
3019.31, 0.434700
3021.07, 0.435543
3022.83, 0.436326
3024.59, 0.437048
3026.36, 0.437891
3028.13, 0.438674
3029.9, 0.439216
3031.67, 0.439879
3033.44, 0.440902
3035.22, 0.441685
3037.0, 0.442468
3038.78, 0.442950
3040.56, 0.443612
3042.34, 0.444335
3044.13, 0.445117
3045.92, 0.445840
3047.71, 0.446623
3049.5, 0.447165
3051.3, 0.447586
3053.09, 0.448068
3054.89, 0.448610
3056.69, 0.449092
3058.5, 0.449333
3060.3, 0.449513
3062.11, 0.449513
3063.92, 0.449272
3065.73, 0.448851
3067.55, 0.448128
3069.36, 0.447044
3071.18, 0.445659
3073.0, 0.443672
3074.82, 0.441143
3076.65, 0.438132
3078.48, 0.434820
3080.31, 0.431388
3082.14, 0.428016
3083.97, 0.424704
3085.8, 0.421934
3087.64, 0.419887
3089.48, 0.418562
3091.33, 0.417900
3093.17, 0.418381
3095.02, 0.420308
3096.87, 0.423560
3098.72, 0.427534
3100.57, 0.431870
3102.43, 0.436446
3104.28, 0.441504
3106.14, 0.446442
3108.01, 0.450778
3109.87, 0.454632
3111.74, 0.457943
3113.61, 0.461135
3115.48, 0.464085
3117.35, 0.466374
3119.23, 0.468301
3121.1, 0.470107
3122.98, 0.471793
3124.87, 0.473299
3126.75, 0.474864
3128.64, 0.476430
3130.53, 0.477514
3132.42, 0.478477
3134.31, 0.479621
3136.21, 0.480765
3138.11, 0.481729
3140.01, 0.482512
3141.91, 0.483355
3143.82, 0.484258
3145.73, 0.484800
3147.64, 0.485342
3149.55, 0.485763
3151.46, 0.485944
3153.38, 0.486064
3155.3, 0.486305
3157.22, 0.486426
3159.14, 0.486426
3161.07, 0.486667
3163.0, 0.487269
3164.93, 0.488232
3166.86, 0.489617
3168.8, 0.490942
3170.74, 0.492327
3172.68, 0.493712
3174.62, 0.495037
3176.56, 0.496241
3178.51, 0.497325
3180.46, 0.498047
3182.42, 0.498890
3184.37, 0.499914
3186.33, 0.500516
3188.29, 0.501058
3190.25, 0.501660
3192.21, 0.502202
3194.18, 0.502624
3196.15, 0.502925
3198.12, 0.503045
3200.09, 0.503166
3202.07, 0.503346
3204.05, 0.503527
3206.03, 0.503467
3208.02, 0.503286
3210.0, 0.503226
3211.99, 0.503286
3213.98, 0.503587
3215.98, 0.504250
3217.97, 0.505454
3219.97, 0.506899
3221.97, 0.508525
3223.98, 0.510331
3225.98, 0.511957
3227.99, 0.513282
3230.0, 0.514607
3232.02, 0.515871
3234.03, 0.516955
3236.05, 0.517979
3238.07, 0.518641
3240.1, 0.519183
3242.12, 0.519906
3244.15, 0.520568
3246.18, 0.521050
3248.22, 0.521471
3250.25, 0.521833
3252.29, 0.522314
3254.33, 0.522796
3256.38, 0.523338
3258.43, 0.523880
3260.47, 0.524422
3262.53, 0.524783
3264.58, 0.525205
3266.64, 0.525687
3268.7, 0.526108
3270.76, 0.526530
3272.82, 0.526891
3274.89, 0.527312
3276.96, 0.527854
3279.04, 0.528216
3281.11, 0.528517
3283.19, 0.529059
3285.27, 0.529540
3287.35, 0.529962
3289.44, 0.530504
3291.53, 0.530986
3293.62, 0.531407
3295.71, 0.531949
3297.81, 0.532371
3299.91, 0.532611
3302.01, 0.533153
3304.11, 0.533695
3306.22, 0.534057
3308.33, 0.534599
3310.44, 0.535080
3312.56, 0.535381
3314.68, 0.535803
3316.8, 0.536164
3318.92, 0.536586
3321.05, 0.537128
3323.18, 0.537489
3325.31, 0.537850
3327.44, 0.538332
3329.58, 0.538573
3331.72, 0.538753
3333.86, 0.538994
3336.01, 0.539536
3338.16, 0.539777
3340.31, 0.540018
3342.46, 0.540138
3344.61, 0.540078
3346.77, 0.540078
3348.94, 0.540199
3351.1, 0.540199
3353.27, 0.540259
3355.44, 0.540199
3357.61, 0.540199
3359.79, 0.540018
3361.97, 0.539657
3364.15, 0.539055
3366.33, 0.538452
3368.52, 0.538031
3370.71, 0.537670
3372.9, 0.537549
3375.1, 0.537609
3377.3, 0.537730
3379.5, 0.537850
3381.71, 0.538392
3383.91, 0.539175
3386.12, 0.539837
3388.34, 0.540138
3390.55, 0.540379
3392.77, 0.540560
3394.99, 0.540319
3397.22, 0.539837
3399.45, 0.539356
3401.68, 0.538874
3403.91, 0.538513
3406.15, 0.537910
3408.39, 0.537248
3410.63, 0.536887
3412.87, 0.536646
3415.12, 0.536646
3417.37, 0.537188
3419.63, 0.538212
3421.88, 0.539476
3424.14, 0.541042
3426.41, 0.542728
3428.67, 0.544293
3430.94, 0.545739
3433.21, 0.547184
3435.49, 0.548448
3437.77, 0.549713
3440.05, 0.550616
3442.33, 0.551640
3444.62, 0.552663
3446.91, 0.553807
3449.2, 0.554590
3451.5, 0.555313
3453.8, 0.556035
3456.1, 0.556879
3458.41, 0.557601
3460.72, 0.557962
3463.03, 0.558384
3465.34, 0.558986
3467.66, 0.559287
3469.98, 0.559287
3472.31, 0.559347
3474.63, 0.559408
3476.96, 0.559648
3479.3, 0.559829
3481.64, 0.559950
3483.97, 0.560010
3486.32, 0.560070
3488.66, 0.560251
3491.01, 0.560251
3493.36, 0.559889
3495.72, 0.559468
3498.08, 0.559107
3500.44, 0.559107
3502.81, 0.559709
3505.18, 0.560612
3507.55, 0.561696
3509.92, 0.562960
3512.3, 0.564646
3514.68, 0.566092
3517.06, 0.567115
3519.45, 0.567958
3521.84, 0.568681
3524.24, 0.569343
3526.64, 0.570006
3529.04, 0.570427
3531.44, 0.570849
3533.85, 0.571210
3536.26, 0.571631
3538.67, 0.571993
3541.09, 0.572173
3543.51, 0.572414
3545.93, 0.572535
3548.36, 0.572655
3550.79, 0.572836
3553.22, 0.572956
3555.66, 0.573197
3558.1, 0.573438
3560.54, 0.573558
3562.99, 0.573619
3565.44, 0.573679
3567.9, 0.573619
3570.35, 0.573558
3572.81, 0.573558
3575.28, 0.573739
3577.75, 0.573739
3580.22, 0.573619
3582.69, 0.573619
3585.17, 0.573679
3587.65, 0.573679
3590.14, 0.573739
3592.62, 0.573679
3595.11, 0.573799
3597.61, 0.573799
3600.11, 0.573859
3602.61, 0.573679
3605.11, 0.573558
3607.62, 0.573438
3610.14, 0.573498
3612.65, 0.573438
3615.17, 0.573318
3617.69, 0.573257
3620.22, 0.573197
3622.75, 0.573197
3625.28, 0.573077
3627.82, 0.572956
3630.36, 0.572776
3632.9, 0.572414
3635.45, 0.572474
3638.0, 0.572474
3640.56, 0.572414
3643.12, 0.572354
3645.68, 0.572294
3648.24, 0.572354
3650.81, 0.572294
3653.39, 0.572294
3655.96, 0.572294
3658.54, 0.572234
3661.13, 0.572535
3663.71, 0.572715
3666.3, 0.572715
3668.9, 0.572715
3671.5, 0.573016
3674.1, 0.573077
3676.7, 0.573318
3679.31, 0.573619
3681.93, 0.573859
3684.54, 0.574040
3687.17, 0.574221
3689.79, 0.574401
3692.42, 0.574703
3695.05, 0.574883
3697.69, 0.575064
3700.32, 0.575124
3702.97, 0.575244
3705.61, 0.575305
3708.27, 0.575425
3710.92, 0.575485
3713.58, 0.575365
3716.24, 0.575184
3718.91, 0.574823
3721.58, 0.574642
3724.25, 0.574763
3726.93, 0.574883
3729.61, 0.575184
3732.29, 0.575184
3734.98, 0.575004
3737.67, 0.574703
3740.37, 0.574462
3743.07, 0.574462
3745.78, 0.574763
3748.49, 0.575124
3751.2, 0.575365
3753.91, 0.575365
3756.63, 0.575244
3759.36, 0.575184
3762.09, 0.575305
3764.82, 0.575244
3767.55, 0.575184
3770.29, 0.574943
3773.04, 0.574763
3775.78, 0.574401
3778.54, 0.573799
3781.29, 0.572956
3784.05, 0.572113
3786.82, 0.571631
3789.59, 0.571932
3792.36, 0.572474
3795.13, 0.573137
3797.92, 0.573438
3800.7, 0.573498
3803.49, 0.573438
3806.28, 0.573378
3809.08, 0.573378
3811.88, 0.573498
3814.68, 0.573438
3817.49, 0.573438
3820.31, 0.573378
3823.12, 0.573378
3825.94, 0.573197
3828.77, 0.573016
3831.6, 0.572836
3834.43, 0.572715
3837.27, 0.572535
3840.11, 0.572474
3842.96, 0.572294
3845.81, 0.572173
3848.67, 0.571872
3851.53, 0.571631
3854.39, 0.571571
3857.26, 0.571511
3860.13, 0.571029
3863.01, 0.570849
3865.89, 0.570788
3868.77, 0.570548
3871.66, 0.570307
3874.55, 0.570006
3877.45, 0.569644
3880.35, 0.569403
3883.26, 0.569042
3886.17, 0.568681
3889.09, 0.568380
3892.01, 0.568199
3894.93, 0.567778
3897.86, 0.567537
3900.79, 0.567296
3903.73, 0.566935
3906.67, 0.566694
3909.62, 0.566513
3912.57, 0.566152
3915.52, 0.565790
3918.48, 0.565369
3921.45, 0.565188
3924.42, 0.564887
3927.39, 0.564646
3930.37, 0.564285
3933.35, 0.563984
3936.34, 0.563563
3939.33, 0.563322
3942.32, 0.562900
3945.32, 0.562418
3948.33, 0.562057
3951.34, 0.561816
3954.35, 0.561575
3957.37, 0.561274
3960.39, 0.560913
3963.42, 0.560491
3966.45, 0.560010
3969.49, 0.559648
3972.53, 0.559287
3975.58, 0.558866
3978.63, 0.558384
3981.68, 0.557902
3984.75, 0.557240
3987.81, 0.556638
3990.88, 0.556035
3993.95, 0.555494
3997.03, 0.554831
4000.12, 0.554289
4003.21, 0.553506
4006.3, 0.552603
4009.4, 0.551820
4012.5, 0.551098
4015.61, 0.550195
4018.72, 0.549231
4021.84, 0.548207
4024.96, 0.547244
4028.09, 0.546461
4031.22, 0.545799
4034.36, 0.545076
4037.5, 0.544474
4040.65, 0.543992
4043.8, 0.543691
4046.96, 0.543390
4050.12, 0.543089
4053.29, 0.542788
4056.46, 0.542487
4059.64, 0.542065
4062.82, 0.541584
4066.0, 0.541042
4069.19, 0.540560
4072.39, 0.540138
4075.59, 0.539777
4078.8, 0.539356
4082.01, 0.538934
4085.23, 0.538452
4088.45, 0.537971
4091.68, 0.537670
4094.91, 0.537429
4098.15, 0.537308
4101.39, 0.537128
4104.63, 0.537007
4107.89, 0.536947
4111.14, 0.536766
4114.41, 0.536586
4117.67, 0.536586
4120.95, 0.536465
4124.23, 0.536164
4127.51, 0.535863
4130.8, 0.535381
4134.09, 0.534960
4137.39, 0.534418
4140.7, 0.533755
4144.01, 0.532973
4147.32, 0.532250
4150.64, 0.531106
4153.97, 0.529781
4157.3, 0.528216
4160.64, 0.526108
4163.98, 0.523398
4167.33, 0.519966
4170.68, 0.515390
4174.04, 0.509308
4177.4, 0.500757
4180.77, 0.489316
4184.14, 0.474081
4187.52, 0.454752
4190.91, 0.431448
4194.3, 0.405676
4197.69, 0.379602
4201.1, 0.356901
4204.5, 0.340161
4207.92, 0.329683
4211.34, 0.323360
4214.76, 0.319326
4218.19, 0.316014
4221.62, 0.311016
4225.06, 0.299214
4228.51, 0.271454
4231.96, 0.221716
4235.42, 0.171676
4238.88, 0.160536
4242.35, 0.196907
4245.83, 0.247789
4249.31, 0.281510
4252.79, 0.297347
4256.28, 0.305115
4259.78, 0.311016
4263.29, 0.316496
4266.79, 0.321795
4270.31, 0.328118
4273.83, 0.335885
4277.35, 0.344978
4280.89, 0.355576
4284.42, 0.367740
4287.97, 0.379903
4291.52, 0.390742
4295.07, 0.399955
4298.63, 0.407904
4302.2, 0.415130
4305.78, 0.421573
4309.35, 0.427053
4312.94, 0.431870
4316.53, 0.436145
4320.13, 0.439818
4323.73, 0.442829
4327.34, 0.445479
4330.96, 0.447586
4334.58, 0.449393
4338.21, 0.450718
4341.84, 0.451681
4345.48, 0.452223
4349.12, 0.451862
4352.77, 0.449573
4356.43, 0.444877
4360.1, 0.441384
4363.76, 0.443251
4367.44, 0.447345
4371.12, 0.449152
4374.81, 0.448730
4378.51, 0.447646
4382.21, 0.446382
4385.92, 0.444877
4389.63, 0.443070
4393.35, 0.441203
4397.08, 0.439397
4400.81, 0.437590
4404.55, 0.435603
4408.29, 0.433436
4412.04, 0.431147
4415.8, 0.428859
4419.57, 0.426450
4423.34, 0.423982
4427.12, 0.421573
4430.9, 0.419164
4434.69, 0.416635
4438.49, 0.414347
4442.29, 0.411999
4446.1, 0.409831
4449.92, 0.407844
4453.74, 0.405977
4457.57, 0.404291
4461.41, 0.402906
4465.25, 0.401822
4469.1, 0.400979
4472.95, 0.400136
4476.82, 0.399715
4480.69, 0.399353
4484.56, 0.399112
4488.44, 0.399112
4492.33, 0.399173
4496.23, 0.399233
4500.13, 0.399353
4504.04, 0.399353
4507.96, 0.399293
4511.88, 0.399173
4515.81, 0.398811
4519.75, 0.398269
4523.69, 0.397607
4527.65, 0.396643
4531.6, 0.395620
4535.57, 0.394415
4539.54, 0.392910
4543.52, 0.391465
4547.5, 0.390020
4551.5, 0.388334
4555.5, 0.386587
4559.5, 0.384841
4563.52, 0.383275
4567.54, 0.381650
4571.56, 0.379964
4575.6, 0.378217
4579.64, 0.376531
4583.69, 0.374905
4587.75, 0.373280
4591.81, 0.371413
4595.88, 0.369606
4599.96, 0.367680
4604.04, 0.365813
4608.14, 0.363765
4612.24, 0.361598
4616.34, 0.359430
4620.46, 0.357262
4624.58, 0.354974
4628.71, 0.352565
4632.84, 0.350217
4636.99, 0.347868
4641.14, 0.345761
4645.3, 0.343774
4649.47, 0.341726
4653.64, 0.339799
4657.82, 0.338174
4662.01, 0.336728
4666.21, 0.335223
4670.41, 0.333778
4674.62, 0.332513
4678.84, 0.331490
4683.07, 0.330285
4687.3, 0.329262
4691.54, 0.328238
4695.79, 0.327275
4700.05, 0.326130
4704.31, 0.324866
4708.59, 0.323300
4712.87, 0.321554
4717.15, 0.319687
4721.45, 0.317821
4725.76, 0.315653
4730.07, 0.313244
4734.39, 0.310775
4738.72, 0.308246
4743.05, 0.305537
4747.39, 0.302767
4751.75, 0.299936
4756.1, 0.296926
4760.47, 0.293734
4764.85, 0.290543
4769.23, 0.287171
4773.62, 0.283558
4778.02, 0.279583
4782.43, 0.275428
4786.85, 0.271274
4791.27, 0.267058
4795.7, 0.262783
4800.14, 0.258688
4804.59, 0.254774
4809.05, 0.251101
4813.51, 0.247789
4817.99, 0.244778
4822.47, 0.242009
4826.96, 0.239540
4831.46, 0.237071
4835.96, 0.234843
4840.48, 0.232494
4845.0, 0.230086
4849.54, 0.227677
4854.08, 0.225208
4858.63, 0.222438
4863.18, 0.219608
4867.75, 0.216778
4872.33, 0.213767
4876.91, 0.210515
4881.5, 0.207324
4886.1, 0.204133
4890.71, 0.201001
4895.33, 0.197991
4899.96, 0.195160
4904.59, 0.192511
4909.24, 0.189982
4913.89, 0.187513
4918.55, 0.185165
4923.22, 0.182756
4927.9, 0.180468
4932.59, 0.178300
4937.29, 0.176132
4942.0, 0.174145
4946.71, 0.172218
4951.44, 0.170291
4956.17, 0.168364
4960.91, 0.166257
4965.67, 0.164029
4970.43, 0.161620
4975.2, 0.159151
4979.98, 0.156742
4984.76, 0.154274
4989.56, 0.151684
4994.37, 0.149216
4999.18, 0.146807
5004.01, 0.144278
5008.84, 0.141929
5013.69, 0.139701
5018.54, 0.137534
5023.4, 0.135245
5028.28, 0.133017
5033.16, 0.130910
5038.05, 0.128622
5042.95, 0.126514
5047.86, 0.124346
5052.78, 0.122058
5057.71, 0.119710
5062.65, 0.117241
5067.6, 0.114712
5072.56, 0.112122
5077.53, 0.109593
5082.5, 0.107064
5087.49, 0.104535
5092.49, 0.101886
5097.5, 0.0994170
5102.51, 0.0971890
5107.54, 0.0951410
5112.58, 0.0933350
5117.62, 0.0918300
5122.68, 0.0905650
5127.75, 0.0894810
5132.82, 0.0885780
5137.91, 0.0877950
5143.01, 0.0872530
5148.12, 0.0868320
5153.23, 0.0863500
5158.36, 0.0859280
5163.5, 0.0858080
5168.65, 0.0858680
5173.81, 0.0860490
5178.98, 0.0862290
5184.15, 0.0866510
5189.34, 0.0874340
5194.54, 0.0883970
5199.75, 0.0895410
5204.98, 0.0909260
5210.21, 0.0926120
5215.45, 0.0946000
5220.7, 0.0967070
5225.96, 0.0989950
5231.23, 0.101585
5236.52, 0.104415
5241.81, 0.107305
5247.12, 0.110256
5252.44, 0.113206
5257.76, 0.116217
5263.1, 0.119168
5268.45, 0.121998
5273.81, 0.124768
5279.18, 0.127357
5284.56, 0.129705
5289.95, 0.132174
5295.36, 0.134222
5300.77, 0.135908
5306.2, 0.137413
5311.63, 0.138738
5317.08, 0.139822
5322.54, 0.140785
5328.01, 0.141508
5333.49, 0.142110
5338.98, 0.142471
5344.49, 0.143013
5350.0, 0.143736
5355.53, 0.143977
5361.07, 0.143977
5366.62, 0.144097
5372.18, 0.144157
5377.75, 0.144097
5383.34, 0.143796
5388.93, 0.143314
5394.54, 0.142652
5400.16, 0.141990
5405.79, 0.141147
5411.44, 0.140364
5417.09, 0.139762
5422.76, 0.139159
5428.43, 0.137594
5434.12, 0.136028
5439.83, 0.134523
5445.54, 0.132776
5451.26, 0.130970
5457.0, 0.129103
5462.75, 0.127357
5468.52, 0.125370
5474.29, 0.123443
5480.08, 0.121877
5485.88, 0.119950
5491.69, 0.118204
5497.51, 0.116879
5503.35, 0.115916
5509.2, 0.115073
5515.06, 0.114531
5520.93, 0.114350
5526.82, 0.114350
5532.71, 0.114230
5538.63, 0.114230
5544.55, 0.114411
5550.49, 0.114411
5556.44, 0.114110
5562.4, 0.113507
5568.37, 0.112785
5574.36, 0.112183
5580.36, 0.111400
5586.37, 0.110135
5592.4, 0.109051
5598.44, 0.108389
5604.49, 0.108148
5610.56, 0.108088
5616.63, 0.108329
5622.73, 0.108810
5628.83, 0.109292
5634.95, 0.110075
5641.08, 0.111159
5647.23, 0.111400
5653.39, 0.111400
5659.56, 0.111400
5665.74, 0.111219
5671.94, 0.111400
5678.15, 0.111340
5684.38, 0.110978
5690.62, 0.110798
5696.87, 0.110497
5703.14, 0.110195
5709.42, 0.110075
5715.72, 0.109533
5722.03, 0.108690
5728.35, 0.107787
5734.69, 0.107064
5741.03, 0.106281
5747.4, 0.105559
5753.78, 0.104535
5760.17, 0.104114
5766.58, 0.103873
5773.0, 0.102608
5779.44, 0.101585
5785.88, 0.100681
5792.35, 0.100019
5798.83, 0.0995970
5805.32, 0.0993570
5811.83, 0.0992960
5818.35, 0.0997780
5824.89, 0.100079
5831.45, 0.0999590
5838.01, 0.100079
5844.59, 0.100440
5851.19, 0.100982
5857.8, 0.101645
5864.43, 0.102548
5871.07, 0.103210
5877.73, 0.104595
5884.4, 0.105258
5891.09, 0.105198
5897.79, 0.105739
5904.5, 0.105378
5911.23, 0.105318
5917.98, 0.105559
5924.75, 0.105679
5931.53, 0.106161
5938.32, 0.106342
5945.13, 0.104957
5951.96, 0.103632
5958.8, 0.102307
5965.65, 0.100982
5972.53, 0.0989350
5979.42, 0.0962860
5986.32, 0.0935760
5993.24, 0.0899630
6000.18, 0.0861090
6007.13, 0.0827970
6014.1, 0.0796660
6021.08, 0.0765350
6028.09, 0.0738250
6035.1, 0.0715370
6042.14, 0.0703320
6049.19, 0.0690080
6056.25, 0.0666590
6063.34, 0.0645520
6070.44, 0.0623840
6077.55, 0.0587110
6084.69, 0.0538330
6091.84, 0.0478120
6099.0, 0.0413680
6106.19, 0.0359490
6113.39, 0.0319150
6120.61, 0.0289040
6127.84, 0.0276990
6135.09, 0.0286030
6142.36, 0.0316130
6149.65, 0.0354070
6156.95, 0.0394420
6164.27, 0.0437170
6171.61, 0.0482930
6178.97, 0.0533510
6186.34, 0.0581690
6193.73, 0.0609990
6201.14, 0.0625650
6208.57, 0.0631670
6216.01, 0.0622030
6223.47, 0.0589520
6230.95, 0.0534720
6238.45, 0.0470290
6245.97, 0.0427530
6253.5, 0.0431750
6261.06, 0.0478120
6268.63, 0.0538930
6276.21, 0.0591320
6283.82, 0.0627450
6291.45, 0.0649730
6299.1, 0.0662380
6306.76, 0.0667800
6314.44, 0.0669000
6322.14, 0.0667800
6329.86, 0.0663580
6337.6, 0.0660570
6345.35, 0.0655750
6353.13, 0.0643710
6360.92, 0.0632270
6368.74, 0.0622630
6376.57, 0.0608180
6384.43, 0.0592530
6392.3, 0.0575670
6400.19, 0.0558810
6408.1, 0.0546160
6416.03, 0.0527490
6423.98, 0.0501000
6431.95, 0.0476910
6439.94, 0.0451620
6447.95, 0.0429340
6455.98, 0.0408270
6464.03, 0.0393810
6472.1, 0.0389600
6480.19, 0.0396820
6488.31, 0.0417300
6496.44, 0.0447410
6504.59, 0.0475110
6512.76, 0.0502200
6520.95, 0.0528100
6529.16, 0.0543750
6537.4, 0.0552180
6545.65, 0.0555790
6553.92, 0.0554590
6562.22, 0.0550380
6570.54, 0.0543150
6578.88, 0.0529900
6587.23, 0.0517260
6595.61, 0.0504610
6604.02, 0.0489560
6612.44, 0.0474500
6620.89, 0.0460050
6629.35, 0.0451620
6637.84, 0.0442590
6646.35, 0.0427530
6654.88, 0.0412480
6663.44, 0.0402240
6672.01, 0.0394420
6680.61, 0.0385990
6689.23, 0.0375750
6697.88, 0.0364910
6706.54, 0.0357080
6715.23, 0.0348050
6723.94, 0.0338410
6732.67, 0.0329380
6741.42, 0.0320950
6750.2, 0.0311920
6759.0, 0.0301080
6767.82, 0.0292050
6776.67, 0.0283620
6785.54, 0.0275190
6794.44, 0.0266160
6803.35, 0.0256520
6812.29, 0.0247490
6821.26, 0.0240860
6830.24, 0.0234840
6839.25, 0.0227620
6848.29, 0.0220990
6857.35, 0.0216780
6866.43, 0.0211360
6875.54, 0.0205940
6884.67, 0.0200520
6893.82, 0.0195700
6903.0, 0.0192090
6912.2, 0.0190890
6921.43, 0.0187870
6930.69, 0.0184260
6939.96, 0.0179440
6949.27, 0.0175830
6958.59, 0.0173420
6967.95, 0.0170410
6977.33, 0.0165590
6986.73, 0.0161380
6996.16, 0.0157160
7005.61, 0.0152350
7015.09, 0.0147530
7024.6, 0.0143310
7034.13, 0.0140910
7043.69, 0.0136690
7053.27, 0.0131270
7062.88, 0.0127660
7072.52, 0.0124650
7082.18, 0.0121640
7091.87, 0.0118020
7101.58, 0.0115010
7111.32, 0.0111400
7121.09, 0.0108390
7130.88, 0.0105380
7140.71, 0.0102370
7150.56, 0.00999600
7160.43, 0.00975500
7170.33, 0.00933300
7180.27, 0.00897200
7190.23, 0.00867100
7200.21, 0.00837000
7210.23, 0.00812900
7220.27, 0.00788800
7230.34, 0.00764700
7240.44, 0.00734600
7250.56, 0.00710600
7260.72, 0.00698500
7270.9, 0.00686500
7281.12, 0.00662400
7291.36, 0.00644300
7301.63, 0.00638300
7311.93, 0.00614200
7322.25, 0.00596100
7332.61, 0.00590100
7343.0, 0.00584100
7353.41, 0.00578100
7363.86, 0.00596100
7374.33, 0.00608200
7384.83, 0.00602200
7395.37, 0.00602200
7405.93, 0.00620200
7416.53, 0.00632300
7427.15, 0.00668400
7437.81, 0.00710600
7448.5, 0.00752700
7459.22, 0.00794900
7469.96, 0.00849000
7480.74, 0.00915300
7491.55, 0.00975500
7502.39, 0.0105380
7513.27, 0.0115610
7524.17, 0.0128860
7535.11, 0.0142710
7546.08, 0.0158970
7557.08, 0.0177640
7568.11, 0.0199920
7579.17, 0.0225210
7590.27, 0.0252910
7601.4, 0.0283620
7612.56, 0.0318540
7623.76, 0.0357080
7634.98, 0.0397430
7646.24, 0.0440180
7657.54, 0.0488950
7668.87, 0.0543750
7680.23, 0.0601560
7691.62, 0.0662380
7703.05, 0.0728010
7714.51, 0.0796660
7726.01, 0.0867710
7737.54, 0.0941180
7749.11, 0.101524
7760.71, 0.108690
7772.35, 0.115133
7784.02, 0.120131
7795.72, 0.123202
7807.46, 0.123865
7819.23, 0.122419
7831.04, 0.119950
7842.89, 0.117482
7854.77, 0.115254
7866.69, 0.113568
7878.65, 0.112122
7890.64, 0.110978
7902.67, 0.109955
7914.74, 0.109051
7926.84, 0.108269
7938.98, 0.107426
7951.16, 0.106643
7963.37, 0.105920
7975.62, 0.105077
7987.91, 0.104415
8000.24, 0.103813
8012.6, 0.103090
8025.01, 0.102127
8037.45, 0.101344
8049.93, 0.100561
8062.45, 0.0997780
8075.01, 0.0990550
8087.61, 0.0982730
8100.24, 0.0974900
8112.91, 0.0970080
8125.63, 0.0964060
8138.39, 0.0956230
8151.18, 0.0947200
8164.02, 0.0939970
8176.9, 0.0933950
8189.81, 0.0927930
8202.77, 0.0920100
8215.77, 0.0912270
8228.82, 0.0902040
8241.9, 0.0893000
8255.02, 0.0884570
8268.19, 0.0876140
8281.39, 0.0865310
8294.65, 0.0852660
8307.94, 0.0837000
8321.28, 0.0817130
8334.66, 0.0788830
8348.08, 0.0752100
8361.54, 0.0709350
8375.05, 0.0664180
8388.6, 0.0617820
8402.2, 0.0575060
8415.84, 0.0541940
8429.52, 0.0517260
8443.25, 0.0500400
8457.02, 0.0488950
8470.84, 0.0477510
8484.7, 0.0467280
8498.61, 0.0456440
8512.57, 0.0444390
8526.57, 0.0432350
8540.62, 0.0420910
8554.71, 0.0410070
8568.85, 0.0399830
8583.04, 0.0389600
8597.27, 0.0381770
8611.55, 0.0373340
8625.88, 0.0365510
8640.26, 0.0361900
8654.68, 0.0363100
8669.16, 0.0365510
8683.68, 0.0369730
8698.25, 0.0377550
8712.87, 0.0388390
8727.53, 0.0401040
8742.25, 0.0413680
8757.02, 0.0423920
8771.83, 0.0435960
8786.7, 0.0449810
8801.62, 0.0463060
8816.59, 0.0478120
8831.61, 0.0491360
8846.68, 0.0504610
8861.8, 0.0518460
8876.97, 0.0531110
8892.2, 0.0543150
8907.48, 0.0556400
8922.81, 0.0567840
8938.2, 0.0579280
8953.63, 0.0593730
8969.13, 0.0606380
8984.67, 0.0617220
9000.27, 0.0628050
9015.92, 0.0638890
9031.63, 0.0650940
9047.39, 0.0661770
9063.21, 0.0670210
9079.08, 0.0677430
9095.01, 0.0685860
9111.0, 0.0693090
9127.04, 0.0695500
9143.13, 0.0697900
9159.28, 0.0699710
9175.49, 0.0697900
9191.76, 0.0693690
9208.09, 0.0691880
9224.47, 0.0688870
9240.92, 0.0681650
9257.42, 0.0672610
9273.98, 0.0665390
9290.6, 0.0657560
9307.28, 0.0646720
9324.02, 0.0633470
9340.82, 0.0619020
9357.68, 0.0603970
9374.6, 0.0591320
9391.58, 0.0576870
9408.62, 0.0561820
9425.73, 0.0548570
9442.9, 0.0537130
9460.13, 0.0528700
9477.42, 0.0520870
9494.78, 0.0515450
9512.2, 0.0512440
9529.69, 0.0513040
9547.24, 0.0519660
9564.86, 0.0526890
9582.54, 0.0536530
9600.28, 0.0551580
9618.1, 0.0570250
9635.97, 0.0593730
9653.92, 0.0619020
9671.93, 0.0644910
9690.01, 0.0670810
9708.16, 0.0694290
9726.37, 0.0709950
9744.65, 0.0722590
9763.0, 0.0731020
9781.43, 0.0731630
9799.92, 0.0723200
9818.48, 0.0705730
9837.1, 0.0685860
9855.8, 0.0659370
9874.58, 0.0630460
9893.42, 0.0604570
9912.34, 0.0583490
9931.33, 0.0569640
9950.39, 0.0561820
9969.52, 0.0558810
9988.74, 0.0559410
10008.0, 0.0566030
10027.4, 0.0578680
10046.8, 0.0602760
10066.3, 0.0636480
10085.9, 0.0679240
10105.6, 0.0730420
10125.3, 0.0779800
10145.1, 0.0825560
10165.0, 0.0865910
10185.0, 0.0899030
10205.0, 0.0926120
10225.2, 0.0952020
10245.4, 0.0977310
10265.7, 0.0998990
10286.0, 0.101705
10306.5, 0.103572
10327.0, 0.105198
10347.6, 0.106342
10368.3, 0.107486
10389.1, 0.107967
10409.9, 0.107787
10430.9, 0.107185
10451.9, 0.105980
10473.0, 0.104114
10494.2, 0.102066
10515.5, 0.0997180
10536.9, 0.0970080
10558.4, 0.0942980
10579.9, 0.0917090
10601.5, 0.0892400
10623.3, 0.0867710
10645.1, 0.0844230
10667.0, 0.0822550
10689.0, 0.0800270
10711.1, 0.0777990
10733.2, 0.0755710
10755.5, 0.0736440
10777.9, 0.0718980
10800.3, 0.0698510
10822.9, 0.0677430
10845.5, 0.0656360
10868.2, 0.0637090
10891.1, 0.0616610
10914.0, 0.0598550
10937.0, 0.0581090
10960.2, 0.0564830
10983.4, 0.0550980
11006.7, 0.0536530
11030.1, 0.0524480
11053.6, 0.0514250
11077.3, 0.0504010
11101.0, 0.0495580
11124.8, 0.0486550
11148.7, 0.0476910
11172.7, 0.0468480
11196.9, 0.0461860
11221.1, 0.0454630
11245.4, 0.0446800
11269.9, 0.0438980
11294.4, 0.0429940
11319.1, 0.0423920
11343.9, 0.0419100
11368.8, 0.0411280
11393.7, 0.0402850
11418.8, 0.0396220
11444.0, 0.0390200
11469.4, 0.0381770
11494.8, 0.0367320
11520.3, 0.0355880
11546.0, 0.0346840
11571.8, 0.0337210
11597.7, 0.0324560
11623.7, 0.0310720
11649.8, 0.0296870
11676.0, 0.0286030
11702.4, 0.0275190
11728.9, 0.0263140
11755.5, 0.0254710
11782.2, 0.0249290
11809.0, 0.0241470
11836.0, 0.0234840
11863.0, 0.0231230
11890.3, 0.0227620
11917.6, 0.0225210
11945.0, 0.0231230
11972.6, 0.0244480
12000.4, 0.0261340
12028.2, 0.0281210
12056.2, 0.0301680
12084.3, 0.0323960
12112.5, 0.0345040
12140.9, 0.0367320
12169.4, 0.0390200
12198.0, 0.0411280
12226.8, 0.0428140
12255.7, 0.0439580
12284.7, 0.0446200
12313.9, 0.0452220
12343.2, 0.0456440
12372.7, 0.0456440
12402.3, 0.0451020
12432.0, 0.0438980
12461.9, 0.0423320
12491.9, 0.0406460
12522.1, 0.0390800
12552.4, 0.0372740
12582.9, 0.0352870
12613.5, 0.0338410
12644.3, 0.0325770
12675.2, 0.0313730
12706.3, 0.0302280
12737.5, 0.0289640
12768.9, 0.0278200
12800.4, 0.0270970
12832.1, 0.0265550
12863.9, 0.0263140
12895.9, 0.0265550
12928.1, 0.0272780
12960.4, 0.0285420
12992.9, 0.0302890
13025.5, 0.0326370
13058.3, 0.0352870
13091.3, 0.0382370
13124.4, 0.0410670
13157.8, 0.0431750
13191.2, 0.0451620
13224.9, 0.0466670
13258.7, 0.0474500
13292.7, 0.0479320
13326.9, 0.0478120
13361.2, 0.0473300
13395.7, 0.0467880
13430.4, 0.0459450
13465.3, 0.0450420
13500.4, 0.0441990
13535.7, 0.0434160
13571.1, 0.0423320
13606.7, 0.0409470
13642.5, 0.0395020
13678.5, 0.0378760
13714.7, 0.0364310
13751.1, 0.0348650
13787.6, 0.0334800
13824.4, 0.0324560
13861.4, 0.0313730
13898.5, 0.0302280
13935.9, 0.0291450
13973.5, 0.0280610
14011.2, 0.0271570
14049.2, 0.0268560
14087.4, 0.0277600
14125.8, 0.0292050
14164.3, 0.0315530
14203.2, 0.0354670
14242.2, 0.0407660
14281.4, 0.0470290
14320.9, 0.0536530
14360.5, 0.0596140
14400.4, 0.0643710
14440.5, 0.0681650
14480.9, 0.0711750
14521.4, 0.0728010
14562.2, 0.0735240
14603.3, 0.0730420
14644.5, 0.0717170
14686.0, 0.0695500
14727.7, 0.0664790
14769.7, 0.0624440
14811.9, 0.0582890
14854.3, 0.0540140
14897.0, 0.0504610
14939.9, 0.0478120
14983.1, 0.0452830
15026.5, 0.0424520
15070.2, 0.0404050
15114.2, 0.0387190
15158.3, 0.0367920
15202.8, 0.0348050
15247.5, 0.0342030
15292.5, 0.0351660
15337.7, 0.0367320
15383.2, 0.0378160
15429.0, 0.0384780
15475.1, 0.0388390
15521.4, 0.0389600
15568.0, 0.0384180
15614.9, 0.0377550
15662.1, 0.0373340
15709.6, 0.0368520
15757.3, 0.0359490
15805.4, 0.0347450
15853.7, 0.0333000
15902.3, 0.0320950
15951.2, 0.0310720
16000.5, 0.0296260
16050.0, 0.0278200
16099.8, 0.0263140
16150.0, 0.0251100
16200.5, 0.0240860
16251.3, 0.0236050
16302.4, 0.0249290
16353.8, 0.0292050
16405.5, 0.0364910
16457.6, 0.0463060
16510.0, 0.0582890
16562.8, 0.0688270
16615.9, 0.0749690
16669.3, 0.0776790
16723.1, 0.0782210
16777.2, 0.0773170
16831.7, 0.0747280
16886.5, 0.0704530
16941.7, 0.0650940
16997.2, 0.0584700
17053.1, 0.0507620
17109.4, 0.0442590
17166.1, 0.0399230
17223.1, 0.0358890
17280.5, 0.0315530
17338.3, 0.0281210
17396.5, 0.0258330
17455.1, 0.0237850
17514.0, 0.0217380
17573.4, 0.0201720
17633.2, 0.0186070
17693.4, 0.0184260
17754.0, 0.0216180
17815.0, 0.0269170
17876.4, 0.0336610
17938.3, 0.0418500
18000.5, 0.0518460
18063.3, 0.0613000
18126.4, 0.0684660
18190.0, 0.0739450
18254.1, 0.0768360
18318.6, 0.0782810
18383.5, 0.0793650
18449.0, 0.0800270
18514.9, 0.0819540
18581.2, 0.0844830
18648.0, 0.0863500
18715.4, 0.0877350
18783.2, 0.0896020
18851.5, 0.0911070
18920.3, 0.0916490
18989.6, 0.0917690
19059.4, 0.0911670
19129.7, 0.0906250
19200.6, 0.0891200
19272.0, 0.0859280
19343.9, 0.0835800
19416.3, 0.0802680
19489.3, 0.0752100
19562.8, 0.0688270
19637.0, 0.0619020
19711.6, 0.0547970
19786.8, 0.0494980
19862.6, 0.0497380
19939.0, 0.0593130
20016.0, 0.0736440
20093.6, 0.0860490
20171.8, 0.0921310
20250.6, 0.0958040
20330.0, 0.0977910
20410.0, 0.0972490
20490.7, 0.0961650
20572.0, 0.0933350
20654.0, 0.0894210
20736.6, 0.0858680
20819.9, 0.0834600
20903.8, 0.0842420
20988.5, 0.0889990
21073.8, 0.0946000
21159.8, 0.104900
21246.5, 0.112619
21334.0, 0.117299
21422.1, 0.119147
21511.0, 0.120502
21600.7, 0.121774
21691.0, 0.121939
21782.1, 0.122308
21874.0, 0.121200
21966.7, 0.118367
22060.2, 0.115985
22154.5, 0.114589
22249.6, 0.114097
22345.5, 0.113029
22442.2, 0.110566
22539.8, 0.109088
22638.2, 0.107610
22737.5, 0.105475
22837.7, 0.103833
22938.7, 0.101780
23040.7, 0.100137
23143.5, 0.0980850
23247.3, 0.0952110
23352.1, 0.0917210
23457.7, 0.0871220
23564.4, 0.0826880
23672.0, 0.0787470
23780.5, 0.0739020
23890.1, 0.0707000
24000.7, 0.0690570
24112.3, 0.0674970
24225.0, 0.0660600
24338.7, 0.0642130
24453.5, 0.0625290
24569.4, 0.0606410
24686.4, 0.0585880
24804.5, 0.0570280
24923.8, 0.0553030
25044.2, 0.0533740
25165.8, 0.0505000
25288.6, 0.0467230
25412.5, 0.0442180
25537.7, 0.0421240
25664.1, 0.0406460
25791.8, 0.0405640
25920.8, 0.0397430
26051.1, 0.0388400
26182.6, 0.0376490
26315.5, 0.0370330
26449.8, 0.0391680
26585.4, 0.0426580
26722.5, 0.0463120
26860.9, 0.0533330
27000.8, 0.0601890
27142.1, 0.0636790
27285.0, 0.0653620
27429.4, 0.0658960
27575.3, 0.0656090
27722.7, 0.0634740
27871.8, 0.0617900
28022.4, 0.0602710
28174.7, 0.0580540
28328.7, 0.0546880
28484.4, 0.0524710
28641.7, 0.0541950
28800.9, 0.0573560
28961.8, 0.0598610
29124.5, 0.0609280
29289.0, 0.0619550
29455.4, 0.0628990
29623.8, 0.0633100
29794.0, 0.0624060
29966.3, 0.0624060
30140.5, 0.0630630
30316.7, 0.0633100
30495.1, 0.0623240
30675.5, 0.0623650
30858.1, 0.0626530
31042.8, 0.0627760
31229.8, 0.0628170
31419.1, 0.0640900
31610.7, 0.0651980
31804.6, 0.0656910
32000.9, 0.0658960
32199.7, 0.0675380
32400.9, 0.0674150
32604.8, 0.0638430
32811.1, 0.0625290
33020.1, 0.0614620
33231.8, 0.0623240
33446.2, 0.0638840
33663.4, 0.0644180
33883.4, 0.0638430
34106.3, 0.0642130
34332.1, 0.0649110
34561.0, 0.0661420
34792.9, 0.0662660
35028.0, 0.0662250
35266.3, 0.0654860
35507.8, 0.0651570
35752.7, 0.0651980
36001.0, 0.0649110
36252.8, 0.0654860
36508.1, 0.0645410
36767.0, 0.0623240
37029.7, 0.0592450
37296.1, 0.0548520
37566.3, 0.0489400
37840.5, 0.0424120
38118.8, 0.0376080
38401.2, 0.0373620
38687.8, 0.0411390
38978.6, 0.0456550
39273.9, 0.0478310
39573.7, 0.0495970
39878.1, 0.0527990
40187.3, 0.0544410
40501.2, 0.0548930
40820.0, 0.0550570
41144.0, 0.0538250
41473.2, 0.0553030
41807.6, 0.0589990
42147.5, 0.0593680
42493.0, 0.0592450
42844.2, 0.0601070
43201.2, 0.0603120
43564.3, 0.0601070
43933.5, 0.0601070
44309.0, 0.0598610
44691.0, 0.0598200
45079.6, 0.0600250
45475.0, 0.0599840
45877.5, 0.0586290
46287.1, 0.0547700
46704.2, 0.0490220
47128.7, 0.0442180
47561.1, 0.0431100
48001.5, 0.0448750
48450.1, 0.0471330
48907.2, 0.0482420
49373.0, 0.0494320
49847.7, 0.0513210
50331.5, 0.0524290
50825.0, 0.0530040
51328.2, 0.0527990
51841.5, 0.0548520
52365.1, 0.0550570
52899.4, 0.0534150
53444.8, 0.0538250
54001.5, 0.0556320
54570.1, 0.0562480
55150.6, 0.0549340
55743.6, 0.0527580
56349.5, 0.0543180
56968.7, 0.0606820
57601.7, 0.0565760
58248.9, 0.0528810
58910.9, 0.0533330
59588.1, 0.0545230
60281.0, 0.0545230
60990.2, 0.0546050
61716.3, 0.0548520
62459.8, 0.0547700
63221.6, 0.0540310
64002.1, 0.0552210
64802.1, 0.0541950
65622.1, 0.0516900
66463.4, 0.0504590
67326.6, 0.0513210
68212.4, 0.0533330
69121.9, 0.0549340
70056.0, 0.0508280
71015.7, 0.0509920
72002.0, 0.0523060
73016.3, 0.0515260
74059.4, 0.0530450
75132.7, 0.0520190
76237.6, 0.0523880
77375.5, 0.0544820
78547.9, 0.0555500
79756.3, 0.0576850
81002.5, 0.0580540
82288.5, 0.0571920
83615.7, 0.0571920
84986.5, 0.0548930
86402.9, 0.0564530
87867.4, 0.0611750
89382.4, 0.0645410
90950.5, 0.0661010
92574.6, 0.0671280
94257.2, 0.0662660
96002.7, 0.0696730
97814.1, 0.0739840
99695.1, 0.0708230
101650.0, 0.0714390
103683.0, 0.0729580
105799.0, 0.0716440
108003.0, 0.0727530
110301.0, 0.0770220
112699.0, 0.0811690
115204.0, 0.0810460
117822.0, 0.0814160
120562.0, 0.0862190
123433.0, 0.0871220
126443.0, 0.0909820
129604.0, 0.0906940
132926.0, 0.0898320
136424.0, 0.0874100
140111.0, 0.0829350
144003.0, 0.0746820
148118.0, 0.0684830
152474.0, 0.0621600
157095.0, 0.0629400
162004.0, 0.0551800
167231.0, 0.0552620
172805.0, 0.0513210
178764.0, 0.0549340
185148.0, 0.0596970
192005.0, 0.0616670
199390.0, 0.0574790
207366.0, 0.0739020
216006.0, 0.122719
