Database of Origin,USGS Spectral Database
Sample Description,See USGS database for additional info
Date Added,2017-02-22 02:49:13.182654

Data ID,USGS_top30          
Sample ID,topaz_8.22261
Mineral Name,topaz

Wavelength
1383.55, 0.839382
1383.92, 0.838156
1384.29, 0.838012
1384.66, 0.838661
1385.03, 0.838228
1385.4, 0.836714
1385.77, 0.835560
1386.14, 0.834983
1386.51, 0.833757
1386.88, 0.832675
1387.25, 0.832748
1387.62, 0.834118
1387.99, 0.833829
1388.36, 0.831666
1388.74, 0.830945
1389.11, 0.830728
1389.48, 0.829574
1389.85, 0.828492
1390.23, 0.827483
1390.6, 0.827122
1390.97, 0.826906
1391.35, 0.826473
1391.72, 0.826978
1392.09, 0.828853
1392.47, 0.827339
1392.84, 0.824598
1393.21, 0.823012
1393.59, 0.822435
1393.96, 0.821425
1394.34, 0.821136
1394.71, 0.821569
1395.09, 0.820920
1395.46, 0.819406
1395.84, 0.819117
1396.22, 0.819117
1396.59, 0.817026
1396.97, 0.815078
1397.35, 0.813348
1397.72, 0.812194
1398.1, 0.810463
1398.48, 0.808372
1398.85, 0.807290
1399.23, 0.805775
1399.61, 0.802674
1399.99, 0.799573
1400.37, 0.797049
1400.74, 0.791207
1401.12, 0.783563
1401.5, 0.775774
1401.88, 0.766687
1402.26, 0.756230
1402.64, 0.743249
1403.02, 0.728465
1403.4, 0.714690
1403.78, 0.704666
1404.16, 0.701709
1404.54, 0.706252
1404.92, 0.715772
1405.3, 0.725724
1405.68, 0.737552
1406.06, 0.749018
1406.44, 0.758610
1406.83, 0.766976
1407.21, 0.772601
1407.59, 0.776063
1407.97, 0.778515
1408.35, 0.780678
1408.74, 0.782914
1409.12, 0.784717
1409.5, 0.785582
1409.89, 0.785799
1410.27, 0.786664
1410.65, 0.787313
1411.04, 0.788683
1411.42, 0.789188
1411.81, 0.789405
1412.19, 0.789332
1412.58, 0.790126
1412.96, 0.791207
1413.35, 0.791496
1413.73, 0.791929
1414.12, 0.792722
1414.5, 0.792361
1414.89, 0.791784
1415.28, 0.790991
1415.66, 0.790775
1416.05, 0.790342
1416.44, 0.789909
1416.82, 0.789765
1417.21, 0.790054
1417.6, 0.789765
1417.98, 0.788972
1418.37, 0.788611
1418.76, 0.788251
1419.15, 0.787818
1419.54, 0.787746
1419.93, 0.787746
1420.32, 0.787313
1420.71, 0.786592
1421.09, 0.786231
1421.48, 0.785438
1421.88, 0.784645
1422.27, 0.784140
1422.66, 0.784428
1423.05, 0.784284
1423.44, 0.784428
1423.83, 0.784140
1424.22, 0.783347
1424.61, 0.782842
1425.0, 0.782697
1425.39, 0.782770
1425.78, 0.782625
1426.18, 0.781760
1426.57, 0.781183
1426.96, 0.780822
1427.36, 0.780462
1427.75, 0.780462
1428.14, 0.780318
1428.54, 0.779596
1428.93, 0.779813
1429.32, 0.779308
1429.72, 0.778587
1430.11, 0.778082
1430.51, 0.777794
1430.9, 0.777433
1431.3, 0.777577
1431.69, 0.776928
1432.09, 0.777000
1432.48, 0.776567
1432.88, 0.776063
1433.28, 0.775414
1433.67, 0.774909
1434.07, 0.775197
1434.46, 0.774692
1434.86, 0.774043
1435.26, 0.773755
1435.66, 0.773394
1436.05, 0.773178
1436.45, 0.772745
1436.85, 0.772457
1437.25, 0.772240
1437.65, 0.772168
1438.05, 0.771808
1438.44, 0.771375
1438.84, 0.771303
1439.24, 0.771159
1439.64, 0.770870
1440.04, 0.770726
1440.44, 0.770365
1440.84, 0.770510
1441.24, 0.770005
1441.65, 0.769211
1442.05, 0.768851
1442.45, 0.769139
1442.85, 0.768562
1443.25, 0.768202
1443.65, 0.767985
1444.05, 0.767913
1444.46, 0.767408
1444.86, 0.767553
1445.26, 0.767336
1445.67, 0.766832
1446.07, 0.766904
1446.47, 0.767048
1446.88, 0.766759
1447.28, 0.766976
1447.68, 0.766182
1448.09, 0.765389
1448.49, 0.765101
1448.9, 0.764884
1449.3, 0.764524
1449.71, 0.764596
1450.11, 0.764091
1450.52, 0.764019
1450.93, 0.763658
1451.33, 0.763154
1451.74, 0.762504
1452.14, 0.762577
1452.55, 0.762577
1452.96, 0.762216
1453.36, 0.762072
1453.77, 0.762000
1454.18, 0.761567
1454.59, 0.761062
1455.0, 0.760485
1455.41, 0.760341
1455.81, 0.760125
1456.22, 0.760269
1456.63, 0.760197
1457.04, 0.759836
1457.45, 0.759475
1457.86, 0.759620
1458.27, 0.759548
1458.68, 0.759115
1459.09, 0.758826
1459.5, 0.758538
1459.91, 0.758177
1460.32, 0.758322
1460.74, 0.758033
1461.15, 0.758033
1461.56, 0.758033
1461.97, 0.757024
1462.39, 0.756302
1462.8, 0.756879
1463.21, 0.756879
1463.62, 0.756663
1464.04, 0.756374
1464.45, 0.755798
1464.86, 0.756014
1465.28, 0.756158
1465.69, 0.755798
1466.11, 0.756086
1466.52, 0.756086
1466.94, 0.755437
1467.35, 0.754644
1467.77, 0.754571
1468.18, 0.754788
1468.6, 0.755076
1469.02, 0.754932
1469.43, 0.755220
1469.85, 0.754716
1470.27, 0.754571
1470.68, 0.754499
1471.1, 0.754211
1471.52, 0.754067
1471.94, 0.754139
1472.35, 0.753995
1472.77, 0.753850
1473.19, 0.753418
1473.61, 0.753562
1474.03, 0.753634
1474.45, 0.753850
1474.87, 0.753201
1475.29, 0.753057
1475.71, 0.752913
1476.13, 0.752624
1476.55, 0.752841
1476.97, 0.752985
1477.39, 0.752985
1477.81, 0.752913
1478.23, 0.752624
1478.65, 0.752696
1479.07, 0.752408
1479.5, 0.752552
1479.92, 0.752841
1480.34, 0.753201
1480.76, 0.752769
1481.19, 0.752552
1481.61, 0.752408
1482.03, 0.752552
1482.46, 0.752552
1482.88, 0.752624
1483.31, 0.752192
1483.73, 0.752192
1484.16, 0.752480
1484.58, 0.752408
1485.01, 0.752480
1485.43, 0.752769
1485.86, 0.752624
1486.28, 0.752624
1486.71, 0.752769
1487.14, 0.752769
1487.56, 0.752264
1487.99, 0.752192
1488.42, 0.752047
1488.84, 0.752480
1489.27, 0.752624
1489.7, 0.752624
1490.13, 0.752047
1490.56, 0.752192
1490.98, 0.752624
1491.41, 0.752696
1491.84, 0.752480
1492.27, 0.752336
1492.7, 0.752192
1493.13, 0.752480
1493.56, 0.752264
1493.99, 0.752264
1494.42, 0.752408
1494.85, 0.753057
1495.29, 0.753057
1495.72, 0.752769
1496.15, 0.752264
1496.58, 0.752624
1497.01, 0.752985
1497.44, 0.753129
1497.88, 0.752985
1498.31, 0.753057
1498.74, 0.753129
1499.18, 0.753490
1499.61, 0.753490
1500.04, 0.753562
1500.48, 0.753273
1500.91, 0.753273
1501.35, 0.753418
1501.78, 0.753345
1502.22, 0.753057
1502.65, 0.752841
1503.09, 0.753129
1503.53, 0.753922
1503.96, 0.753778
1504.4, 0.754139
1504.83, 0.753850
1505.27, 0.753562
1505.71, 0.753778
1506.15, 0.754139
1506.58, 0.754355
1507.02, 0.754355
1507.46, 0.753634
1507.9, 0.754139
1508.34, 0.754355
1508.78, 0.754283
1509.21, 0.754355
1509.66, 0.754211
1510.09, 0.754139
1510.53, 0.754355
1510.97, 0.754355
1511.42, 0.754499
1511.86, 0.754427
1512.3, 0.754571
1512.74, 0.754644
1513.18, 0.754932
1513.62, 0.754932
1514.06, 0.754499
1514.51, 0.754716
1514.95, 0.754932
1515.39, 0.754860
1515.83, 0.754860
1516.28, 0.755004
1516.72, 0.755293
1517.16, 0.755004
1517.61, 0.754932
1518.05, 0.755365
1518.5, 0.755365
1518.94, 0.754788
1519.39, 0.755076
1519.83, 0.755365
1520.28, 0.755509
1520.73, 0.755148
1521.17, 0.755437
1521.62, 0.755725
1522.07, 0.755798
1522.51, 0.755509
1522.96, 0.755581
1523.41, 0.755220
1523.85, 0.755365
1524.3, 0.755870
1524.75, 0.756086
1525.2, 0.755798
1525.65, 0.755942
1526.1, 0.755798
1526.55, 0.755725
1527.0, 0.756014
1527.45, 0.756447
1527.9, 0.756374
1528.35, 0.756374
1528.8, 0.756591
1529.25, 0.756591
1529.7, 0.756591
1530.15, 0.756951
1530.6, 0.756879
1531.05, 0.756951
1531.51, 0.757240
1531.96, 0.757384
1532.41, 0.757240
1532.87, 0.757528
1533.32, 0.757312
1533.77, 0.757312
1534.23, 0.757528
1534.68, 0.757745
1535.14, 0.757889
1535.59, 0.758105
1536.05, 0.758250
1536.5, 0.758754
1536.96, 0.758826
1537.41, 0.758826
1537.87, 0.758971
1538.32, 0.759475
1538.78, 0.759620
1539.24, 0.759548
1539.7, 0.759692
1540.15, 0.760052
1540.61, 0.759980
1541.07, 0.760269
1541.53, 0.760485
1541.98, 0.760629
1542.44, 0.760629
1542.9, 0.761278
1543.36, 0.761855
1543.82, 0.761567
1544.28, 0.761423
1544.74, 0.761495
1545.2, 0.761783
1545.66, 0.762504
1546.12, 0.763009
1546.59, 0.762937
1547.05, 0.762937
1547.51, 0.763009
1547.97, 0.763154
1548.43, 0.763514
1548.9, 0.763442
1549.36, 0.763875
1549.82, 0.763730
1550.29, 0.763875
1550.75, 0.764307
1551.21, 0.764668
1551.68, 0.764596
1552.14, 0.765029
1552.61, 0.765245
1553.07, 0.765533
1553.54, 0.765245
1554.0, 0.765173
1554.47, 0.765317
1554.93, 0.765822
1555.4, 0.766110
1555.87, 0.766255
1556.34, 0.766110
1556.8, 0.766255
1557.27, 0.766687
1557.74, 0.766976
1558.21, 0.766904
1558.68, 0.767481
1559.14, 0.767336
1559.61, 0.767336
1560.08, 0.767625
1560.55, 0.768058
1561.02, 0.768418
1561.49, 0.768779
1561.96, 0.768779
1562.43, 0.768995
1562.9, 0.768779
1563.38, 0.768851
1563.85, 0.769356
1564.32, 0.769644
1564.79, 0.769500
1565.26, 0.770077
1565.74, 0.770149
1566.21, 0.770005
1566.68, 0.770005
1567.16, 0.770149
1567.63, 0.770510
1568.1, 0.770510
1568.58, 0.770654
1569.05, 0.771231
1569.53, 0.771231
1570.0, 0.770942
1570.48, 0.771087
1570.96, 0.771591
1571.43, 0.771808
1571.91, 0.771663
1572.39, 0.771808
1572.86, 0.771808
1573.34, 0.771736
1573.82, 0.772240
1574.3, 0.772024
1574.77, 0.772457
1575.25, 0.772601
1575.73, 0.772673
1576.21, 0.772457
1576.69, 0.772745
1577.17, 0.773034
1577.65, 0.773322
1578.13, 0.773322
1578.61, 0.773611
1579.09, 0.773683
1579.57, 0.773971
1580.05, 0.773971
1580.54, 0.773539
1581.02, 0.773611
1581.5, 0.773899
1581.98, 0.774404
1582.47, 0.774692
1582.95, 0.774115
1583.43, 0.774260
1583.92, 0.774548
1584.4, 0.774909
1584.88, 0.774909
1585.37, 0.774837
1585.85, 0.775125
1586.34, 0.775486
1586.82, 0.775702
1587.31, 0.775342
1587.8, 0.775558
1588.28, 0.775918
1588.77, 0.775991
1589.26, 0.776207
1589.74, 0.776207
1590.23, 0.776351
1590.72, 0.776423
1591.21, 0.776279
1591.7, 0.776640
1592.19, 0.777000
1592.67, 0.776784
1593.16, 0.777216
1593.65, 0.777144
1594.14, 0.777361
1594.63, 0.777433
1595.12, 0.777649
1595.61, 0.777866
1596.11, 0.778010
1596.6, 0.778082
1597.09, 0.778010
1597.58, 0.778226
1598.08, 0.778803
1598.57, 0.778659
1599.06, 0.779092
1599.55, 0.779236
1600.05, 0.779452
1600.54, 0.779669
1601.04, 0.780246
1601.53, 0.780462
1602.03, 0.780606
1602.52, 0.780606
1603.02, 0.780678
1603.51, 0.780534
1604.01, 0.781039
1604.5, 0.781111
1605.0, 0.781327
1605.5, 0.781688
1606.0, 0.782048
1606.49, 0.782409
1606.99, 0.782625
1607.49, 0.782697
1607.99, 0.782553
1608.49, 0.782986
1608.99, 0.783563
1609.49, 0.783563
1609.99, 0.783635
1610.49, 0.783779
1610.99, 0.783996
1611.49, 0.783779
1611.99, 0.784068
1612.49, 0.784573
1612.99, 0.784717
1613.49, 0.784933
1614.0, 0.785438
1614.5, 0.785510
1615.0, 0.785582
1615.51, 0.785943
1616.01, 0.786087
1616.51, 0.786159
1617.02, 0.786880
1617.52, 0.787241
1618.03, 0.787457
1618.53, 0.787457
1619.04, 0.787674
1619.54, 0.787962
1620.05, 0.788106
1620.55, 0.788251
1621.06, 0.788611
1621.57, 0.788683
1622.08, 0.789116
1622.58, 0.789332
1623.09, 0.789549
1623.6, 0.789837
1624.11, 0.789837
1624.62, 0.789981
1625.13, 0.790558
1625.64, 0.790775
1626.15, 0.790991
1626.66, 0.791280
1627.17, 0.791568
1627.68, 0.791496
1628.19, 0.791712
1628.7, 0.792001
1629.21, 0.791784
1629.72, 0.791712
1630.24, 0.792145
1630.75, 0.792433
1631.26, 0.792722
1631.78, 0.792866
1632.29, 0.793155
1632.8, 0.793082
1633.32, 0.792938
1633.83, 0.792866
1634.35, 0.793587
1634.86, 0.793515
1635.38, 0.793443
1635.9, 0.794164
1636.41, 0.794741
1636.93, 0.794381
1637.45, 0.794164
1637.96, 0.794381
1638.48, 0.794813
1639.0, 0.794958
1639.52, 0.795174
1640.04, 0.794958
1640.56, 0.794741
1641.08, 0.794886
1641.59, 0.795318
1642.11, 0.795390
1642.63, 0.796111
1643.16, 0.796039
1643.68, 0.795895
1644.2, 0.796184
1644.72, 0.796616
1645.24, 0.796616
1645.76, 0.796977
1646.29, 0.796688
1646.81, 0.796833
1647.33, 0.797049
1647.86, 0.797121
1648.38, 0.797121
1648.9, 0.797193
1649.43, 0.797554
1649.95, 0.797698
1650.48, 0.797554
1651.0, 0.797914
1651.53, 0.797914
1652.06, 0.797770
1652.58, 0.798131
1653.11, 0.798419
1653.64, 0.798564
1654.17, 0.798564
1654.69, 0.798491
1655.22, 0.798275
1655.75, 0.798419
1656.28, 0.798564
1656.81, 0.798852
1657.34, 0.799285
1657.87, 0.799285
1658.4, 0.799068
1658.93, 0.799357
1659.46, 0.799862
1659.99, 0.799645
1660.52, 0.799429
1661.05, 0.799645
1661.59, 0.800078
1662.12, 0.800150
1662.65, 0.800439
1663.19, 0.800727
1663.72, 0.800943
1664.26, 0.800943
1664.79, 0.801016
1665.32, 0.801088
1665.86, 0.801520
1666.39, 0.801809
1666.93, 0.802097
1667.47, 0.802025
1668.0, 0.801953
1668.54, 0.802097
1669.08, 0.802458
1669.61, 0.802602
1670.15, 0.802963
1670.69, 0.803035
1671.23, 0.802818
1671.77, 0.803395
1672.31, 0.803612
1672.85, 0.803251
1673.39, 0.803251
1673.93, 0.803323
1674.47, 0.803900
1675.01, 0.804044
1675.55, 0.803900
1676.09, 0.803756
1676.64, 0.803684
1677.18, 0.803756
1677.72, 0.803612
1678.26, 0.803179
1678.81, 0.803035
1679.35, 0.802818
1679.89, 0.802097
1680.44, 0.801376
1680.98, 0.801088
1681.53, 0.800294
1682.07, 0.799934
1682.62, 0.799862
1683.17, 0.800294
1683.71, 0.800583
1684.26, 0.801160
1684.81, 0.801881
1685.36, 0.803035
1685.9, 0.803756
1686.45, 0.804621
1687.0, 0.805559
1687.55, 0.806280
1688.1, 0.806641
1688.65, 0.806785
1689.2, 0.807218
1689.75, 0.808083
1690.3, 0.808516
1690.85, 0.809021
1691.41, 0.809237
1691.96, 0.809381
1692.51, 0.809598
1693.06, 0.810030
1693.61, 0.810319
1694.17, 0.810824
1694.72, 0.810896
1695.28, 0.810896
1695.83, 0.811256
1696.39, 0.811545
1696.94, 0.811545
1697.5, 0.811761
1698.05, 0.811978
1698.61, 0.812338
1699.17, 0.812266
1699.72, 0.812194
1700.28, 0.812338
1700.84, 0.812771
1701.4, 0.812554
1701.95, 0.812699
1702.51, 0.812843
1703.07, 0.813059
1703.63, 0.813131
1704.19, 0.813348
1704.75, 0.813276
1705.31, 0.813636
1705.88, 0.813708
1706.44, 0.813636
1707.0, 0.813708
1707.56, 0.814069
1708.12, 0.814213
1708.69, 0.814141
1709.25, 0.813925
1709.81, 0.813997
1710.38, 0.813853
1710.94, 0.813853
1711.51, 0.814069
1712.07, 0.814429
1712.64, 0.814285
1713.2, 0.814213
1713.77, 0.813925
1714.34, 0.813997
1714.9, 0.814285
1715.47, 0.814141
1716.04, 0.814141
1716.61, 0.814213
1717.18, 0.814574
1717.74, 0.814718
1718.31, 0.814502
1718.88, 0.814502
1719.45, 0.814502
1720.02, 0.814285
1720.59, 0.814285
1721.17, 0.814790
1721.74, 0.815151
1722.31, 0.815151
1722.88, 0.815006
1723.45, 0.815223
1724.03, 0.815295
1724.6, 0.815367
1725.18, 0.815151
1725.75, 0.815151
1726.33, 0.815439
1726.9, 0.815655
1727.48, 0.815872
1728.05, 0.815800
1728.63, 0.815800
1729.2, 0.816088
1729.78, 0.816232
1730.36, 0.816449
1730.94, 0.816377
1731.51, 0.816665
1732.09, 0.816882
1732.67, 0.816809
1733.25, 0.816665
1733.83, 0.816737
1734.41, 0.816809
1734.99, 0.817098
1735.57, 0.817603
1736.15, 0.817963
1736.73, 0.817963
1737.32, 0.818108
1737.9, 0.818180
1738.48, 0.818252
1739.07, 0.818180
1739.65, 0.818252
1740.23, 0.818540
1740.82, 0.818757
1741.4, 0.818757
1741.99, 0.818829
1742.57, 0.818973
1743.16, 0.819261
1743.74, 0.819333
1744.33, 0.819478
1744.92, 0.819333
1745.51, 0.819766
1746.09, 0.819983
1746.68, 0.820127
1747.27, 0.820199
1747.86, 0.820632
1748.45, 0.820848
1749.04, 0.820776
1749.63, 0.820848
1750.22, 0.821209
1750.81, 0.821641
1751.4, 0.822002
1751.99, 0.822002
1752.59, 0.821930
1753.18, 0.821858
1753.77, 0.822074
1754.37, 0.822146
1754.96, 0.822146
1755.56, 0.822362
1756.15, 0.822435
1756.74, 0.822723
1757.34, 0.823012
1757.94, 0.822939
1758.53, 0.823300
1759.13, 0.823444
1759.73, 0.823444
1760.32, 0.823444
1760.92, 0.823805
1761.52, 0.823877
1762.12, 0.823661
1762.72, 0.823877
1763.32, 0.824310
1763.92, 0.824165
1764.52, 0.824238
1765.12, 0.824382
1765.72, 0.824670
1766.32, 0.824742
1766.92, 0.825391
1767.53, 0.825752
1768.13, 0.825752
1768.73, 0.825824
1769.34, 0.825752
1769.94, 0.825752
1770.55, 0.825896
1771.15, 0.826185
1771.76, 0.826401
1772.36, 0.826473
1772.97, 0.826257
1773.57, 0.826401
1774.18, 0.826834
1774.79, 0.826834
1775.4, 0.826906
1776.0, 0.827267
1776.61, 0.827339
1777.22, 0.827194
1777.83, 0.827339
1778.44, 0.827627
1779.05, 0.827555
1779.66, 0.827555
1780.27, 0.827843
1780.88, 0.827988
1781.5, 0.827916
1782.11, 0.827916
1782.72, 0.827627
1783.33, 0.827483
1783.95, 0.827916
1784.56, 0.828132
1785.18, 0.828060
1785.79, 0.827916
1786.41, 0.828060
1787.02, 0.827988
1787.64, 0.827988
1788.26, 0.828204
1788.87, 0.828204
1789.49, 0.827771
1790.11, 0.827916
1790.73, 0.828132
1791.35, 0.828276
1791.96, 0.828420
1792.58, 0.828060
1793.21, 0.827843
1793.83, 0.827916
1794.45, 0.827988
1795.07, 0.827988
1795.69, 0.828060
1796.31, 0.828132
1796.93, 0.827988
1797.56, 0.828060
1798.18, 0.828060
1798.8, 0.828348
1799.43, 0.828420
1800.05, 0.828565
1800.68, 0.828853
1801.3, 0.828925
1801.93, 0.828853
1802.56, 0.828781
1803.18, 0.828565
1803.81, 0.828637
1804.44, 0.828781
1805.07, 0.828997
1805.7, 0.829430
1806.33, 0.829286
1806.95, 0.829142
1807.58, 0.828997
1808.22, 0.828853
1808.85, 0.828925
1809.48, 0.828781
1810.11, 0.829142
1810.74, 0.829214
1811.38, 0.828997
1812.01, 0.829502
1812.64, 0.830079
1813.28, 0.829502
1813.91, 0.829142
1814.55, 0.829574
1815.18, 0.830584
1815.82, 0.830440
1816.45, 0.830151
1817.09, 0.830151
1817.73, 0.830295
1818.36, 0.830440
1819.0, 0.830151
1819.64, 0.831449
1820.28, 0.833180
1820.92, 0.832603
1821.56, 0.832531
1822.2, 0.831738
1822.84, 0.830584
1823.48, 0.830728
1824.12, 0.831017
1824.76, 0.830800
1825.41, 0.832820
1826.05, 0.835488
1826.69, 0.833396
1827.34, 0.831377
1827.98, 0.832098
1828.63, 0.832964
1829.27, 0.833036
1829.92, 0.833180
1830.56, 0.834406
1831.21, 0.834262
1831.86, 0.833541
1832.5, 0.833613
1833.15, 0.832675
1833.8, 0.832315
1834.45, 0.834190
1835.1, 0.835344
1835.75, 0.836425
1836.4, 0.836498
1837.05, 0.836786
1837.7, 0.837507
1838.35, 0.834983
1839.01, 0.835488
1839.66, 0.837651
1840.31, 0.835776
1840.96, 0.835993
1841.62, 0.839382
1842.27, 0.837868
1842.93, 0.835055
1843.58, 0.834406
1844.24, 0.834406
1844.9, 0.834118
1845.55, 0.834334
1846.21, 0.837579
1846.87, 0.840969
1847.53, 0.840176
1848.18, 0.839166
1848.84, 0.836858
1849.5, 0.835560
1850.16, 0.835921
1850.82, 0.836065
1851.48, 0.835488
1852.14, 0.836137
1852.81, 0.837940
1853.47, 0.840464
1854.13, 0.839310
1854.8, 0.836281
1855.46, 0.836209
1856.12, 0.838661
1856.79, 0.839022
1857.45, 0.836786
1858.12, 0.836137
1858.79, 0.837796
1859.45, 0.840897
1860.12, 0.839743
1860.79, 0.837579
1861.46, 0.836137
1862.12, 0.835704
1862.79, 0.836065
1863.46, 0.837075
1864.13, 0.837363
1864.8, 0.836498
1865.48, 0.835849
1866.15, 0.835776
1866.82, 0.837724
1867.49, 0.841113
1868.16, 0.839743
1868.84, 0.838012
1869.51, 0.838301
1870.19, 0.841113
1870.86, 0.843205
1871.54, 0.839238
1872.21, 0.839454
1872.89, 0.842556
1873.56, 0.840104
1874.24, 0.837435
1874.92, 0.837579
1875.6, 0.837219
1876.28, 0.838156
1876.96, 0.838877
1877.64, 0.836570
1878.32, 0.835488
1879.0, 0.834911
1879.68, 0.834911
1880.36, 0.835055
1881.04, 0.835272
1881.73, 0.835127
1882.41, 0.834983
1883.09, 0.835776
1883.78, 0.837219
1884.46, 0.836065
1885.15, 0.834839
1885.83, 0.834767
1886.52, 0.835199
1887.21, 0.834839
1887.89, 0.834478
1888.58, 0.834406
1889.27, 0.835488
1889.96, 0.836642
1890.65, 0.834983
1891.34, 0.834478
1892.03, 0.835199
1892.72, 0.834767
1893.41, 0.834695
1894.1, 0.834334
1894.79, 0.833613
1895.49, 0.833324
1896.18, 0.833396
1896.87, 0.833973
1897.57, 0.834695
1898.26, 0.834839
1898.96, 0.837219
1899.65, 0.838156
1900.35, 0.836137
1901.05, 0.834262
1901.74, 0.834118
1902.44, 0.836570
1903.14, 0.836209
1903.84, 0.834046
1904.54, 0.836498
1905.24, 0.838445
1905.94, 0.837363
1906.64, 0.836930
1907.34, 0.834983
1908.04, 0.833973
1908.75, 0.833973
1909.45, 0.833973
1910.15, 0.834406
1910.86, 0.835272
1911.56, 0.835272
1912.27, 0.834983
1912.97, 0.837291
1913.68, 0.838156
1914.39, 0.835921
1915.09, 0.834839
1915.8, 0.835272
1916.51, 0.835488
1917.22, 0.834839
1917.93, 0.834406
1918.64, 0.834983
1919.35, 0.837219
1920.06, 0.839959
1920.77, 0.839094
1921.48, 0.835849
1922.19, 0.834695
1922.91, 0.834839
1923.62, 0.836281
1924.33, 0.836425
1925.05, 0.835704
1925.76, 0.835704
1926.48, 0.836137
1927.19, 0.835993
1927.91, 0.836425
1928.63, 0.836714
1929.35, 0.836137
1930.07, 0.836281
1930.78, 0.836281
1931.5, 0.836065
1932.22, 0.835849
1932.94, 0.835993
1933.66, 0.836425
1934.39, 0.836425
1935.11, 0.836353
1935.83, 0.837291
1936.55, 0.837291
1937.28, 0.836930
1938.0, 0.836714
1938.73, 0.837147
1939.45, 0.837507
1940.18, 0.837291
1940.9, 0.837147
1941.63, 0.837147
1942.36, 0.837075
1943.09, 0.837002
1943.81, 0.837291
1944.54, 0.837579
1945.27, 0.837291
1946.0, 0.837507
1946.73, 0.837651
1947.47, 0.837651
1948.2, 0.837435
1948.93, 0.836930
1949.66, 0.837002
1950.4, 0.837291
1951.13, 0.837363
1951.86, 0.837147
1952.6, 0.837363
1953.34, 0.837507
1954.07, 0.837507
1954.81, 0.837363
1955.55, 0.837002
1956.29, 0.837002
1957.02, 0.837219
1957.76, 0.837507
1958.5, 0.837363
1959.24, 0.837147
1959.98, 0.837075
1960.72, 0.836786
1961.47, 0.837002
1962.21, 0.837147
1962.95, 0.836714
1963.7, 0.836498
1964.44, 0.836642
1965.18, 0.836786
1965.93, 0.836714
1966.67, 0.836714
1967.42, 0.836570
1968.17, 0.836425
1968.92, 0.836065
1969.66, 0.835993
1970.41, 0.835993
1971.16, 0.835993
1971.91, 0.836065
1972.66, 0.835993
1973.41, 0.835776
1974.16, 0.835993
1974.92, 0.835993
1975.67, 0.835849
1976.42, 0.835632
1977.18, 0.835849
1977.93, 0.835849
1978.69, 0.835849
1979.44, 0.835776
1980.2, 0.835776
1980.95, 0.835776
1981.71, 0.835849
1982.47, 0.835776
1983.23, 0.835416
1983.99, 0.835272
1984.74, 0.835199
1985.51, 0.835199
1986.27, 0.835488
1987.03, 0.835488
1987.79, 0.835272
1988.55, 0.835199
1989.32, 0.835344
1990.08, 0.835199
1990.84, 0.835055
1991.61, 0.834983
1992.37, 0.834983
1993.14, 0.834911
1993.9, 0.834767
1994.67, 0.834550
1995.44, 0.834478
1996.21, 0.834623
1996.98, 0.834478
1997.75, 0.834478
1998.52, 0.834190
1999.29, 0.834262
2000.06, 0.834334
2000.83, 0.834406
2001.6, 0.834478
2002.38, 0.834334
2003.15, 0.834406
2003.93, 0.834478
2004.7, 0.834550
2005.48, 0.834550
2006.25, 0.834190
2007.03, 0.833901
2007.81, 0.834190
2008.58, 0.834478
2009.36, 0.834623
2010.14, 0.834911
2010.92, 0.834911
2011.7, 0.834767
2012.48, 0.834839
2013.26, 0.835055
2014.05, 0.834983
2014.83, 0.834983
2015.61, 0.835272
2016.4, 0.835560
2017.18, 0.835704
2017.97, 0.835776
2018.75, 0.835849
2019.54, 0.836209
2020.32, 0.836425
2021.11, 0.836353
2021.9, 0.836353
2022.69, 0.836498
2023.48, 0.836570
2024.27, 0.836570
2025.06, 0.836498
2025.85, 0.836642
2026.64, 0.836786
2027.44, 0.836858
2028.23, 0.836570
2029.02, 0.836425
2029.82, 0.836281
2030.61, 0.836281
2031.41, 0.836498
2032.2, 0.836498
2033.0, 0.836714
2033.8, 0.836786
2034.6, 0.836786
2035.4, 0.837002
2036.2, 0.836786
2037.0, 0.836498
2037.8, 0.836642
2038.6, 0.836786
2039.4, 0.836353
2040.2, 0.836281
2041.01, 0.836137
2041.81, 0.836353
2042.61, 0.836209
2043.42, 0.835849
2044.22, 0.835632
2045.03, 0.835416
2045.84, 0.834911
2046.65, 0.834623
2047.46, 0.834623
2048.26, 0.834550
2049.07, 0.834046
2049.88, 0.833469
2050.69, 0.833180
2051.51, 0.833324
2052.32, 0.833180
2053.13, 0.832243
2053.94, 0.831449
2054.76, 0.830945
2055.57, 0.830440
2056.39, 0.829646
2057.2, 0.828709
2058.02, 0.828060
2058.84, 0.827339
2059.66, 0.826257
2060.48, 0.824959
2061.29, 0.823588
2062.11, 0.822218
2062.94, 0.820632
2063.76, 0.818757
2064.58, 0.816593
2065.4, 0.814285
2066.22, 0.811689
2067.05, 0.808948
2067.87, 0.805487
2068.7, 0.801376
2069.52, 0.796328
2070.35, 0.790847
2071.18, 0.784284
2072.0, 0.776135
2072.83, 0.766327
2073.66, 0.754571
2074.49, 0.740508
2075.32, 0.724354
2076.15, 0.705748
2076.98, 0.684328
2077.82, 0.659087
2078.65, 0.630456
2079.48, 0.598941
2080.32, 0.567641
2081.15, 0.542328
2081.99, 0.529419
2082.83, 0.532159
2083.66, 0.549251
2084.5, 0.574565
2085.34, 0.602835
2086.18, 0.630312
2087.02, 0.655625
2087.86, 0.678343
2088.7, 0.698536
2089.54, 0.716133
2090.39, 0.731061
2091.23, 0.743754
2092.07, 0.754571
2092.92, 0.763586
2093.76, 0.771231
2094.61, 0.777505
2095.45, 0.783130
2096.3, 0.787746
2097.15, 0.791712
2098.0, 0.795174
2098.85, 0.798347
2099.7, 0.801016
2100.55, 0.803468
2101.4, 0.805559
2102.25, 0.807723
2103.1, 0.809309
2103.96, 0.810463
2104.81, 0.811761
2105.67, 0.813059
2106.52, 0.814213
2107.38, 0.815151
2108.24, 0.815944
2109.09, 0.816737
2109.95, 0.817531
2110.81, 0.818180
2111.67, 0.818757
2112.53, 0.819406
2113.39, 0.819766
2114.25, 0.820127
2115.12, 0.820776
2115.98, 0.821353
2116.84, 0.821281
2117.71, 0.821569
2118.58, 0.821930
2119.44, 0.822218
2120.31, 0.821578
2121.18, 0.821435
2122.04, 0.821791
2122.91, 0.821649
2123.78, 0.821435
2124.65, 0.821222
2125.52, 0.821079
2126.4, 0.820439
2127.27, 0.820439
2128.14, 0.819442
2129.02, 0.818303
2129.89, 0.816950
2130.77, 0.816523
2131.64, 0.815527
2132.52, 0.813889
2133.4, 0.812252
2134.27, 0.810615
2135.15, 0.808977
2136.03, 0.807055
2136.91, 0.805062
2137.79, 0.803710
2138.68, 0.801859
2139.56, 0.800364
2140.44, 0.799082
2141.33, 0.798299
2142.21, 0.798513
2143.1, 0.798157
2143.99, 0.797587
2144.87, 0.797516
2145.76, 0.796662
2146.65, 0.795665
2147.54, 0.794669
2148.43, 0.793387
2149.32, 0.791964
2150.21, 0.790967
2151.1, 0.790041
2151.99, 0.788902
2152.89, 0.788974
2153.78, 0.790255
2154.68, 0.790896
2155.57, 0.792035
2156.47, 0.793530
2157.37, 0.795523
2158.27, 0.797089
2159.16, 0.798442
2160.06, 0.799794
2160.96, 0.801574
2161.86, 0.803069
2162.77, 0.804706
2163.67, 0.805703
2164.57, 0.806201
2165.48, 0.806415
2166.38, 0.806699
2167.29, 0.806201
2168.2, 0.806272
2169.1, 0.806272
2170.01, 0.805988
2170.92, 0.805347
2171.83, 0.805347
2172.74, 0.805916
2173.65, 0.806415
2174.56, 0.807055
2175.47, 0.807411
2176.39, 0.808052
2177.3, 0.808835
2178.22, 0.809120
2179.13, 0.809049
2180.05, 0.809476
2180.96, 0.810259
2181.88, 0.810615
2182.8, 0.810757
2183.72, 0.811255
2184.64, 0.812181
2185.56, 0.812893
2186.48, 0.813391
2187.41, 0.813818
2188.33, 0.814103
2189.25, 0.813605
2190.18, 0.813106
2191.1, 0.812750
2192.03, 0.812466
2192.96, 0.812038
2193.89, 0.811754
2194.82, 0.811611
2195.74, 0.810330
2196.68, 0.809262
2197.61, 0.808337
2198.54, 0.807625
2199.47, 0.807411
2200.4, 0.806628
2201.34, 0.805988
2202.28, 0.805347
2203.21, 0.805347
2204.15, 0.805347
2205.08, 0.805276
2206.02, 0.804849
2206.96, 0.804920
2207.9, 0.804421
2208.84, 0.804208
2209.78, 0.804564
2210.73, 0.804564
2211.67, 0.804065
2212.61, 0.804137
2213.56, 0.805276
2214.5, 0.806130
2215.45, 0.806771
2216.4, 0.808408
2217.35, 0.809618
2218.3, 0.811469
2219.24, 0.812822
2220.2, 0.814601
2221.15, 0.815384
2222.1, 0.816025
2223.05, 0.817235
2224.0, 0.818161
2224.96, 0.818445
2225.91, 0.819300
2226.87, 0.819513
2227.83, 0.820083
2228.79, 0.820083
2229.74, 0.819869
2230.7, 0.820154
2231.66, 0.820154
2232.63, 0.819940
2233.59, 0.820652
2234.55, 0.820866
2235.51, 0.821079
2236.48, 0.821364
2237.44, 0.820723
2238.41, 0.821008
2239.38, 0.821364
2240.34, 0.821578
2241.31, 0.821435
2242.28, 0.821364
2243.25, 0.821079
2244.22, 0.820937
2245.19, 0.820723
2246.17, 0.820296
2247.14, 0.820083
2248.12, 0.820367
2249.09, 0.819940
2250.07, 0.819513
2251.04, 0.819157
2252.02, 0.818374
2253.0, 0.818089
2253.98, 0.816950
2254.96, 0.815171
2255.94, 0.813106
2256.92, 0.809903
2257.91, 0.805845
2258.89, 0.802001
2259.88, 0.799082
2260.86, 0.797872
2261.85, 0.798655
2262.83, 0.800791
2263.82, 0.803781
2264.81, 0.806842
2265.8, 0.809120
2266.79, 0.811042
2267.78, 0.813249
2268.78, 0.814744
2269.77, 0.815883
2270.76, 0.816666
2271.76, 0.817449
2272.75, 0.818018
2273.75, 0.819015
2274.75, 0.818873
2275.75, 0.818517
2276.75, 0.818659
2277.75, 0.819228
2278.75, 0.819656
2279.75, 0.819300
2280.75, 0.818944
2281.76, 0.818588
2282.76, 0.818445
2283.77, 0.818588
2284.77, 0.818445
2285.78, 0.817805
2286.79, 0.817164
2287.8, 0.816666
2288.81, 0.816239
2289.82, 0.815598
2290.83, 0.814886
2291.84, 0.813605
2292.86, 0.812038
2293.87, 0.811113
2294.89, 0.810330
2295.91, 0.809333
2296.92, 0.808550
2297.94, 0.807696
2298.96, 0.806415
2299.98, 0.805418
2301.0, 0.805062
2302.02, 0.804635
2303.04, 0.803852
2304.07, 0.803567
2305.09, 0.803282
2306.12, 0.802784
2307.15, 0.802855
2308.17, 0.802286
2309.2, 0.801716
2310.23, 0.801147
2311.26, 0.800862
2312.29, 0.800791
2313.32, 0.799937
2314.35, 0.798869
2315.39, 0.798513
2316.42, 0.798228
2317.46, 0.797659
2318.5, 0.796448
2319.53, 0.795025
2320.57, 0.794526
2321.61, 0.793601
2322.65, 0.791964
2323.69, 0.790255
2324.73, 0.789543
2325.78, 0.789330
2326.82, 0.789187
2327.86, 0.789187
2328.91, 0.789614
2329.96, 0.789472
2331.01, 0.789116
2332.05, 0.788547
2333.1, 0.788760
2334.15, 0.788831
2335.21, 0.788547
2336.26, 0.788404
2337.31, 0.788191
2338.36, 0.787763
2339.42, 0.787336
2340.48, 0.787123
2341.53, 0.786909
2342.59, 0.786696
2343.65, 0.786838
2344.71, 0.786553
2345.77, 0.786197
2346.83, 0.786411
2347.9, 0.786482
2348.96, 0.786340
2350.02, 0.786269
2351.09, 0.786340
2352.16, 0.786838
2353.23, 0.787479
2354.29, 0.787479
2355.36, 0.787265
2356.43, 0.786553
2357.51, 0.785699
2358.58, 0.785343
2359.65, 0.784987
2360.73, 0.784204
2361.8, 0.783777
2362.88, 0.783421
2363.96, 0.782851
2365.03, 0.782353
2366.11, 0.782068
2367.19, 0.781428
2368.27, 0.780787
2369.36, 0.780574
2370.44, 0.779933
2371.53, 0.779292
2372.61, 0.778936
2373.7, 0.778438
2374.78, 0.778224
2375.87, 0.778936
2376.96, 0.779648
2378.05, 0.780004
2379.14, 0.780502
2380.24, 0.781001
2381.33, 0.781357
2382.42, 0.781357
2383.52, 0.781428
2384.61, 0.781997
2385.71, 0.782424
2386.81, 0.782495
2387.91, 0.781428
2389.01, 0.780146
2390.11, 0.779150
2391.22, 0.778438
2392.32, 0.778153
2393.42, 0.777584
2394.53, 0.777512
2395.64, 0.776943
2396.74, 0.776160
2397.85, 0.775590
2398.96, 0.775519
2400.07, 0.775306
2401.18, 0.775092
2402.3, 0.774665
2403.41, 0.774665
2404.52, 0.774451
2405.64, 0.774523
2406.76, 0.773455
2407.88, 0.772316
2408.99, 0.770892
2410.11, 0.769041
2411.23, 0.766905
2412.36, 0.764983
2413.48, 0.763560
2414.6, 0.762705
2415.73, 0.762278
2416.85, 0.761566
2417.98, 0.760926
2419.11, 0.760356
2420.24, 0.760285
2421.37, 0.760285
2422.5, 0.759929
2423.64, 0.759715
2424.77, 0.759217
2425.9, 0.758719
2427.04, 0.758861
2428.18, 0.759288
2429.31, 0.759288
2430.45, 0.759431
2431.59, 0.759146
2432.73, 0.758790
2433.88, 0.758790
2435.02, 0.759075
2436.16, 0.759715
2437.31, 0.760783
2438.45, 0.762278
2439.6, 0.763488
2440.75, 0.763488
2441.9, 0.762421
2443.05, 0.760712
2444.2, 0.758932
2445.35, 0.757295
2446.51, 0.755658
2447.67, 0.754590
2448.82, 0.753736
2449.98, 0.752312
2451.14, 0.751387
2452.3, 0.750319
2453.46, 0.748753
2454.62, 0.746475
2455.78, 0.743556
2456.94, 0.741207
2458.11, 0.738929
2459.28, 0.735939
2460.44, 0.733590
2461.61, 0.731739
2462.78, 0.730030
2463.95, 0.728179
2465.12, 0.726328
2466.3, 0.724691
2467.47, 0.722840
2468.65, 0.721061
2469.82, 0.719637
2471.0, 0.718925
2472.18, 0.718854
2473.36, 0.719352
2474.54, 0.719708
2475.72, 0.719850
2476.9, 0.719779
2478.08, 0.719637
2479.27, 0.719566
2480.46, 0.718640
2481.64, 0.717216
2482.83, 0.714938
2484.02, 0.712091
2485.21, 0.708887
2486.4, 0.706182
2487.6, 0.704687
2488.79, 0.704047
2489.99, 0.703192
2491.18, 0.700914
2492.38, 0.697925
2493.58, 0.693938
2494.78, 0.689097
2495.98, 0.682975
2497.18, 0.676711
2498.39, 0.672083
2499.59, 0.668880
2500.8, 0.667100
2502.01, 0.665961
2503.21, 0.665392
2504.42, 0.665178
2505.63, 0.665107
2506.84, 0.665321
2508.06, 0.665463
2509.27, 0.664182
2510.49, 0.661619
2511.7, 0.658059
2512.92, 0.653859
2514.14, 0.648307
2515.36, 0.641544
2516.58, 0.634639
2517.8, 0.629086
2519.03, 0.625598
2520.25, 0.623960
2521.48, 0.622893
2522.7, 0.622323
2523.93, 0.622038
2525.16, 0.621113
2526.39, 0.618835
2527.62, 0.614848
2528.86, 0.610364
2530.09, 0.606377
2531.33, 0.603458
2532.56, 0.602248
2533.8, 0.602035
2535.04, 0.602462
2536.28, 0.604028
2537.52, 0.606235
2538.76, 0.609581
2540.01, 0.612214
2541.25, 0.613069
2542.5, 0.611930
2543.75, 0.607943
2544.99, 0.603743
2546.24, 0.602177
2547.49, 0.602960
2548.75, 0.603886
2550.0, 0.605309
2551.26, 0.608299
2552.51, 0.612499
2553.77, 0.616842
2555.03, 0.622110
2556.29, 0.628516
2557.55, 0.635208
2558.81, 0.641971
2560.08, 0.648378
2561.34, 0.652578
2562.61, 0.654714
2563.88, 0.658131
2565.14, 0.660978
2566.41, 0.663683
2567.68, 0.667812
2568.96, 0.672083
2570.23, 0.673578
2571.51, 0.676070
2572.78, 0.682192
2574.06, 0.685040
2575.34, 0.688812
2576.62, 0.694650
2577.9, 0.697070
2579.18, 0.700274
2580.47, 0.704616
2581.75, 0.706040
2583.04, 0.708247
2584.32, 0.704687
2585.61, 0.698779
2586.9, 0.697141
2588.2, 0.695006
2589.49, 0.694507
2590.78, 0.694152
2592.08, 0.694935
2593.37, 0.700986
2594.67, 0.703406
2595.97, 0.693013
2597.27, 0.684541
2598.57, 0.679985
2599.88, 0.678277
2601.18, 0.678490
2602.49, 0.679629
2603.79, 0.683402
2605.1, 0.687175
2606.41, 0.686463
2607.72, 0.686962
2609.03, 0.688528
2610.35, 0.688741
2611.66, 0.689168
2612.98, 0.689596
2614.3, 0.688172
2615.62, 0.689524
2616.94, 0.687745
2618.26, 0.683260
2619.58, 0.685680
2620.91, 0.685680
2622.23, 0.685040
2623.56, 0.688741
2624.89, 0.694650
2626.22, 0.701769
2627.55, 0.703406
2628.88, 0.708318
2630.21, 0.714440
2631.55, 0.713515
2632.89, 0.715152
2634.22, 0.717288
2635.56, 0.717501
2636.9, 0.719067
2638.25, 0.719850
2639.59, 0.721061
2640.93, 0.722271
2642.28, 0.722983
2643.63, 0.723908
2644.98, 0.725901
2646.33, 0.725261
2647.68, 0.724905
2649.03, 0.725189
2650.39, 0.726257
2651.74, 0.728393
2653.1, 0.727823
2654.46, 0.727467
2655.82, 0.727467
2657.18, 0.725973
2658.54, 0.727183
2659.9, 0.727183
2661.27, 0.726044
2662.64, 0.725474
2664.01, 0.729389
2665.38, 0.731739
2666.74, 0.729674
2668.12, 0.725617
2669.49, 0.730173
2670.87, 0.726969
2672.24, 0.718783
2673.62, 0.718355
2675.0, 0.719779
2676.38, 0.720206
2677.76, 0.717501
2679.15, 0.715508
2680.54, 0.710525
2681.92, 0.708674
2683.31, 0.707606
2684.7, 0.705470
2686.09, 0.703335
2687.48, 0.700131
2688.88, 0.697284
2690.27, 0.694223
2691.67, 0.692657
2693.07, 0.692372
2694.47, 0.687958
2695.87, 0.681978
2697.27, 0.676639
2698.67, 0.672083
2700.08, 0.668382
2701.49, 0.663399
2702.9, 0.657134
2704.31, 0.651225
2705.72, 0.644961
2707.13, 0.638910
2708.54, 0.633286
2709.96, 0.627662
2711.38, 0.617838
2712.8, 0.605025
2714.22, 0.594631
2715.64, 0.583099
2717.06, 0.570783
2718.49, 0.558681
2719.91, 0.546579
2721.34, 0.525650
2722.77, 0.505646
2724.2, 0.484219
2725.63, 0.455459
2727.07, 0.424492
2728.5, 0.390607
2729.94, 0.351454
2731.38, 0.306321
2732.82, 0.254781
2734.26, 0.196621
2735.7, 0.136325
2737.15, 0.0896970
2738.59, 0.0595130
2740.04, 0.0485500
2741.49, 0.0581600
2742.94, 0.0797300
2744.39, 0.106710
2745.84, 0.133477
2747.3, 0.154904
2748.76, 0.172274
2750.21, 0.198329
2751.67, 0.239191
2753.14, 0.286815
2754.6, 0.335935
2756.06, 0.378363
2757.53, 0.407906
2759.0, 0.430116
2760.46, 0.448554
2761.94, 0.465497
2763.41, 0.478097
2764.88, 0.489558
2766.36, 0.504223
2767.83, 0.516894
2769.31, 0.524938
2770.79, 0.526576
2772.27, 0.520809
2773.76, 0.519243
2775.24, 0.526932
2776.73, 0.536613
2778.22, 0.542308
2779.71, 0.542878
2781.2, 0.541810
2782.69, 0.546295
2784.18, 0.555691
2785.68, 0.565017
2787.18, 0.570427
2788.68, 0.571851
2790.18, 0.572776
2791.68, 0.574912
2793.19, 0.577688
2794.69, 0.579397
2796.2, 0.580536
2797.71, 0.581319
2799.22, 0.581817
2800.73, 0.583170
2802.24, 0.584878
2803.76, 0.584950
2805.28, 0.584166
2806.8, 0.583882
2808.32, 0.583312
2809.84, 0.581675
2811.36, 0.580322
2812.89, 0.579397
2814.42, 0.577475
2815.94, 0.573915
2817.48, 0.568576
2819.01, 0.563166
2820.54, 0.559892
2822.08, 0.559536
2823.61, 0.559037
2825.15, 0.557898
2826.69, 0.556617
2828.23, 0.555834
2829.78, 0.556902
2831.32, 0.560603
2832.87, 0.565373
2834.42, 0.569573
2835.97, 0.572065
2837.52, 0.573346
2839.08, 0.573773
2840.63, 0.574343
2842.19, 0.574485
2843.75, 0.573773
2845.31, 0.572563
2846.87, 0.571282
2848.44, 0.569644
2850.0, 0.567509
2851.57, 0.564590
2853.14, 0.561600
2854.71, 0.557329
2856.28, 0.551491
2857.86, 0.545084
2859.43, 0.538891
2861.01, 0.531772
2862.59, 0.523515
2864.17, 0.514758
2865.76, 0.507284
2867.34, 0.504223
2868.93, 0.506786
2870.52, 0.513264
2872.11, 0.520454
2873.7, 0.526291
2875.29, 0.530562
2876.89, 0.533766
2878.49, 0.536400
2880.08, 0.538037
2881.69, 0.539033
2883.29, 0.540386
2884.89, 0.541881
2886.5, 0.543661
2888.11, 0.545227
2889.72, 0.545440
2891.33, 0.544800
2892.94, 0.543091
2894.56, 0.540884
2896.17, 0.537752
2897.79, 0.533125
2899.42, 0.526647
2901.04, 0.522304
2902.66, 0.524511
2904.29, 0.525152
2905.92, 0.515257
2907.55, 0.494684
2909.18, 0.473754
2910.81, 0.475178
2912.45, 0.495182
2914.08, 0.511484
2915.72, 0.519101
2917.36, 0.519528
2919.01, 0.514758
2920.65, 0.507996
2922.3, 0.501660
2923.94, 0.498528
2925.59, 0.504863
2927.25, 0.519172
2928.9, 0.532484
2930.56, 0.540386
2932.21, 0.544515
2933.87, 0.548003
2935.53, 0.552132
2937.2, 0.555620
2938.86, 0.557542
2940.53, 0.557827
2942.2, 0.557613
2943.87, 0.557542
2945.54, 0.557756
2947.22, 0.558112
2948.89, 0.557400
2950.57, 0.555905
2952.25, 0.554339
2953.93, 0.552702
2955.62, 0.551278
2957.3, 0.550139
2958.99, 0.548929
2960.68, 0.547291
2962.37, 0.545868
2964.07, 0.544586
2965.76, 0.543518
2967.46, 0.543162
2969.16, 0.543874
2970.86, 0.544871
2972.56, 0.545796
2974.27, 0.545796
2975.98, 0.544800
2977.69, 0.543945
2979.4, 0.543234
2981.11, 0.543305
2982.83, 0.543661
2984.54, 0.544230
2986.26, 0.545013
2987.98, 0.546366
2989.71, 0.548501
2991.43, 0.550495
2993.16, 0.552346
2994.89, 0.553983
2996.62, 0.554908
2998.35, 0.555549
3000.09, 0.556119
3001.83, 0.556759
3003.57, 0.557115
3005.31, 0.557400
3007.05, 0.558539
3008.79, 0.560319
3010.54, 0.562454
3012.29, 0.564519
3014.04, 0.566512
3015.8, 0.568576
3017.55, 0.570214
3019.31, 0.571709
3021.07, 0.572990
3022.83, 0.573844
3024.59, 0.574485
3026.36, 0.574912
3028.13, 0.574983
3029.9, 0.575268
3031.67, 0.575695
3033.44, 0.576122
3035.22, 0.576692
3037.0, 0.577831
3038.78, 0.579397
3040.56, 0.581105
3042.34, 0.582529
3044.13, 0.583597
3045.92, 0.584594
3047.71, 0.585519
3049.5, 0.586160
3051.3, 0.586943
3053.09, 0.588082
3054.89, 0.589007
3056.69, 0.589862
3058.5, 0.590929
3060.3, 0.591784
3062.11, 0.592424
3063.92, 0.592923
3065.73, 0.593492
3067.55, 0.594062
3069.36, 0.594631
3071.18, 0.595129
3073.0, 0.595485
3074.82, 0.595557
3076.65, 0.595699
3078.48, 0.596197
3080.31, 0.596696
3082.14, 0.597265
3083.97, 0.597835
3085.8, 0.598333
3087.64, 0.599187
3089.48, 0.599757
3091.33, 0.600397
3093.17, 0.601180
3095.02, 0.601892
3096.87, 0.602747
3098.72, 0.603530
3100.57, 0.604170
3102.43, 0.604811
3104.28, 0.605380
3106.14, 0.606092
3108.01, 0.606804
3109.87, 0.607160
3111.74, 0.607445
3113.61, 0.608086
3115.48, 0.608655
3117.35, 0.609153
3119.23, 0.609794
3121.1, 0.610506
3122.98, 0.611431
3124.87, 0.612001
3126.75, 0.612357
3128.64, 0.612642
3130.53, 0.612926
3132.42, 0.613140
3134.31, 0.613638
3136.21, 0.614065
3138.11, 0.614350
3140.01, 0.614777
3141.91, 0.615204
3143.82, 0.615560
3145.73, 0.616059
3147.64, 0.616272
3149.55, 0.616628
3151.46, 0.617055
3153.38, 0.617482
3155.3, 0.617838
3157.22, 0.618123
3159.14, 0.618408
3161.07, 0.618693
3163.0, 0.619191
3164.93, 0.619760
3166.86, 0.620401
3168.8, 0.620971
3170.74, 0.621398
3172.68, 0.621967
3174.62, 0.622750
3176.56, 0.623249
3178.51, 0.623533
3180.46, 0.623960
3182.42, 0.624459
3184.37, 0.625028
3186.33, 0.625598
3188.29, 0.625954
3190.25, 0.626452
3192.21, 0.626666
3194.18, 0.626950
3196.15, 0.627662
3198.12, 0.628089
3200.09, 0.628374
3202.07, 0.628801
3204.05, 0.629228
3206.03, 0.629655
3208.02, 0.630011
3210.0, 0.630154
3211.99, 0.630510
3213.98, 0.630937
3215.98, 0.631293
3217.97, 0.631934
3219.97, 0.632361
3221.97, 0.632788
3223.98, 0.633072
3225.98, 0.633144
3227.99, 0.633357
3230.0, 0.633784
3232.02, 0.634069
3234.03, 0.634354
3236.05, 0.634639
3238.07, 0.634781
3240.1, 0.634995
3242.12, 0.635351
3244.15, 0.635635
3246.18, 0.635920
3248.22, 0.636205
3250.25, 0.636703
3252.29, 0.637130
3254.33, 0.637486
3256.38, 0.637984
3258.43, 0.638340
3260.47, 0.638767
3262.53, 0.639195
3264.58, 0.639479
3266.64, 0.639907
3268.7, 0.640191
3270.76, 0.640547
3272.82, 0.641046
3274.89, 0.641330
3276.96, 0.641757
3279.04, 0.642327
3281.11, 0.642612
3283.19, 0.642754
3285.27, 0.642968
3287.35, 0.643252
3289.44, 0.643537
3291.53, 0.643822
3293.62, 0.644320
3295.71, 0.644818
3297.81, 0.645174
3299.91, 0.645530
3302.01, 0.645673
3304.11, 0.645957
3306.22, 0.646313
3308.33, 0.646741
3310.44, 0.647025
3312.56, 0.647310
3314.68, 0.647737
3316.8, 0.648164
3318.92, 0.648591
3321.05, 0.648947
3323.18, 0.649161
3325.31, 0.649090
3327.44, 0.649375
3329.58, 0.649659
3331.72, 0.649944
3333.86, 0.650371
3336.01, 0.650656
3338.16, 0.651083
3340.31, 0.651581
3342.46, 0.651581
3344.61, 0.651510
3346.77, 0.651439
3348.94, 0.651439
3351.1, 0.651439
3353.27, 0.651225
3355.44, 0.651083
3357.61, 0.650869
3359.79, 0.650656
3361.97, 0.650371
3364.15, 0.650300
3366.33, 0.650158
3368.52, 0.650158
3370.71, 0.650300
3372.9, 0.650585
3375.1, 0.650656
3377.3, 0.650869
3379.5, 0.651297
3381.71, 0.651653
3383.91, 0.652080
3386.12, 0.652222
3388.34, 0.652436
3390.55, 0.652649
3392.77, 0.652720
3394.99, 0.652507
3397.22, 0.652293
3399.45, 0.651937
3401.68, 0.651653
3403.91, 0.651439
3406.15, 0.651297
3408.39, 0.651083
3410.63, 0.651154
3412.87, 0.651225
3415.12, 0.651581
3417.37, 0.652222
3419.63, 0.653219
3421.88, 0.654429
3424.14, 0.655995
3426.41, 0.657205
3428.67, 0.658344
3430.94, 0.659412
3433.21, 0.660337
3435.49, 0.661334
3437.77, 0.662117
3440.05, 0.662758
3442.33, 0.663399
3444.62, 0.663897
3446.91, 0.664538
3449.2, 0.665249
3451.5, 0.665676
3453.8, 0.666032
3456.1, 0.666460
3458.41, 0.666602
3460.72, 0.666673
3463.03, 0.667171
3465.34, 0.667243
3467.66, 0.667100
3469.98, 0.667243
3472.31, 0.667527
3474.63, 0.667812
3476.96, 0.667955
3479.3, 0.668168
3481.64, 0.668453
3483.97, 0.668453
3486.32, 0.668453
3488.66, 0.668382
3491.01, 0.668310
3493.36, 0.668239
3495.72, 0.668026
3498.08, 0.667741
3500.44, 0.667955
3502.81, 0.668382
3505.18, 0.669022
3507.55, 0.670019
3509.92, 0.670944
3512.3, 0.671799
3514.68, 0.672368
3517.06, 0.672938
3519.45, 0.673436
3521.84, 0.673934
3524.24, 0.674290
3526.64, 0.674717
3529.04, 0.674717
3531.44, 0.674931
3533.85, 0.675144
3536.26, 0.675073
3538.67, 0.675144
3541.09, 0.675287
3543.51, 0.675500
3545.93, 0.675572
3548.36, 0.675714
3550.79, 0.675856
3553.22, 0.675999
3555.66, 0.676070
3558.1, 0.676070
3560.54, 0.676212
3562.99, 0.676283
3565.44, 0.676426
3567.9, 0.676711
3570.35, 0.676853
3572.81, 0.676924
3575.28, 0.677138
3577.75, 0.677351
3580.22, 0.677565
3582.69, 0.677636
3585.17, 0.677494
3587.65, 0.677423
3590.14, 0.677565
3592.62, 0.677565
3595.11, 0.677707
3597.61, 0.677921
3600.11, 0.677921
3602.61, 0.677992
3605.11, 0.678063
3607.62, 0.678277
3610.14, 0.678277
3612.65, 0.678277
3615.17, 0.678348
3617.69, 0.678277
3620.22, 0.678419
3622.75, 0.678348
3625.28, 0.678490
3627.82, 0.678846
3630.36, 0.678917
3632.9, 0.679060
3635.45, 0.679344
3638.0, 0.679487
3640.56, 0.679629
3643.12, 0.680056
3645.68, 0.680341
3648.24, 0.680555
3650.81, 0.680911
3653.39, 0.681409
3655.96, 0.681694
3658.54, 0.682263
3661.13, 0.682904
3663.71, 0.683687
3666.3, 0.684114
3668.9, 0.684399
3671.5, 0.684755
3674.1, 0.685324
3676.7, 0.685894
3679.31, 0.686392
3681.93, 0.686819
3684.54, 0.687389
3687.17, 0.687745
3689.79, 0.688029
3692.42, 0.688314
3695.05, 0.688812
3697.69, 0.689311
3700.32, 0.689596
3702.97, 0.689667
3705.61, 0.689738
3708.27, 0.689240
3710.92, 0.687175
3713.58, 0.683901
3716.24, 0.684043
3718.91, 0.687460
3721.58, 0.689738
3724.25, 0.690592
3726.93, 0.690877
3729.61, 0.691233
3732.29, 0.691446
3734.98, 0.691518
3737.67, 0.691518
3740.37, 0.691731
3743.07, 0.691874
3745.78, 0.691802
3748.49, 0.691802
3751.2, 0.691802
3753.91, 0.691518
3756.63, 0.691375
3759.36, 0.691162
3762.09, 0.690877
3764.82, 0.690663
3767.55, 0.690307
3770.29, 0.690094
3773.04, 0.690023
3775.78, 0.689667
3778.54, 0.689240
3781.29, 0.688884
3784.05, 0.688528
3786.82, 0.688172
3789.59, 0.687745
3792.36, 0.687389
3795.13, 0.687104
3797.92, 0.686748
3800.7, 0.686179
3803.49, 0.685538
3806.28, 0.685040
3809.08, 0.684612
3811.88, 0.684043
3814.68, 0.683473
3817.49, 0.682975
3820.31, 0.682406
3823.12, 0.681836
3825.94, 0.681338
3828.77, 0.680697
3831.6, 0.679985
3834.43, 0.679416
3837.27, 0.679060
3840.11, 0.678490
3842.96, 0.677850
3845.81, 0.677636
3848.67, 0.677494
3851.53, 0.677280
3854.39, 0.677565
3857.26, 0.677778
3860.13, 0.678063
3863.01, 0.678490
3865.89, 0.679060
3868.77, 0.679700
3871.66, 0.680412
3874.55, 0.681195
3877.45, 0.682050
3880.35, 0.682975
3883.26, 0.683972
3886.17, 0.684826
3889.09, 0.685609
3892.01, 0.686392
3894.93, 0.687175
3897.86, 0.687816
3900.79, 0.688314
3903.73, 0.688741
3906.67, 0.689168
3909.62, 0.689453
3912.57, 0.689667
3915.52, 0.690023
3918.48, 0.690094
3921.45, 0.690307
3924.42, 0.690521
3927.39, 0.690379
3930.37, 0.690379
3933.35, 0.690307
3936.34, 0.690236
3939.33, 0.690307
3942.32, 0.690307
3945.32, 0.690165
3948.33, 0.690023
3951.34, 0.690165
3954.35, 0.690236
3957.37, 0.690094
3960.39, 0.689952
3963.42, 0.690023
3966.45, 0.690023
3969.49, 0.689952
3972.53, 0.689809
3975.58, 0.689952
3978.63, 0.689952
3981.68, 0.689809
3984.75, 0.689809
3987.81, 0.689809
3990.88, 0.689667
3993.95, 0.689453
3997.03, 0.688955
4000.12, 0.688528
4003.21, 0.687887
4006.3, 0.687033
4009.4, 0.685965
4012.5, 0.684612
4015.61, 0.683046
4018.72, 0.681195
4021.84, 0.679843
4024.96, 0.679558
4028.09, 0.680484
4031.22, 0.681836
4034.36, 0.683189
4037.5, 0.684470
4040.65, 0.685609
4043.8, 0.686463
4046.96, 0.686962
4050.12, 0.687460
4053.29, 0.687531
4056.46, 0.687745
4059.64, 0.687887
4062.82, 0.687816
4066.0, 0.687745
4069.19, 0.687531
4072.39, 0.687318
4075.59, 0.687246
4078.8, 0.686962
4082.01, 0.686534
4085.23, 0.686179
4088.45, 0.686036
4091.68, 0.685751
4094.91, 0.685395
4098.15, 0.685182
4101.39, 0.684826
4104.63, 0.684541
4107.89, 0.684328
4111.14, 0.683972
4114.41, 0.683758
4117.67, 0.683402
4120.95, 0.683260
4124.23, 0.683260
4127.51, 0.683260
4130.8, 0.683118
4134.09, 0.682904
4137.39, 0.682548
4140.7, 0.682548
4144.01, 0.682548
4147.32, 0.682406
4150.64, 0.682192
4153.97, 0.682050
4157.3, 0.681978
4160.64, 0.681765
4163.98, 0.681694
4167.33, 0.681480
4170.68, 0.681124
4174.04, 0.680839
4177.4, 0.680555
4180.77, 0.680341
4184.14, 0.679985
4187.52, 0.679558
4190.91, 0.679202
4194.3, 0.678633
4197.69, 0.678063
4201.1, 0.677494
4204.5, 0.676782
4207.92, 0.675928
4211.34, 0.674860
4214.76, 0.673721
4218.19, 0.672368
4221.62, 0.671016
4225.06, 0.669449
4228.51, 0.668026
4231.96, 0.666744
4235.42, 0.665748
4238.88, 0.664466
4242.35, 0.663043
4245.83, 0.661761
4249.31, 0.660409
4252.79, 0.658842
4256.28, 0.656849
4259.78, 0.653646
4263.29, 0.649303
4266.79, 0.644391
4270.31, 0.639052
4273.83, 0.633072
4277.35, 0.626096
4280.89, 0.618621
4284.42, 0.610008
4287.97, 0.599899
4291.52, 0.588367
4295.07, 0.575268
4298.63, 0.560532
4302.2, 0.545013
4305.78, 0.530491
4309.35, 0.519386
4312.94, 0.514403
4316.53, 0.517179
4320.13, 0.527003
4323.73, 0.541312
4327.34, 0.557613
4330.96, 0.573631
4334.58, 0.587939
4338.21, 0.600326
4341.84, 0.610720
4345.48, 0.619476
4349.12, 0.627093
4352.77, 0.633500
4356.43, 0.638910
4360.1, 0.643395
4363.76, 0.647381
4367.44, 0.650585
4371.12, 0.653005
4374.81, 0.655070
4378.51, 0.656707
4382.21, 0.657988
4385.92, 0.658914
4389.63, 0.659697
4393.35, 0.660551
4397.08, 0.661049
4400.81, 0.661192
4404.55, 0.661334
4408.29, 0.661619
4412.04, 0.661619
4415.8, 0.661619
4419.57, 0.661548
4423.34, 0.661405
4427.12, 0.661334
4430.9, 0.661263
4434.69, 0.660978
4438.49, 0.660836
4442.29, 0.660693
4446.1, 0.660409
4449.92, 0.660053
4453.74, 0.659697
4457.57, 0.659412
4461.41, 0.659127
4465.25, 0.658700
4469.1, 0.658415
4472.95, 0.658059
4476.82, 0.657703
4480.69, 0.657348
4484.56, 0.657063
4488.44, 0.656564
4492.33, 0.656137
4496.23, 0.655639
4500.13, 0.655141
4504.04, 0.654500
4507.96, 0.654002
4511.88, 0.653503
4515.81, 0.652863
4519.75, 0.652222
4523.69, 0.651510
4527.65, 0.650656
4531.6, 0.649730
4535.57, 0.648876
4539.54, 0.647951
4543.52, 0.646954
4547.5, 0.646242
4551.5, 0.645459
4555.5, 0.644676
4559.5, 0.643964
4563.52, 0.643252
4567.54, 0.642612
4571.56, 0.641971
4575.6, 0.641330
4579.64, 0.640832
4583.69, 0.640334
4587.75, 0.639693
4591.81, 0.639195
4595.88, 0.638767
4599.96, 0.637913
4604.04, 0.637201
4608.14, 0.636418
4612.24, 0.635849
4616.34, 0.635351
4620.46, 0.634781
4624.58, 0.634283
4628.71, 0.633998
4632.84, 0.633784
4636.99, 0.633642
4641.14, 0.633500
4645.3, 0.633357
4649.47, 0.633286
4653.64, 0.633144
4657.82, 0.633001
4662.01, 0.632859
4666.21, 0.632503
4670.41, 0.632289
4674.62, 0.631934
4678.84, 0.631578
4683.07, 0.631150
4687.3, 0.630581
4691.54, 0.630011
4695.79, 0.629442
4700.05, 0.628801
4704.31, 0.628232
4708.59, 0.627733
4712.87, 0.627093
4717.15, 0.626452
4721.45, 0.625954
4725.76, 0.625384
4730.07, 0.624744
4734.39, 0.623960
4738.72, 0.623391
4743.05, 0.622679
4747.39, 0.621611
4751.75, 0.620686
4756.1, 0.619903
4760.47, 0.619120
4764.85, 0.618337
4769.23, 0.617411
4773.62, 0.616486
4778.02, 0.615418
4782.43, 0.614421
4786.85, 0.613282
4791.27, 0.611858
4795.7, 0.610435
4800.14, 0.609011
4804.59, 0.607374
4809.05, 0.605665
4813.51, 0.603672
4817.99, 0.601536
4822.47, 0.599329
4826.96, 0.597123
4831.46, 0.594631
4835.96, 0.592068
4840.48, 0.589221
4845.0, 0.586160
4849.54, 0.582885
4854.08, 0.579326
4858.63, 0.575482
4863.18, 0.571424
4867.75, 0.566939
4872.33, 0.561956
4876.91, 0.556403
4881.5, 0.550424
4886.1, 0.543661
4890.71, 0.536328
4895.33, 0.528427
4899.96, 0.519955
4904.59, 0.510985
4909.24, 0.501446
4913.89, 0.491694
4918.55, 0.482012
4923.22, 0.472900
4927.9, 0.464500
4932.59, 0.457168
4937.29, 0.451330
4942.0, 0.446845
4946.71, 0.443927
4951.44, 0.442717
4956.17, 0.443072
4960.91, 0.444425
4965.67, 0.446703
4970.43, 0.449622
4975.2, 0.452896
4979.98, 0.455815
4984.76, 0.458235
4989.56, 0.460086
4994.37, 0.461154
4999.18, 0.461439
5004.01, 0.461154
5008.84, 0.460513
5013.69, 0.459588
5018.54, 0.458378
5023.4, 0.456527
5028.28, 0.454320
5033.16, 0.452184
5038.05, 0.449835
5042.95, 0.447273
5047.86, 0.444567
5052.78, 0.441720
5057.71, 0.438730
5062.65, 0.435527
5067.6, 0.432110
5072.56, 0.428408
5077.53, 0.424635
5082.5, 0.420720
5087.49, 0.416306
5092.49, 0.411963
5097.5, 0.407621
5102.51, 0.403136
5107.54, 0.398936
5112.58, 0.394950
5117.62, 0.390963
5122.68, 0.387261
5127.75, 0.383702
5132.82, 0.380214
5137.91, 0.376725
5143.01, 0.373664
5148.12, 0.370105
5153.23, 0.365763
5158.36, 0.361634
5163.5, 0.357220
5168.65, 0.352450
5173.81, 0.347539
5178.98, 0.342199
5184.15, 0.336433
5189.34, 0.330240
5194.54, 0.323833
5199.75, 0.317284
5204.98, 0.310094
5210.21, 0.303189
5215.45, 0.295429
5220.7, 0.287243
5225.96, 0.279341
5231.23, 0.271510
5236.52, 0.263751
5241.81, 0.256205
5247.12, 0.248943
5252.44, 0.242394
5257.76, 0.236414
5263.1, 0.231075
5268.45, 0.226519
5273.81, 0.222889
5279.18, 0.219329
5284.56, 0.216268
5289.95, 0.213777
5295.36, 0.210929
5300.77, 0.207939
5306.2, 0.205163
5311.63, 0.202102
5317.08, 0.199183
5322.54, 0.196407
5328.01, 0.193987
5333.49, 0.191709
5338.98, 0.189786
5344.49, 0.188292
5350.0, 0.187081
5355.53, 0.185302
5361.07, 0.184020
5366.62, 0.183308
5372.18, 0.183095
5377.75, 0.183024
5383.34, 0.183237
5388.93, 0.183664
5394.54, 0.184447
5400.16, 0.185017
5405.79, 0.185444
5411.44, 0.185729
5417.09, 0.186156
5422.76, 0.185586
5428.43, 0.183522
5434.12, 0.181529
5439.83, 0.179678
5445.54, 0.177542
5451.26, 0.175407
5457.0, 0.173485
5462.75, 0.171918
5468.52, 0.169925
5474.29, 0.168430
5480.08, 0.167220
5485.88, 0.165796
5491.69, 0.164657
5497.51, 0.163732
5503.35, 0.162878
5509.2, 0.162308
5515.06, 0.162023
5520.93, 0.162237
5526.82, 0.162664
5532.71, 0.163661
5538.63, 0.165369
5544.55, 0.167932
5550.49, 0.171207
5556.44, 0.174837
5562.4, 0.178895
5568.37, 0.184020
5574.36, 0.190427
5580.36, 0.197190
5586.37, 0.203312
5592.4, 0.210502
5598.44, 0.218546
5604.49, 0.226733
5610.56, 0.234635
5616.63, 0.242608
5622.73, 0.249798
5628.83, 0.256774
5634.95, 0.264178
5641.08, 0.271510
5647.23, 0.276351
5653.39, 0.281049
5659.56, 0.285249
5665.74, 0.289093
5671.94, 0.294005
5678.15, 0.297707
5684.38, 0.300626
5690.62, 0.304043
5696.87, 0.306036
5703.14, 0.308599
5709.42, 0.311304
5715.72, 0.311660
5722.03, 0.310877
5728.35, 0.309595
5734.69, 0.308029
5741.03, 0.306321
5747.4, 0.304256
5753.78, 0.300412
5760.17, 0.299344
5766.58, 0.298348
5773.0, 0.293578
5779.44, 0.291015
5785.88, 0.290090
5792.35, 0.290731
5798.83, 0.292582
5805.32, 0.294931
5811.83, 0.298633
5818.35, 0.304470
5824.89, 0.308385
5831.45, 0.310948
5838.01, 0.314507
5844.59, 0.318992
5851.19, 0.324474
5857.8, 0.330453
5864.43, 0.335437
5871.07, 0.339637
5877.73, 0.347040
5884.4, 0.349247
5891.09, 0.350742
5897.79, 0.353661
5904.5, 0.353305
5911.23, 0.355939
5917.98, 0.359213
5924.75, 0.362346
5931.53, 0.368325
5938.32, 0.371529
5945.13, 0.369037
5951.96, 0.368539
5958.8, 0.368752
5965.65, 0.370603
5972.53, 0.369322
5979.42, 0.367258
5986.32, 0.366973
5993.24, 0.364054
6000.18, 0.360139
6007.13, 0.358573
6014.1, 0.356793
6021.08, 0.353091
6028.09, 0.350030
6035.1, 0.348250
6042.14, 0.350600
6049.19, 0.350956
6056.25, 0.342698
6063.34, 0.339281
6070.44, 0.338925
6077.55, 0.335437
6084.69, 0.331450
6091.84, 0.329386
6099.0, 0.328104
6106.19, 0.328887
6113.39, 0.329101
6120.61, 0.325257
6127.84, 0.322623
6135.09, 0.321911
6142.36, 0.321057
6149.65, 0.319846
6156.95, 0.319348
6164.27, 0.317141
6171.61, 0.314935
6178.97, 0.315575
6186.34, 0.315077
6193.73, 0.311375
6201.14, 0.309453
6208.57, 0.308243
6216.01, 0.306890
6223.47, 0.305039
6230.95, 0.303402
6238.45, 0.301836
6245.97, 0.300199
6253.5, 0.298633
6261.06, 0.297422
6268.63, 0.296568
6276.21, 0.295714
6283.82, 0.294931
6291.45, 0.294432
6299.1, 0.293649
6306.76, 0.293080
6314.44, 0.292154
6322.14, 0.291015
6329.86, 0.289876
6337.6, 0.290517
6345.35, 0.289663
6353.13, 0.285890
6360.92, 0.284324
6368.74, 0.283968
6376.57, 0.281690
6384.43, 0.279839
6392.3, 0.278486
6400.19, 0.278415
6408.1, 0.281547
6416.03, 0.280978
6423.98, 0.275995
6431.95, 0.273432
6439.94, 0.270727
6447.95, 0.268805
6455.98, 0.267168
6464.03, 0.266100
6472.1, 0.266029
6480.19, 0.266100
6488.31, 0.266954
6496.44, 0.265317
6504.59, 0.261117
6512.76, 0.260191
6520.95, 0.260120
6529.16, 0.258269
6537.4, 0.257344
6545.65, 0.256988
6553.92, 0.256276
6562.22, 0.255422
6570.54, 0.255066
6578.88, 0.252147
6587.23, 0.249655
6595.61, 0.247306
6604.02, 0.244459
6612.44, 0.242394
6620.89, 0.240401
6629.35, 0.240330
6637.84, 0.238835
6646.35, 0.233709
6654.88, 0.230221
6663.44, 0.228726
6672.01, 0.227801
6680.61, 0.226519
6689.23, 0.223672
6697.88, 0.221750
6706.54, 0.221109
6715.23, 0.219970
6723.94, 0.218190
6732.67, 0.216624
6741.42, 0.215841
6750.2, 0.215628
6759.0, 0.215272
6767.82, 0.215556
6776.67, 0.215984
6785.54, 0.216838
6794.44, 0.216482
6803.35, 0.214987
6812.29, 0.214417
6821.26, 0.214560
6830.24, 0.213706
6839.25, 0.212211
6848.29, 0.211997
6857.35, 0.212851
6866.43, 0.211214
6875.54, 0.207370
6884.67, 0.204878
6893.82, 0.202956
6903.0, 0.201248
6912.2, 0.198970
6921.43, 0.196692
6930.69, 0.194841
6939.96, 0.192990
6949.27, 0.191851
6958.59, 0.191068
6967.95, 0.188647
6977.33, 0.186654
6986.73, 0.185444
6996.16, 0.184020
7005.61, 0.182597
7015.09, 0.181671
7024.6, 0.180817
7034.13, 0.180390
7043.69, 0.180532
7053.27, 0.179180
7062.88, 0.177756
7072.52, 0.176902
7082.18, 0.176118
7091.87, 0.175051
7101.58, 0.173840
7111.32, 0.172986
7121.09, 0.171776
7130.88, 0.170139
7140.71, 0.168857
7150.56, 0.167078
7160.43, 0.165369
7170.33, 0.163589
7180.27, 0.161454
7190.23, 0.159816
7200.21, 0.158820
7210.23, 0.157254
7220.27, 0.155118
7230.34, 0.153338
7240.44, 0.151701
7250.56, 0.150064
7260.72, 0.148498
7270.9, 0.147074
7281.12, 0.145437
7291.36, 0.143443
7301.63, 0.141806
7311.93, 0.139884
7322.25, 0.137962
7332.61, 0.135897
7343.0, 0.133406
7353.41, 0.130701
7363.86, 0.128067
7374.33, 0.125504
7384.83, 0.123084
7395.37, 0.120663
7405.93, 0.118456
7416.53, 0.116178
7427.15, 0.114185
7437.81, 0.112405
7448.5, 0.110768
7459.22, 0.109344
7469.96, 0.107778
7480.74, 0.106141
7491.55, 0.104575
7502.39, 0.103009
7513.27, 0.101443
7524.17, 0.0997340
7535.11, 0.0980260
7546.08, 0.0962460
7557.08, 0.0946800
7568.11, 0.0930420
7579.17, 0.0915470
7590.27, 0.0899810
7601.4, 0.0886290
7612.56, 0.0873470
7623.76, 0.0859240
7634.98, 0.0844290
7646.24, 0.0831470
7657.54, 0.0816520
7668.87, 0.0800860
7680.23, 0.0785910
7691.62, 0.0773810
7703.05, 0.0761710
7714.51, 0.0748890
7726.01, 0.0733230
7737.54, 0.0719000
7749.11, 0.0701200
7760.71, 0.0681980
7772.35, 0.0659910
7784.02, 0.0638550
7795.72, 0.0616490
7807.46, 0.0594420
7819.23, 0.0571640
7831.04, 0.0548860
7842.89, 0.0528210
7854.77, 0.0508280
7866.69, 0.0487640
7878.65, 0.0467700
7890.64, 0.0449190
7902.67, 0.0431400
7914.74, 0.0413600
7926.84, 0.0395800
7938.98, 0.0376580
7951.16, 0.0360920
7963.37, 0.0345260
7975.62, 0.0329600
7987.91, 0.0313230
8000.24, 0.0300410
8012.6, 0.0287600
8025.01, 0.0273360
8037.45, 0.0259120
8049.93, 0.0247730
8062.45, 0.0235630
8075.01, 0.0222820
8087.61, 0.0209290
8100.24, 0.0198610
8112.91, 0.0186510
8125.63, 0.0177970
8138.39, 0.0168000
8151.18, 0.0157320
8164.02, 0.0145220
8176.9, 0.0133830
8189.81, 0.0123870
8202.77, 0.0115320
8215.77, 0.0106070
8228.82, 0.00975300
8241.9, 0.00875600
8255.02, 0.00797300
8268.19, 0.00733200
8281.39, 0.00669200
8294.65, 0.00605100
8307.94, 0.00548100
8321.28, 0.00477000
8334.66, 0.00420000
8348.08, 0.00384400
8361.54, 0.00348800
8375.05, 0.00291900
8388.6, 0.00249200
8402.2, 0.00206400
8415.84, 0.00185100
8429.52, 0.00149500
8443.25, 0.00135300
8457.02, 0.00128100
8470.84, 0.00121000
8484.7, 0.00106800
8498.61, 0.00113900
8512.57, 0.00142400
8526.57, 0.00213600
8540.62, 0.00263400
8554.71, 0.00313200
8568.85, 0.00363100
8583.04, 0.00391500
8597.27, 0.00355900
8611.55, 0.00313200
8625.88, 0.00270500
8640.26, 0.00227800
8654.68, 0.00192200
8669.16, 0.00170900
8683.68, 0.00128100
8698.25, 0.00113900
8712.87, 0.000854000
8727.53, 0.000641000
8742.25, 0.000641000
8757.02, 0.000641000
8771.83, 0.000356000
8786.7, 0.000498000
8801.62, 0.000570000
8816.59, 0.000783000
8831.61, 0.000925000
8846.68, 0.00121000
8861.8, 0.00156600
8876.97, 0.00199300
8892.2, 0.00220700
8907.48, 0.00270500
8922.81, 0.00334600
8938.2, 0.00405800
8953.63, 0.00462700
8969.13, 0.00555300
8984.67, 0.00647800
9000.27, 0.00754600
9015.92, 0.00854300
9031.63, 0.0101090
9047.39, 0.0116040
9063.21, 0.0132410
9079.08, 0.0149490
9095.01, 0.0169430
9111.0, 0.0190780
9127.04, 0.0212850
9143.13, 0.0239900
9159.28, 0.0272650
9175.49, 0.0302550
9191.76, 0.0335290
9208.09, 0.0371600
9224.47, 0.0410750
9240.92, 0.0451330
9257.42, 0.0494750
9273.98, 0.0533200
9290.6, 0.0574480
9307.28, 0.0615770
9324.02, 0.0655640
9340.82, 0.0697640
9357.68, 0.0743910
9374.6, 0.0781640
9391.58, 0.0820080
9408.62, 0.0860660
9425.73, 0.0896970
9442.9, 0.0933980
9460.13, 0.0973850
9477.42, 0.100802
9494.78, 0.104148
9512.2, 0.107066
9529.69, 0.109700
9547.24, 0.111978
9564.86, 0.113687
9582.54, 0.115182
9600.28, 0.116748
9618.1, 0.117958
9635.97, 0.118670
9653.92, 0.118955
9671.93, 0.119667
9690.01, 0.120521
9708.16, 0.121517
9726.37, 0.122656
9744.65, 0.123795
9763.0, 0.124650
9781.43, 0.125575
9799.92, 0.126501
9818.48, 0.127355
9837.1, 0.127996
9855.8, 0.128494
9874.58, 0.128351
9893.42, 0.127212
9912.34, 0.125148
9931.33, 0.122728
9950.39, 0.120236
9969.52, 0.117602
9988.74, 0.114968
10008.0, 0.112619
10027.4, 0.110626
10046.8, 0.108846
10066.3, 0.107209
10085.9, 0.106141
10105.6, 0.104860
10125.3, 0.104290
10145.1, 0.105073
10165.0, 0.107351
10185.0, 0.111195
10205.0, 0.116819
10225.2, 0.122443
10245.4, 0.127568
10265.7, 0.131840
10286.0, 0.134901
10306.5, 0.137179
10327.0, 0.138958
10347.6, 0.140525
10368.3, 0.141877
10389.1, 0.142874
10409.9, 0.143443
10430.9, 0.143586
10451.9, 0.143799
10473.0, 0.143870
10494.2, 0.143514
10515.5, 0.142945
10536.9, 0.142162
10558.4, 0.140667
10579.9, 0.138674
10601.5, 0.135613
10623.3, 0.131413
10645.1, 0.126501
10667.0, 0.121517
10689.0, 0.117389
10711.1, 0.115395
10733.2, 0.115395
10755.5, 0.116463
10777.9, 0.118029
10800.3, 0.119311
10822.9, 0.119667
10845.5, 0.119168
10868.2, 0.117887
10891.1, 0.116036
10914.0, 0.114256
10937.0, 0.113473
10960.2, 0.114043
10983.4, 0.116107
11006.7, 0.118884
11030.1, 0.122229
11053.6, 0.124792
11077.3, 0.126643
11101.0, 0.127782
11124.8, 0.127782
11148.7, 0.127141
11172.7, 0.126429
11196.9, 0.126145
11221.1, 0.127141
11245.4, 0.128850
11269.9, 0.130345
11294.4, 0.131697
11319.1, 0.133121
11343.9, 0.133904
11368.8, 0.134118
11393.7, 0.133477
11418.8, 0.132338
11444.0, 0.131128
11469.4, 0.129419
11494.8, 0.126714
11520.3, 0.123724
11546.0, 0.120450
11571.8, 0.116961
11597.7, 0.113188
11623.7, 0.108917
11649.8, 0.104148
11676.0, 0.0988090
11702.4, 0.0934690
11728.9, 0.0887000
11755.5, 0.0846420
11782.2, 0.0817240
11809.0, 0.0794460
11836.0, 0.0775230
11863.0, 0.0760280
11890.3, 0.0749610
11917.6, 0.0738930
11945.0, 0.0730390
11972.6, 0.0723980
12000.4, 0.0724690
12028.2, 0.0723270
12056.2, 0.0722560
12084.3, 0.0726110
12112.5, 0.0729670
12140.9, 0.0729670
12169.4, 0.0727540
12198.0, 0.0729670
12226.8, 0.0734660
12255.7, 0.0739640
12284.7, 0.0743200
12313.9, 0.0745340
12343.2, 0.0747470
12372.7, 0.0749610
12402.3, 0.0754590
12432.0, 0.0762420
12461.9, 0.0767400
12491.9, 0.0768120
12522.1, 0.0768830
12552.4, 0.0768120
12582.9, 0.0768120
12613.5, 0.0763840
12644.3, 0.0757440
12675.2, 0.0750320
12706.3, 0.0743910
12737.5, 0.0731100
12768.9, 0.0713300
12800.4, 0.0690520
12832.1, 0.0664180
12863.9, 0.0631440
12895.9, 0.0590860
12928.1, 0.0550280
12960.4, 0.0523940
12992.9, 0.0518960
13025.5, 0.0533200
13058.3, 0.0551700
13091.3, 0.0570930
13124.4, 0.0576620
13157.8, 0.0575910
13191.2, 0.0568790
13224.9, 0.0554550
13258.7, 0.0533200
13292.7, 0.0514690
13326.9, 0.0494750
13361.2, 0.0474110
13395.7, 0.0453470
13430.4, 0.0431400
13465.3, 0.0406480
13500.4, 0.0382280
13535.7, 0.0354510
13571.1, 0.0326750
13606.7, 0.0298990
13642.5, 0.0269090
13678.5, 0.0238480
13714.7, 0.0212850
13751.1, 0.0182240
13787.6, 0.0160880
13824.4, 0.0136680
13861.4, 0.0109630
13898.5, 0.00875600
13935.9, 0.00747500
13973.5, 0.00676300
14011.2, 0.00683400
14049.2, 0.00726100
14087.4, 0.00875600
14125.8, 0.0103930
14164.3, 0.0108210
14203.2, 0.0105360
14242.2, 0.0101090
14281.4, 0.00982400
14320.9, 0.0100370
14360.5, 0.0113190
14400.4, 0.0140950
14440.5, 0.0184380
14480.9, 0.0248450
14521.4, 0.0322480
14562.2, 0.0402920
14603.3, 0.0474110
14644.5, 0.0528920
14686.0, 0.0572350
14727.7, 0.0629300
14769.7, 0.0698350
14811.9, 0.0773100
14854.3, 0.0849270
14897.0, 0.0924020
14939.9, 0.0982390
14983.1, 0.103649
15026.5, 0.108205
15070.2, 0.112049
15114.2, 0.115680
15158.3, 0.118884
15202.8, 0.121162
15247.5, 0.122870
15292.5, 0.124151
15337.7, 0.125290
15383.2, 0.126287
15429.0, 0.127070
15475.1, 0.127640
15521.4, 0.128067
15568.0, 0.128494
15614.9, 0.129135
15662.1, 0.129704
15709.6, 0.130060
15757.3, 0.129704
15805.4, 0.129490
15853.7, 0.129633
15902.3, 0.129562
15951.2, 0.129348
16000.5, 0.129063
16050.0, 0.127996
16099.8, 0.127070
16150.0, 0.126002
16200.5, 0.124223
16251.3, 0.120948
16302.4, 0.116178
16353.8, 0.109416
16405.5, 0.102012
16457.6, 0.0946800
16510.0, 0.0867780
16562.8, 0.0793740
16615.9, 0.0729670
16669.3, 0.0676280
16723.1, 0.0637840
16777.2, 0.0590150
16831.7, 0.0531060
16886.5, 0.0476250
16941.7, 0.0440650
16997.2, 0.0436380
17053.1, 0.0456310
17109.4, 0.0463430
17166.1, 0.0456310
17223.1, 0.0437800
17280.5, 0.0417870
17338.3, 0.0395090
17396.5, 0.0375870
17455.1, 0.0374450
17514.0, 0.0402210
17573.4, 0.0433530
17633.2, 0.0453470
17693.4, 0.0454180
17754.0, 0.0436380
17815.0, 0.0441360
17876.4, 0.0506140
17938.3, 0.0631440
18000.5, 0.0785200
18063.3, 0.0914760
18126.4, 0.100375
18190.0, 0.105144
18254.1, 0.106354
18318.6, 0.104575
18383.5, 0.101585
18449.0, 0.0967440
18514.9, 0.0915470
18581.2, 0.0867780
18648.0, 0.0829340
18715.4, 0.0785200
18783.2, 0.0770960
18851.5, 0.0802290
18920.3, 0.0809400
18989.6, 0.0775230
19059.4, 0.0728960
19129.7, 0.0676280
19200.6, 0.0662050
19272.0, 0.0650660
19343.9, 0.0641400
19416.3, 0.0654930
19489.3, 0.0689810
19562.8, 0.0731810
19637.0, 0.0773100
19711.6, 0.0810120
19786.8, 0.0868490
19862.6, 0.0953200
19939.0, 0.103578
20016.0, 0.108490
20093.6, 0.110839
20171.8, 0.110412
20250.6, 0.108561
20330.0, 0.103863
20410.0, 0.0987370
20490.7, 0.0985240
20572.0, 0.105714
20654.0, 0.112049
20736.6, 0.110768
20819.9, 0.104290
20903.8, 0.0979540
20988.5, 0.0896970
21073.8, 0.0784490
21159.8, 0.0738930
21246.5, 0.0901950
21334.0, 0.114968
21422.1, 0.130345
21511.0, 0.133904
21600.7, 0.134758
21691.0, 0.141308
21782.1, 0.150704
21874.0, 0.157254
21966.7, 0.156684
22060.2, 0.149993
22154.5, 0.142803
22249.6, 0.138816
22345.5, 0.137819
22442.2, 0.134402
22539.8, 0.128494
22638.2, 0.123582
22737.5, 0.119738
22837.7, 0.116392
22938.7, 0.110483
23040.7, 0.104219
23143.5, 0.0998760
23247.3, 0.0933980
23352.1, 0.0881300
23457.7, 0.0820080
23564.4, 0.0753880
23672.0, 0.0783780
23780.5, 0.0884150
23890.1, 0.0907640
24000.7, 0.0902660
24112.3, 0.0883440
24225.0, 0.0885580
24338.7, 0.0842150
24453.5, 0.0837170
24569.4, 0.0799440
24686.4, 0.0742490
24804.5, 0.0678420
24923.8, 0.0684830
