Database of Origin, USGS Spectral Database
Sample Description, See USGS database for additional info
Date Added,2016-08-03 21:12:21.921961

Data ID,USGS_cel04          
Sample ID, celsian_hs200.4459
Mineral Name, celsian
Material Class,Sulfate

Wavelength
1607.49, 0.546768
1607.99, 0.547488
1608.49, 0.548118
1608.99, 0.548838
1609.49, 0.549199
1609.99, 0.548748
1610.49, 0.549289
1610.99, 0.550279
1611.49, 0.550639
1611.99, 0.551179
1612.49, 0.551269
1612.99, 0.551809
1613.49, 0.552080
1614.0, 0.551809
1614.5, 0.551899
1615.0, 0.552530
1615.51, 0.553340
1616.01, 0.554060
1616.51, 0.553700
1617.02, 0.554150
1617.52, 0.554420
1618.03, 0.555321
1618.53, 0.555321
1619.04, 0.556311
1619.54, 0.556131
1620.05, 0.556311
1620.55, 0.557121
1621.06, 0.557842
1621.57, 0.558112
1622.08, 0.559102
1622.58, 0.559732
1623.09, 0.560002
1623.6, 0.559372
1624.11, 0.559282
1624.62, 0.560092
1625.13, 0.560633
1625.64, 0.560182
1626.15, 0.560453
1626.66, 0.560903
1627.17, 0.560633
1627.68, 0.560633
1628.19, 0.560993
1628.7, 0.561713
1629.21, 0.562613
1629.72, 0.563063
1630.24, 0.563424
1630.75, 0.562793
1631.26, 0.563694
1631.78, 0.564864
1632.29, 0.565494
1632.8, 0.565314
1633.32, 0.565314
1633.83, 0.565404
1634.35, 0.565944
1634.86, 0.566215
1635.38, 0.566665
1635.9, 0.567025
1636.41, 0.567745
1636.93, 0.567025
1637.45, 0.567115
1637.96, 0.567655
1638.48, 0.568465
1639.0, 0.568555
1639.52, 0.568555
1640.04, 0.568645
1640.56, 0.569366
1641.08, 0.569276
1641.59, 0.569366
1642.11, 0.569546
1642.63, 0.569726
1643.16, 0.570176
1643.68, 0.571346
1644.2, 0.572067
1644.72, 0.572517
1645.24, 0.572157
1645.76, 0.572337
1646.29, 0.572607
1646.81, 0.572877
1647.33, 0.572787
1647.86, 0.573597
1648.38, 0.573957
1648.9, 0.573777
1649.43, 0.573597
1649.95, 0.574228
1650.48, 0.574408
1651.0, 0.574948
1651.53, 0.575308
1652.06, 0.575758
1652.58, 0.575848
1653.11, 0.576208
1653.64, 0.576388
1654.17, 0.576928
1654.69, 0.576928
1655.22, 0.576568
1655.75, 0.576568
1656.28, 0.577649
1656.81, 0.578009
1657.34, 0.578639
1657.87, 0.578999
1658.4, 0.579810
1658.93, 0.579629
1659.46, 0.579359
1659.99, 0.579359
1660.52, 0.580620
1661.05, 0.580710
1661.59, 0.580620
1662.12, 0.580710
1662.65, 0.580890
1663.19, 0.581340
1663.72, 0.581880
1664.26, 0.581700
1664.79, 0.581970
1665.32, 0.582240
1665.86, 0.582691
1666.39, 0.582871
1666.93, 0.583591
1667.47, 0.583861
1668.0, 0.584311
1668.54, 0.584221
1669.08, 0.584491
1669.61, 0.584761
1670.15, 0.585211
1670.69, 0.585572
1671.23, 0.585842
1671.77, 0.586022
1672.31, 0.586472
1672.85, 0.586742
1673.39, 0.587012
1673.93, 0.586742
1674.47, 0.587462
1675.01, 0.587192
1675.55, 0.587192
1676.09, 0.587372
1676.64, 0.587552
1677.18, 0.587912
1677.72, 0.588453
1678.26, 0.588273
1678.81, 0.588993
1679.35, 0.589173
1679.89, 0.589353
1680.44, 0.589443
1680.98, 0.589623
1681.53, 0.589803
1682.07, 0.590253
1682.62, 0.590343
1683.17, 0.590703
1683.71, 0.590973
1684.26, 0.591874
1684.81, 0.591784
1685.36, 0.591424
1685.9, 0.590884
1686.45, 0.591604
1687.0, 0.592234
1687.55, 0.592864
1688.1, 0.592774
1688.65, 0.592954
1689.2, 0.593314
1689.75, 0.593585
1690.3, 0.593224
1690.85, 0.593404
1691.41, 0.593855
1691.96, 0.594215
1692.51, 0.594395
1693.06, 0.594575
1693.61, 0.593855
1694.17, 0.593765
1694.72, 0.594305
1695.28, 0.595115
1695.83, 0.595565
1696.39, 0.595565
1696.94, 0.595655
1697.5, 0.596376
1698.05, 0.596736
1698.61, 0.596376
1699.17, 0.596286
1699.72, 0.596196
1700.28, 0.595835
1700.84, 0.596376
1701.4, 0.596826
1701.95, 0.597186
1702.51, 0.597006
1703.07, 0.597276
1703.63, 0.597186
1704.19, 0.597276
1704.75, 0.597186
1705.31, 0.597276
1705.88, 0.597366
1706.44, 0.597906
1707.0, 0.598176
1707.56, 0.598446
1708.12, 0.598356
1708.69, 0.598536
1709.25, 0.598446
1709.81, 0.598536
1710.38, 0.598626
1710.94, 0.598716
1711.51, 0.598536
1712.07, 0.599257
1712.64, 0.599527
1713.2, 0.599167
1713.77, 0.598446
1714.34, 0.599257
1714.9, 0.599617
1715.47, 0.599977
1716.04, 0.600067
1716.61, 0.600427
1717.18, 0.600517
1717.74, 0.600697
1718.31, 0.600427
1718.88, 0.600607
1719.45, 0.600787
1720.02, 0.601237
1720.59, 0.601507
1721.17, 0.601057
1721.74, 0.600247
1722.31, 0.600787
1722.88, 0.601237
1723.45, 0.602048
1724.03, 0.602138
1724.6, 0.602408
1725.18, 0.602678
1725.75, 0.602588
1726.33, 0.602858
1726.9, 0.603128
1727.48, 0.602768
1728.05, 0.603128
1728.63, 0.603398
1729.2, 0.603578
1729.78, 0.603488
1730.36, 0.603398
1730.94, 0.603848
1731.51, 0.604658
1732.09, 0.604568
1732.67, 0.604929
1733.25, 0.604929
1733.83, 0.605109
1734.41, 0.605469
1734.99, 0.605469
1735.57, 0.605379
1736.15, 0.606009
1736.73, 0.605829
1737.32, 0.606009
1737.9, 0.606099
1738.48, 0.606459
1739.07, 0.606729
1739.65, 0.607360
1740.23, 0.607540
1740.82, 0.607990
1741.4, 0.607630
1741.99, 0.607450
1742.57, 0.607179
1743.16, 0.607540
1743.74, 0.607810
1744.33, 0.608440
1744.92, 0.609250
1745.51, 0.609520
1746.09, 0.609340
1746.68, 0.609700
1747.27, 0.610241
1747.86, 0.610601
1748.45, 0.610241
1749.04, 0.610331
1749.63, 0.610601
1750.22, 0.610691
1750.81, 0.610331
1751.4, 0.610601
1751.99, 0.610601
1752.59, 0.610691
1753.18, 0.610781
1753.77, 0.611681
1754.37, 0.611501
1754.96, 0.611231
1755.56, 0.611681
1756.15, 0.611951
1756.74, 0.611411
1757.34, 0.611771
1757.94, 0.612221
1758.53, 0.612311
1759.13, 0.612221
1759.73, 0.612491
1760.32, 0.612491
1760.92, 0.612761
1761.52, 0.612942
1762.12, 0.612942
1762.72, 0.613122
1763.32, 0.614022
1763.92, 0.613302
1764.52, 0.612581
1765.12, 0.612671
1765.72, 0.613032
1766.32, 0.613302
1766.92, 0.613842
1767.53, 0.613932
1768.13, 0.614022
1768.73, 0.613482
1769.34, 0.613842
1769.94, 0.614022
1770.55, 0.614022
1771.15, 0.613842
1771.76, 0.613662
1772.36, 0.613482
1772.97, 0.613842
1773.57, 0.613932
1774.18, 0.613752
1774.79, 0.613662
1775.4, 0.613752
1776.0, 0.613572
1776.61, 0.613932
1777.22, 0.613662
1777.83, 0.613842
1778.44, 0.613842
1779.05, 0.614022
1779.66, 0.614382
1780.27, 0.614472
1780.88, 0.614112
1781.5, 0.614562
1782.11, 0.614382
1782.72, 0.614292
1783.33, 0.614562
1783.95, 0.614652
1784.56, 0.614472
1785.18, 0.614382
1785.79, 0.614202
1786.41, 0.614742
1787.02, 0.614922
1787.64, 0.614832
1788.26, 0.614562
1788.87, 0.614922
1789.49, 0.614832
1790.11, 0.615282
1790.73, 0.615192
1791.35, 0.615282
1791.96, 0.615462
1792.58, 0.615642
1793.21, 0.615822
1793.83, 0.616273
1794.45, 0.615822
1795.07, 0.616003
1795.69, 0.616183
1796.31, 0.616003
1796.93, 0.616093
1797.56, 0.616543
1798.18, 0.616183
1798.8, 0.616543
1799.43, 0.616903
1800.05, 0.617173
1800.68, 0.617173
1801.3, 0.617263
1801.93, 0.616723
1802.56, 0.616903
1803.18, 0.617263
1803.81, 0.617533
1804.44, 0.617533
1805.07, 0.617713
1805.7, 0.617443
1806.33, 0.617443
1806.95, 0.617713
1807.58, 0.618434
1808.22, 0.618704
1808.85, 0.618794
1809.48, 0.618794
1810.11, 0.618974
1810.74, 0.618794
1811.38, 0.618884
1812.01, 0.618704
1812.64, 0.619064
1813.28, 0.619604
1813.91, 0.619874
1814.55, 0.619694
1815.18, 0.619244
1815.82, 0.619244
1816.45, 0.619784
1817.09, 0.619874
1817.73, 0.620234
1818.36, 0.620414
1819.0, 0.620684
1819.64, 0.620054
1820.28, 0.619604
1820.92, 0.620054
1821.56, 0.620324
1822.2, 0.620324
1822.84, 0.621225
1823.48, 0.622125
1824.12, 0.622305
1824.76, 0.622305
1825.41, 0.621135
1826.05, 0.619874
1826.69, 0.621135
1827.34, 0.622125
1827.98, 0.622395
1828.63, 0.622035
1829.27, 0.622035
1829.92, 0.621765
1830.56, 0.621135
1831.21, 0.621044
1831.86, 0.622125
1832.5, 0.622755
1833.15, 0.623295
1833.8, 0.623115
1834.45, 0.622935
1835.1, 0.622755
1835.75, 0.622035
1836.4, 0.621945
1837.05, 0.622125
1837.7, 0.622125
1838.35, 0.623745
1839.01, 0.623295
1839.66, 0.622305
1840.31, 0.623115
1840.96, 0.623475
1841.62, 0.622395
1842.27, 0.623295
1842.93, 0.624826
1843.58, 0.625456
1844.24, 0.625456
1844.9, 0.625816
1845.55, 0.625816
1846.21, 0.624196
1846.87, 0.622215
1847.53, 0.622665
1848.18, 0.623115
1848.84, 0.624466
1849.5, 0.625186
1850.16, 0.625456
1850.82, 0.625546
1851.48, 0.626266
1852.14, 0.625636
1852.81, 0.624286
1853.47, 0.622935
1854.13, 0.623925
1854.8, 0.625276
1855.46, 0.625456
1856.12, 0.624015
1856.79, 0.623835
1857.45, 0.624646
1858.12, 0.624916
1858.79, 0.624015
1859.45, 0.622485
1860.12, 0.622665
1860.79, 0.623835
1861.46, 0.624556
1862.12, 0.624826
1862.79, 0.624286
1863.46, 0.623745
1864.13, 0.623115
1864.8, 0.623655
1865.48, 0.623745
1866.15, 0.623565
1866.82, 0.622215
1867.49, 0.620234
1868.16, 0.620324
1868.84, 0.621135
1869.51, 0.620864
1870.19, 0.619244
1870.86, 0.617353
1871.54, 0.618974
1872.21, 0.618614
1872.89, 0.616813
1873.56, 0.616813
1874.24, 0.617803
1874.92, 0.617533
1875.6, 0.617353
1876.28, 0.616453
1876.96, 0.615552
1877.64, 0.616003
1878.32, 0.616273
1879.0, 0.616003
1879.68, 0.615462
1880.36, 0.614652
1881.04, 0.614022
1881.73, 0.613392
1882.41, 0.612852
1883.09, 0.611411
1883.78, 0.609700
1884.46, 0.609250
1885.15, 0.609340
1885.83, 0.608620
1886.52, 0.607630
1887.21, 0.606639
1887.89, 0.606099
1888.58, 0.605199
1889.27, 0.603758
1889.96, 0.601867
1890.65, 0.601507
1891.34, 0.600427
1892.03, 0.599257
1892.72, 0.598086
1893.41, 0.597006
1894.1, 0.596376
1894.79, 0.595295
1895.49, 0.593494
1896.18, 0.592234
1896.87, 0.590703
1897.57, 0.588633
1898.26, 0.586562
1898.96, 0.583771
1899.65, 0.581250
1900.35, 0.580890
1901.05, 0.580260
1901.74, 0.578459
1902.44, 0.575218
1903.14, 0.573687
1903.84, 0.572787
1904.54, 0.570356
1905.24, 0.567565
1905.94, 0.566755
1906.64, 0.565224
1907.34, 0.564594
1908.04, 0.563154
1908.75, 0.561623
1909.45, 0.560002
1910.15, 0.558382
1910.86, 0.556581
1911.56, 0.555231
1912.27, 0.553970
1912.97, 0.551809
1913.68, 0.550009
1914.39, 0.550009
1915.09, 0.549559
1915.8, 0.549018
1916.51, 0.548658
1917.22, 0.548838
1917.93, 0.548478
1918.64, 0.548388
1919.35, 0.547398
1920.06, 0.546407
1920.77, 0.546948
1921.48, 0.548658
1922.19, 0.549289
1922.91, 0.549469
1923.62, 0.548928
1924.33, 0.549199
1925.05, 0.549289
1925.76, 0.549199
1926.48, 0.548478
1927.19, 0.548118
1927.91, 0.547668
1928.63, 0.547488
1929.35, 0.547218
1930.07, 0.546858
1930.78, 0.546407
1931.5, 0.545867
1932.22, 0.544697
1932.94, 0.543796
1933.66, 0.542716
1934.39, 0.542266
1935.11, 0.541546
1935.83, 0.539925
1936.55, 0.538124
1937.28, 0.536684
1938.0, 0.535424
1938.73, 0.533803
1939.45, 0.531552
1940.18, 0.530202
1940.9, 0.528761
1941.63, 0.527140
1942.36, 0.524890
1943.09, 0.522729
1943.81, 0.520028
1944.54, 0.517777
1945.27, 0.515796
1946.0, 0.513726
1946.73, 0.511205
1947.47, 0.508774
1948.2, 0.506613
1948.93, 0.504812
1949.66, 0.502472
1950.4, 0.500311
1951.13, 0.497880
1951.86, 0.496259
1952.6, 0.494369
1953.34, 0.492658
1954.07, 0.491398
1954.81, 0.490407
1955.55, 0.489327
1956.29, 0.488607
1957.02, 0.487796
1957.76, 0.487706
1958.5, 0.487616
1959.24, 0.487706
1959.98, 0.487976
1960.72, 0.489237
1961.47, 0.490137
1962.21, 0.491307
1962.95, 0.492838
1963.7, 0.494909
1964.44, 0.496890
1965.18, 0.499320
1965.93, 0.501751
1966.67, 0.504272
1967.42, 0.506523
1968.17, 0.509134
1968.92, 0.511925
1969.66, 0.514806
1970.41, 0.517417
1971.16, 0.520208
1971.91, 0.522729
1972.66, 0.525430
1973.41, 0.527501
1974.16, 0.529661
1974.92, 0.532002
1975.67, 0.534433
1976.42, 0.536504
1977.18, 0.538665
1977.93, 0.540645
1978.69, 0.542356
1979.44, 0.543887
1980.2, 0.545687
1980.95, 0.547398
1981.71, 0.549289
1982.47, 0.550909
1983.23, 0.552710
1983.99, 0.554690
1984.74, 0.556491
1985.51, 0.557842
1986.27, 0.559642
1987.03, 0.561443
1987.79, 0.563244
1988.55, 0.564774
1989.32, 0.566575
1990.08, 0.568375
1990.84, 0.569726
1991.61, 0.571166
1992.37, 0.573057
1993.14, 0.574588
1993.9, 0.576118
1994.67, 0.577649
1995.44, 0.579179
1996.21, 0.580350
1996.98, 0.581430
1997.75, 0.582691
1998.52, 0.584131
1999.29, 0.585121
2000.06, 0.586472
2000.83, 0.587102
2001.6, 0.588183
2002.38, 0.589443
2003.15, 0.590613
2003.93, 0.591514
2004.7, 0.592684
2005.48, 0.593404
2006.25, 0.594305
2007.03, 0.594665
2007.81, 0.595565
2008.58, 0.596646
2009.36, 0.597726
2010.14, 0.598626
2010.92, 0.599437
2011.7, 0.599797
2012.48, 0.600697
2013.26, 0.601687
2014.05, 0.602138
2014.83, 0.602588
2015.61, 0.603488
2016.4, 0.603938
2017.18, 0.604478
2017.97, 0.605109
2018.75, 0.606189
2019.54, 0.606819
2020.32, 0.607179
2021.11, 0.607540
2021.9, 0.608170
2022.69, 0.608890
2023.48, 0.609520
2024.27, 0.609880
2025.06, 0.610511
2025.85, 0.611411
2026.64, 0.612131
2027.44, 0.612401
2028.23, 0.613032
2029.02, 0.613662
2029.82, 0.614022
2030.61, 0.614202
2031.41, 0.614922
2032.2, 0.615102
2033.0, 0.615192
2033.8, 0.615552
2034.6, 0.616273
2035.4, 0.616723
2036.2, 0.617173
2037.0, 0.617353
2037.8, 0.617893
2038.6, 0.618343
2039.4, 0.618974
2040.2, 0.619064
2041.01, 0.619154
2041.81, 0.619424
2042.61, 0.619964
2043.42, 0.620054
2044.22, 0.620414
2045.03, 0.620414
2045.84, 0.620414
2046.65, 0.620864
2047.46, 0.621315
2048.26, 0.621765
2049.07, 0.622305
2049.88, 0.622395
2050.69, 0.622485
2051.51, 0.622485
2052.32, 0.622845
2053.13, 0.623115
2053.94, 0.623205
2054.76, 0.622935
2055.57, 0.623115
2056.39, 0.623115
2057.2, 0.623475
2058.02, 0.623835
2058.84, 0.623745
2059.66, 0.623655
2060.48, 0.624015
2061.29, 0.624196
2062.11, 0.624196
2062.94, 0.623925
2063.76, 0.623925
2064.58, 0.624015
2065.4, 0.624196
2066.22, 0.624196
2067.05, 0.624466
2067.87, 0.624646
2068.7, 0.624826
2069.52, 0.624916
2070.35, 0.624916
2071.18, 0.624916
2072.0, 0.625096
2072.83, 0.625186
2073.66, 0.625456
2074.49, 0.625276
2075.32, 0.625366
2076.15, 0.625726
2076.98, 0.626086
2077.82, 0.625906
2078.65, 0.626266
2079.48, 0.626356
2080.32, 0.626626
2081.15, 0.626807
2081.99, 0.626807
2082.83, 0.627257
2083.66, 0.627437
2084.5, 0.627437
2085.34, 0.627437
2086.18, 0.627437
2087.02, 0.627887
2087.86, 0.627887
2088.7, 0.628157
2089.54, 0.628337
2090.39, 0.628337
2091.23, 0.628247
2092.07, 0.628697
2092.92, 0.629327
2093.76, 0.629507
2094.61, 0.629327
2095.45, 0.629688
2096.3, 0.629868
2097.15, 0.629868
2098.0, 0.630048
2098.85, 0.630678
2099.7, 0.630588
2100.55, 0.630588
2101.4, 0.630588
2102.25, 0.631128
2103.1, 0.631578
2103.96, 0.632118
2104.81, 0.631938
2105.67, 0.631668
2106.52, 0.631938
2107.38, 0.632299
2108.24, 0.632389
2109.09, 0.632749
2109.95, 0.633019
2110.81, 0.633379
2111.67, 0.633199
2112.53, 0.633199
2113.39, 0.633559
2114.25, 0.633739
2115.12, 0.633649
2115.98, 0.634099
2116.84, 0.634369
2117.71, 0.634459
2118.58, 0.634729
2119.44, 0.635090
2120.31, 0.634910
2121.18, 0.635090
2122.04, 0.635450
2122.91, 0.635540
2123.78, 0.635450
2124.65, 0.635720
2125.52, 0.635990
2126.4, 0.636260
2127.27, 0.636080
2128.14, 0.636440
2129.02, 0.636440
2129.89, 0.636530
2130.77, 0.636710
2131.64, 0.636980
2132.52, 0.636620
2133.4, 0.636620
2134.27, 0.636710
2135.15, 0.636890
2136.03, 0.636800
2136.91, 0.636980
2137.79, 0.637070
2138.68, 0.637160
2139.56, 0.637430
2140.44, 0.637430
2141.33, 0.637340
2142.21, 0.637430
2143.1, 0.637250
2143.99, 0.637340
2144.87, 0.637250
2145.76, 0.637250
2146.65, 0.636890
2147.54, 0.636980
2148.43, 0.636710
2149.32, 0.636800
2150.21, 0.636890
2151.1, 0.636800
2151.99, 0.636890
2152.89, 0.636980
2153.78, 0.636530
2154.68, 0.636530
2155.57, 0.636260
2156.47, 0.635900
2157.37, 0.635540
2158.27, 0.635360
2159.16, 0.634819
2160.06, 0.634459
2160.96, 0.633919
2161.86, 0.633829
2162.77, 0.633559
2163.67, 0.633289
2164.57, 0.632569
2165.48, 0.632389
2166.38, 0.632028
2167.29, 0.631308
2168.2, 0.630588
2169.1, 0.629868
2170.01, 0.629147
2170.92, 0.628607
2171.83, 0.627977
2172.74, 0.627527
2173.65, 0.626716
2174.56, 0.626086
2175.47, 0.625366
2176.39, 0.624646
2177.3, 0.623655
2178.22, 0.622755
2179.13, 0.621855
2180.05, 0.621135
2180.96, 0.620234
2181.88, 0.619244
2182.8, 0.617983
2183.72, 0.617263
2184.64, 0.616183
2185.56, 0.615192
2186.48, 0.614112
2187.41, 0.613212
2188.33, 0.612221
2189.25, 0.611141
2190.18, 0.609790
2191.1, 0.608800
2192.03, 0.607810
2192.96, 0.606909
2193.89, 0.605919
2194.82, 0.605109
2195.74, 0.604298
2196.68, 0.603488
2197.61, 0.602498
2198.54, 0.601958
2199.47, 0.601237
2200.4, 0.600607
2201.34, 0.600157
2202.28, 0.599887
2203.21, 0.599257
2204.15, 0.598806
2205.08, 0.598896
2206.02, 0.599707
2206.96, 0.600607
2207.9, 0.602138
2208.84, 0.603758
2209.78, 0.605379
2210.73, 0.607089
2211.67, 0.609070
2212.61, 0.610691
2213.56, 0.612491
2214.5, 0.613662
2215.45, 0.614922
2216.4, 0.616183
2217.35, 0.617623
2218.3, 0.618614
2219.24, 0.619604
2220.2, 0.620414
2221.15, 0.621225
2222.1, 0.621855
2223.05, 0.622485
2224.0, 0.622665
2224.96, 0.623025
2225.91, 0.623385
2226.87, 0.623925
2227.83, 0.623925
2228.79, 0.624003
2229.74, 0.623460
2230.7, 0.623305
2231.66, 0.623693
2232.63, 0.623926
2233.59, 0.623382
2234.55, 0.622762
2235.51, 0.622762
2236.48, 0.622762
2237.44, 0.622374
2238.41, 0.622296
2239.38, 0.622141
2240.34, 0.621909
2241.31, 0.621753
2242.28, 0.621986
2243.25, 0.621986
2244.22, 0.621521
2245.19, 0.620823
2246.17, 0.620900
2247.14, 0.620978
2248.12, 0.620745
2249.09, 0.620280
2250.07, 0.620280
2251.04, 0.619969
2252.02, 0.619581
2253.0, 0.618883
2253.98, 0.618263
2254.96, 0.618573
2255.94, 0.618418
2256.92, 0.617564
2257.91, 0.617254
2258.89, 0.616944
2259.88, 0.616866
2260.86, 0.616944
2261.85, 0.617177
2262.83, 0.617332
2263.82, 0.618030
2264.81, 0.619038
2265.8, 0.619426
2266.79, 0.619349
2267.78, 0.619814
2268.78, 0.620280
2269.77, 0.620745
2270.76, 0.621055
2271.76, 0.621366
2272.75, 0.621133
2273.75, 0.621288
2274.75, 0.621676
2275.75, 0.621676
2276.75, 0.621210
2277.75, 0.621133
2278.75, 0.621676
2279.75, 0.622141
2280.75, 0.621831
2281.76, 0.621366
2282.76, 0.620745
2283.77, 0.620280
2284.77, 0.620280
2285.78, 0.620667
2286.79, 0.620202
2287.8, 0.619969
2288.81, 0.619194
2289.82, 0.618883
2290.83, 0.618883
2291.84, 0.618650
2292.86, 0.618340
2293.87, 0.617952
2294.89, 0.617564
2295.91, 0.617021
2296.92, 0.616246
2297.94, 0.615780
2298.96, 0.615548
2299.98, 0.614927
2301.0, 0.614384
2302.02, 0.613918
2303.04, 0.613065
2304.07, 0.612289
2305.09, 0.611746
2306.12, 0.610971
2307.15, 0.610040
2308.17, 0.609419
2309.2, 0.608644
2310.23, 0.608333
2311.26, 0.607635
2312.29, 0.607014
2313.32, 0.606239
2314.35, 0.605541
2315.39, 0.604610
2316.42, 0.603834
2317.46, 0.603524
2318.5, 0.603136
2319.53, 0.602127
2320.57, 0.600964
2321.61, 0.600188
2322.65, 0.599645
2323.69, 0.599179
2324.73, 0.598249
2325.78, 0.597007
2326.82, 0.595689
2327.86, 0.594370
2328.91, 0.593517
2329.96, 0.592275
2331.01, 0.590957
2332.05, 0.589638
2333.1, 0.588319
2334.15, 0.587233
2335.21, 0.586225
2336.26, 0.584828
2337.31, 0.583742
2338.36, 0.582811
2339.42, 0.581493
2340.48, 0.580174
2341.53, 0.579864
2342.59, 0.579553
2343.65, 0.578622
2344.71, 0.577924
2345.77, 0.577847
2346.83, 0.576761
2347.9, 0.575364
2348.96, 0.574356
2350.02, 0.573735
2351.09, 0.573192
2352.16, 0.572339
2353.23, 0.571330
2354.29, 0.570710
2355.36, 0.569779
2356.43, 0.569469
2357.51, 0.569469
2358.58, 0.569546
2359.65, 0.569857
2360.73, 0.569857
2361.8, 0.570167
2362.88, 0.571408
2363.96, 0.572727
2365.03, 0.573580
2366.11, 0.574977
2367.19, 0.576373
2368.27, 0.577847
2369.36, 0.579321
2370.44, 0.580407
2371.53, 0.581182
2372.61, 0.582346
2373.7, 0.583122
2374.78, 0.583510
2375.87, 0.583897
2376.96, 0.584673
2378.05, 0.585449
2379.14, 0.585682
2380.24, 0.585837
2381.33, 0.585837
2382.42, 0.585992
2383.52, 0.585759
2384.61, 0.585682
2385.71, 0.585604
2386.81, 0.585837
2387.91, 0.585527
2389.01, 0.584673
2390.11, 0.584363
2391.22, 0.584751
2392.32, 0.584518
2393.42, 0.583975
2394.53, 0.583510
2395.64, 0.583122
2396.74, 0.582579
2397.85, 0.582501
2398.96, 0.582036
2400.07, 0.581725
2401.18, 0.581182
2402.3, 0.580639
2403.41, 0.580484
2404.52, 0.580019
2405.64, 0.579398
2406.76, 0.579165
2407.88, 0.578467
2408.99, 0.578079
2410.11, 0.578002
2411.23, 0.577847
2412.36, 0.577304
2413.48, 0.577149
2414.6, 0.576761
2415.73, 0.575830
2416.85, 0.575520
2417.98, 0.575364
2419.11, 0.574589
2420.24, 0.574278
2421.37, 0.573813
2422.5, 0.573503
2423.64, 0.572882
2424.77, 0.572882
2425.9, 0.572882
2427.04, 0.572417
2428.18, 0.571563
2429.31, 0.570865
2430.45, 0.570400
2431.59, 0.570089
2432.73, 0.569624
2433.88, 0.569391
2435.02, 0.569081
2436.16, 0.568693
2437.31, 0.568072
2438.45, 0.567685
2439.6, 0.567529
2440.75, 0.567219
2441.9, 0.567219
2443.05, 0.567374
2444.2, 0.567064
2445.35, 0.566754
2446.51, 0.566676
2447.67, 0.566521
2448.82, 0.566133
2449.98, 0.565823
2451.14, 0.565435
2452.3, 0.565125
2453.46, 0.565125
2454.62, 0.565202
2455.78, 0.564504
2456.94, 0.564349
2458.11, 0.564426
2459.28, 0.564271
2460.44, 0.564039
2461.61, 0.563961
2462.78, 0.563806
2463.95, 0.563573
2465.12, 0.563185
2466.3, 0.563030
2467.47, 0.562875
2468.65, 0.562720
2469.82, 0.562022
2471.0, 0.561168
2472.18, 0.560548
2473.36, 0.560625
2474.54, 0.560780
2475.72, 0.560548
2476.9, 0.559850
2478.08, 0.559539
2479.27, 0.558919
2480.46, 0.558376
2481.64, 0.557678
2482.83, 0.557057
2484.02, 0.556514
2485.21, 0.556126
2486.4, 0.555118
2487.6, 0.554032
2488.79, 0.553489
2489.99, 0.553023
2491.18, 0.552247
2492.38, 0.551472
2493.58, 0.550308
2494.78, 0.549067
2495.98, 0.548291
2497.18, 0.548291
2498.39, 0.547593
2499.59, 0.546740
2500.8, 0.545809
2502.01, 0.544645
2503.21, 0.543559
2504.42, 0.542939
2505.63, 0.542318
2506.84, 0.542395
2508.06, 0.542240
2509.27, 0.541852
2510.49, 0.541697
2511.7, 0.541620
2512.92, 0.541697
2514.14, 0.541930
2515.36, 0.541542
2516.58, 0.541852
2517.8, 0.541930
2519.03, 0.541775
2520.25, 0.542008
2521.48, 0.542628
2522.7, 0.542706
2523.93, 0.542706
2525.16, 0.543094
2526.39, 0.543249
2527.62, 0.543714
2528.86, 0.544180
2530.09, 0.543326
2531.33, 0.542318
2532.56, 0.542240
2533.8, 0.543792
2535.04, 0.542783
2536.28, 0.542085
2537.52, 0.544490
2538.76, 0.545809
2540.01, 0.545654
2541.25, 0.543792
2542.5, 0.540223
2543.75, 0.541077
2544.99, 0.543326
2546.24, 0.543326
2547.49, 0.540767
2548.75, 0.541775
2550.0, 0.541309
2551.26, 0.538672
2552.51, 0.536577
2553.77, 0.539913
2555.03, 0.543482
2556.29, 0.544257
2557.55, 0.543869
2558.81, 0.540767
2560.08, 0.531380
2561.34, 0.523545
2562.61, 0.523235
2563.88, 0.525329
2565.14, 0.532854
2566.41, 0.540223
2567.68, 0.538517
2568.96, 0.530216
2570.23, 0.531225
2571.51, 0.535802
2572.78, 0.525174
2574.06, 0.527191
2575.34, 0.532388
2576.62, 0.528587
2577.9, 0.533862
2579.18, 0.538129
2580.47, 0.531768
2581.75, 0.529208
2583.04, 0.518736
2584.32, 0.518115
2585.61, 0.527346
2586.9, 0.523157
2588.2, 0.524786
2589.49, 0.529751
2590.78, 0.533785
2592.08, 0.528820
2593.37, 0.500894
2594.67, 0.476458
2595.97, 0.497325
2597.27, 0.523545
2598.57, 0.532544
2599.88, 0.529984
2601.18, 0.523855
2602.49, 0.519822
2603.79, 0.511831
2605.1, 0.500040
2606.41, 0.505238
2607.72, 0.514547
2609.03, 0.516486
2610.35, 0.519589
2611.66, 0.522071
2612.98, 0.519822
2614.3, 0.519434
2615.62, 0.506324
2616.94, 0.497868
2618.26, 0.506944
2619.58, 0.499342
2620.91, 0.500738
2622.23, 0.516563
2623.56, 0.519822
2624.89, 0.512762
2626.22, 0.499187
2627.55, 0.504307
2628.88, 0.501359
2630.21, 0.487939
2631.55, 0.498877
2632.89, 0.506479
2634.22, 0.506634
2635.56, 0.511831
2636.9, 0.512685
2638.25, 0.512297
2639.59, 0.510823
2640.93, 0.508651
2642.28, 0.506867
2643.63, 0.506479
2644.98, 0.500894
2646.33, 0.500738
2647.68, 0.504384
2649.03, 0.504927
2650.39, 0.500428
2651.74, 0.491585
2653.1, 0.490111
2654.46, 0.491895
2655.82, 0.490654
2657.18, 0.492748
2658.54, 0.486232
2659.9, 0.481888
2661.27, 0.481888
2662.64, 0.480181
2664.01, 0.462417
2665.38, 0.446282
2666.74, 0.445506
2668.12, 0.455435
2669.49, 0.439765
2670.87, 0.435654
2672.24, 0.457918
2673.62, 0.461409
2675.0, 0.450393
2676.38, 0.438292
2677.76, 0.438136
2679.15, 0.438602
2680.54, 0.446592
2681.92, 0.446514
2683.31, 0.440231
2684.7, 0.437283
2686.09, 0.434490
2687.48, 0.432706
2688.88, 0.431000
2690.27, 0.428362
2691.67, 0.420837
2693.07, 0.405323
2694.47, 0.399194
2695.87, 0.402065
2697.27, 0.404392
2698.67, 0.400823
2700.08, 0.390894
2701.49, 0.382051
2702.9, 0.378327
2704.31, 0.371268
2705.72, 0.362269
2707.13, 0.350090
2708.54, 0.333412
2709.96, 0.315725
2711.38, 0.307657
2712.8, 0.309674
2714.22, 0.304787
2715.64, 0.295944
2717.06, 0.285704
2718.49, 0.273292
2719.91, 0.255916
2721.34, 0.252115
2722.77, 0.250175
2724.2, 0.240401
2725.63, 0.240401
2727.07, 0.241720
2728.5, 0.239082
2729.94, 0.234816
2731.38, 0.230316
2732.82, 0.224266
2734.26, 0.216353
2735.7, 0.213638
2737.15, 0.211001
2738.59, 0.200528
2740.04, 0.193159
2741.49, 0.193546
2742.94, 0.196572
2744.39, 0.195719
2745.84, 0.193159
2747.3, 0.190444
2748.76, 0.187728
2750.21, 0.185246
2751.67, 0.182764
2753.14, 0.179273
2754.6, 0.171671
2756.06, 0.171128
2757.53, 0.176791
2759.0, 0.178264
2760.46, 0.176325
2761.94, 0.171981
2763.41, 0.171205
2764.88, 0.172757
2766.36, 0.171903
2767.83, 0.170507
2769.31, 0.169886
2770.79, 0.168800
2772.27, 0.170585
2773.76, 0.172369
2775.24, 0.172214
2776.73, 0.170973
2778.22, 0.170662
2779.71, 0.170197
2781.2, 0.169421
2782.69, 0.169266
2784.18, 0.169111
2785.68, 0.166240
2787.18, 0.164534
2788.68, 0.166085
2790.18, 0.167249
2791.68, 0.166784
2793.19, 0.166240
2794.69, 0.165542
2796.2, 0.164999
2797.71, 0.164224
2799.22, 0.163293
2800.73, 0.161431
2802.24, 0.158250
2803.76, 0.157164
2805.28, 0.158250
2806.8, 0.158328
2808.32, 0.157863
2809.84, 0.157320
2811.36, 0.156544
2812.89, 0.155768
2814.42, 0.154604
2815.94, 0.153751
2817.48, 0.152898
2819.01, 0.151424
2820.54, 0.150803
2822.08, 0.150803
2823.61, 0.150571
2825.15, 0.149795
2826.69, 0.148786
2828.23, 0.147700
2829.78, 0.147313
2831.32, 0.146614
2832.87, 0.145683
2834.42, 0.144597
2835.97, 0.143667
2837.52, 0.142813
2839.08, 0.142425
2840.63, 0.142037
2842.19, 0.141417
2843.75, 0.140641
2845.31, 0.139865
2846.87, 0.138935
2848.44, 0.138236
2850.0, 0.137771
2851.57, 0.137383
2853.14, 0.136219
2854.71, 0.135289
2856.28, 0.134901
2857.86, 0.134358
2859.43, 0.133504
2861.01, 0.132961
2862.59, 0.132263
2864.17, 0.131643
2865.76, 0.131022
2867.34, 0.130401
2868.93, 0.129781
2870.52, 0.129315
2872.11, 0.128772
2873.7, 0.128695
2875.29, 0.128385
2876.89, 0.127686
2878.49, 0.127221
2880.08, 0.127376
2881.69, 0.127298
2883.29, 0.127221
2884.89, 0.126988
2886.5, 0.126678
2888.11, 0.126445
2889.72, 0.126445
2891.33, 0.126445
2892.94, 0.126523
2894.56, 0.126445
2896.17, 0.126523
2897.79, 0.126600
2899.42, 0.126445
2901.04, 0.126523
2902.66, 0.126988
2904.29, 0.127221
2905.92, 0.127686
2907.55, 0.127842
2909.18, 0.128229
2910.81, 0.128540
2912.45, 0.128772
2914.08, 0.128617
2915.72, 0.128617
2917.36, 0.128462
2919.01, 0.128307
2920.65, 0.127997
2922.3, 0.127919
2923.94, 0.127919
2925.59, 0.127764
2927.25, 0.127531
2928.9, 0.127531
2930.56, 0.127609
2932.21, 0.127842
2933.87, 0.127997
2935.53, 0.128385
2937.2, 0.128540
2938.86, 0.128695
2940.53, 0.129005
2942.2, 0.129393
2943.87, 0.129703
2945.54, 0.130091
2947.22, 0.130246
2948.89, 0.130867
2950.57, 0.131487
2952.25, 0.132030
2953.93, 0.132341
2955.62, 0.132961
2957.3, 0.133660
2958.99, 0.134358
2960.68, 0.134978
2962.37, 0.135754
2964.07, 0.136375
2965.76, 0.136995
2967.46, 0.137771
2969.16, 0.138469
2970.86, 0.138935
2972.56, 0.139633
2974.27, 0.140408
2975.98, 0.140951
2977.69, 0.141572
2979.4, 0.142193
2981.11, 0.142813
2982.83, 0.143356
2984.54, 0.143822
2986.26, 0.144365
2987.98, 0.144830
2989.71, 0.145451
2991.43, 0.146071
2993.16, 0.146614
2994.89, 0.147157
2996.62, 0.147856
2998.35, 0.148399
3000.09, 0.148942
3001.83, 0.149329
3003.57, 0.149795
3005.31, 0.150260
3007.05, 0.151036
3008.79, 0.151812
3010.54, 0.152588
3012.29, 0.153208
3014.04, 0.153906
3015.8, 0.154604
3017.55, 0.155303
3019.31, 0.155923
3021.07, 0.156389
3022.83, 0.157087
3024.59, 0.157863
3026.36, 0.158406
3028.13, 0.159104
3029.9, 0.159724
3031.67, 0.160422
3033.44, 0.160888
3035.22, 0.161353
3037.0, 0.161664
3038.78, 0.162362
3040.56, 0.162750
3042.34, 0.163138
3044.13, 0.163370
3045.92, 0.163758
3047.71, 0.163913
3049.5, 0.163991
3051.3, 0.163991
3053.09, 0.164146
3054.89, 0.164301
3056.69, 0.164379
3058.5, 0.164146
3060.3, 0.164068
3062.11, 0.163836
3063.92, 0.163836
3065.73, 0.163681
3067.55, 0.163603
3069.36, 0.163603
3071.18, 0.163681
3073.0, 0.163525
3074.82, 0.163603
3076.65, 0.163758
3078.48, 0.164146
3080.31, 0.164611
3082.14, 0.165310
3083.97, 0.165930
3085.8, 0.166396
3087.64, 0.167016
3089.48, 0.167714
3091.33, 0.168257
3093.17, 0.169111
3095.02, 0.170042
3096.87, 0.170895
3098.72, 0.171593
3100.57, 0.172524
3102.43, 0.173455
3104.28, 0.174153
3106.14, 0.174929
3108.01, 0.175937
3109.87, 0.176791
3111.74, 0.177877
3113.61, 0.178730
3115.48, 0.179428
3117.35, 0.180669
3119.23, 0.181600
3121.1, 0.182531
3122.98, 0.183695
3124.87, 0.184470
3126.75, 0.185479
3128.64, 0.186487
3130.53, 0.187651
3132.42, 0.188582
3134.31, 0.189668
3136.21, 0.191064
3138.11, 0.192228
3140.01, 0.193081
3141.91, 0.194012
3143.82, 0.195253
3145.73, 0.196417
3147.64, 0.197735
3149.55, 0.199132
3151.46, 0.200063
3153.38, 0.200994
3155.3, 0.202390
3157.22, 0.204019
3159.14, 0.205260
3161.07, 0.206424
3163.0, 0.207898
3164.93, 0.209449
3166.86, 0.210845
3168.8, 0.212319
3170.74, 0.213716
3172.68, 0.215112
3174.62, 0.216353
3176.56, 0.217672
3178.51, 0.219223
3180.46, 0.220852
3182.42, 0.222326
3184.37, 0.223723
3186.33, 0.225119
3188.29, 0.226438
3190.25, 0.227912
3192.21, 0.229386
3194.18, 0.230859
3196.15, 0.232256
3198.12, 0.233807
3200.09, 0.235204
3202.07, 0.236522
3204.05, 0.238074
3206.03, 0.239625
3208.02, 0.241177
3210.0, 0.242495
3211.99, 0.243737
3213.98, 0.245055
3215.98, 0.246684
3217.97, 0.248236
3219.97, 0.249787
3221.97, 0.251106
3223.98, 0.252425
3225.98, 0.253821
3227.99, 0.255528
3230.0, 0.257079
3232.02, 0.258553
3234.03, 0.259950
3236.05, 0.261423
3238.07, 0.262897
3240.1, 0.264294
3242.12, 0.265612
3244.15, 0.267086
3246.18, 0.268560
3248.22, 0.270112
3250.25, 0.271508
3252.29, 0.272904
3254.33, 0.274533
3256.38, 0.276007
3258.43, 0.277171
3260.47, 0.278335
3262.53, 0.279576
3264.58, 0.281050
3266.64, 0.282524
3268.7, 0.283842
3270.76, 0.285083
3272.82, 0.286480
3274.89, 0.287954
3276.96, 0.289272
3279.04, 0.290514
3281.11, 0.291755
3283.19, 0.293074
3285.27, 0.294470
3287.35, 0.295789
3289.44, 0.297185
3291.53, 0.298349
3293.62, 0.299512
3295.71, 0.300908
3297.81, 0.302227
3299.91, 0.303468
3302.01, 0.304787
3304.11, 0.306184
3306.22, 0.307580
3308.33, 0.308976
3310.44, 0.310372
3312.56, 0.311691
3314.68, 0.312855
3316.8, 0.313941
3318.92, 0.315337
3321.05, 0.316578
3323.18, 0.317975
3325.31, 0.319371
3327.44, 0.320612
3329.58, 0.321853
3331.72, 0.323250
3333.86, 0.324724
3336.01, 0.326042
3338.16, 0.327439
3340.31, 0.328835
3342.46, 0.329921
3344.61, 0.331007
3346.77, 0.332326
3348.94, 0.333567
3351.1, 0.334808
3353.27, 0.336049
3355.44, 0.337213
3357.61, 0.338454
3359.79, 0.339540
3361.97, 0.340626
3364.15, 0.341712
3366.33, 0.342721
3368.52, 0.343807
3370.71, 0.344970
3372.9, 0.346056
3375.1, 0.347220
3377.3, 0.348384
3379.5, 0.349625
3381.71, 0.351021
3383.91, 0.352262
3386.12, 0.353426
3388.34, 0.354590
3390.55, 0.355676
3392.77, 0.356762
3394.99, 0.357692
3397.22, 0.358856
3399.45, 0.359865
3401.68, 0.360873
3403.91, 0.361881
3406.15, 0.363045
3408.39, 0.364054
3410.63, 0.365062
3412.87, 0.366070
3415.12, 0.367156
3417.37, 0.368398
3419.63, 0.369639
3421.88, 0.370880
3424.14, 0.372044
3426.41, 0.373207
3428.67, 0.374759
3430.94, 0.376000
3433.21, 0.377241
3435.49, 0.378482
3437.77, 0.379723
3440.05, 0.380809
3442.33, 0.381895
3444.62, 0.382981
3446.91, 0.383990
3449.2, 0.385076
3451.5, 0.386162
3453.8, 0.387015
3456.1, 0.388024
3458.41, 0.388877
3460.72, 0.389886
3463.03, 0.390816
3465.34, 0.391515
3467.66, 0.392058
3469.98, 0.392833
3472.31, 0.393454
3474.63, 0.394230
3476.96, 0.395005
3479.3, 0.395781
3481.64, 0.396634
3483.97, 0.397488
3486.32, 0.398108
3488.66, 0.398884
3491.01, 0.399660
3493.36, 0.400358
3495.72, 0.400979
3498.08, 0.401599
3500.44, 0.402142
3502.81, 0.402763
3505.18, 0.403539
3507.55, 0.404547
3509.92, 0.405555
3512.3, 0.406486
3514.68, 0.407417
3517.06, 0.408348
3519.45, 0.409046
3521.84, 0.409822
3524.24, 0.410675
3526.64, 0.411529
3529.04, 0.412072
3531.44, 0.412770
3533.85, 0.413468
3536.26, 0.414089
3538.67, 0.414632
3541.09, 0.415252
3543.51, 0.415950
3545.93, 0.416493
3548.36, 0.416959
3550.79, 0.417424
3553.22, 0.417967
3555.66, 0.418588
3558.1, 0.419053
3560.54, 0.419751
3562.99, 0.420217
3565.44, 0.420527
3567.9, 0.420915
3570.35, 0.421536
3572.81, 0.422001
3575.28, 0.422389
3577.75, 0.422854
3580.22, 0.423165
3582.69, 0.423630
3585.17, 0.424018
3587.65, 0.424251
3590.14, 0.424716
3592.62, 0.425182
3595.11, 0.425570
3597.61, 0.425957
3600.11, 0.426190
3602.61, 0.426578
3605.11, 0.427043
3607.62, 0.427276
3610.14, 0.427742
3612.65, 0.428207
3615.17, 0.428595
3617.69, 0.428983
3620.22, 0.429371
3622.75, 0.429681
3625.28, 0.430146
3627.82, 0.430457
3630.36, 0.430767
3632.9, 0.431232
3635.45, 0.431465
3638.0, 0.431853
3640.56, 0.432396
3643.12, 0.432706
3645.68, 0.432939
3648.24, 0.433249
3650.81, 0.433715
3653.39, 0.434025
3655.96, 0.434490
3658.54, 0.434878
3661.13, 0.435344
3663.71, 0.435809
3666.3, 0.436197
3668.9, 0.436585
3671.5, 0.436973
3674.1, 0.437593
3676.7, 0.438214
3679.31, 0.438757
3681.93, 0.439222
3684.54, 0.439765
3687.17, 0.440153
3689.79, 0.440464
3692.42, 0.440851
3695.05, 0.441317
3697.69, 0.441860
3700.32, 0.442248
3702.97, 0.442791
3705.61, 0.443179
3708.27, 0.443334
3710.92, 0.443644
3713.58, 0.444265
3716.24, 0.444653
3718.91, 0.445118
3721.58, 0.445506
3724.25, 0.445971
3726.93, 0.446514
3729.61, 0.447057
3732.29, 0.447600
3734.98, 0.448299
3737.67, 0.448764
3740.37, 0.449385
3743.07, 0.450005
3745.78, 0.450626
3748.49, 0.451324
3751.2, 0.452100
3753.91, 0.452720
3756.63, 0.453186
3759.36, 0.453729
3762.09, 0.454349
3764.82, 0.454970
3767.55, 0.455591
3770.29, 0.456289
3773.04, 0.456909
3775.78, 0.457375
3778.54, 0.457918
3781.29, 0.458461
3784.05, 0.459081
3786.82, 0.459547
3789.59, 0.460167
3792.36, 0.460478
3795.13, 0.460865
3797.92, 0.461253
3800.7, 0.461564
3803.49, 0.461719
3806.28, 0.462107
3809.08, 0.462339
3811.88, 0.462495
3814.68, 0.462805
3817.49, 0.463115
3820.31, 0.463115
3823.12, 0.463348
3825.94, 0.463425
3828.77, 0.463425
3831.6, 0.463425
3834.43, 0.463503
3837.27, 0.463658
3840.11, 0.463813
3842.96, 0.463891
3845.81, 0.464124
3848.67, 0.464201
3851.53, 0.464279
3854.39, 0.464434
3857.26, 0.464589
3860.13, 0.464667
3863.01, 0.464977
3865.89, 0.465210
3868.77, 0.465520
3871.66, 0.465675
3874.55, 0.465908
3877.45, 0.465985
3880.35, 0.466218
3883.26, 0.466451
3886.17, 0.466761
3889.09, 0.466994
3892.01, 0.467304
3894.93, 0.467614
3897.86, 0.467770
3900.79, 0.467847
3903.73, 0.468080
3906.67, 0.468157
3909.62, 0.468235
3912.57, 0.468390
3915.52, 0.468623
3918.48, 0.468700
3921.45, 0.468778
3924.42, 0.468778
3927.39, 0.468700
3930.37, 0.468623
3933.35, 0.468700
3936.34, 0.468778
3939.33, 0.468700
3942.32, 0.468313
3945.32, 0.468157
3948.33, 0.467925
3951.34, 0.467692
3954.35, 0.467459
3957.37, 0.467149
3960.39, 0.466684
3963.42, 0.466528
3966.45, 0.466218
3969.49, 0.465908
3972.53, 0.465753
3975.58, 0.465675
3978.63, 0.465520
3981.68, 0.465287
3984.75, 0.464977
3987.81, 0.464899
3990.88, 0.464822
3993.95, 0.464899
3997.03, 0.465055
4000.12, 0.465210
4003.21, 0.465287
4006.3, 0.465210
4009.4, 0.465210
4012.5, 0.465287
4015.61, 0.465055
4018.72, 0.464899
4021.84, 0.464667
4024.96, 0.464356
4028.09, 0.464124
4031.22, 0.464124
4034.36, 0.464046
4037.5, 0.463968
4040.65, 0.463581
4043.8, 0.463193
4046.96, 0.462727
4050.12, 0.462339
4053.29, 0.461952
4056.46, 0.461564
4059.64, 0.461021
4062.82, 0.460400
4066.0, 0.459702
4069.19, 0.458926
4072.39, 0.458150
4075.59, 0.457375
4078.8, 0.456599
4082.01, 0.455746
4085.23, 0.454660
4088.45, 0.453729
4091.68, 0.452798
4094.91, 0.451867
4098.15, 0.451014
4101.39, 0.449928
4104.63, 0.448919
4107.89, 0.447911
4111.14, 0.446902
4114.41, 0.445816
4117.67, 0.444808
4120.95, 0.443877
4124.23, 0.442946
4127.51, 0.442015
4130.8, 0.441007
4134.09, 0.440153
4137.39, 0.439222
4140.7, 0.438292
4144.01, 0.437361
4147.32, 0.436352
4150.64, 0.435266
4153.97, 0.434490
4157.3, 0.433715
4160.64, 0.432939
4163.98, 0.431931
4167.33, 0.430922
4170.68, 0.429914
4174.04, 0.428828
4177.4, 0.427742
4180.77, 0.426656
4184.14, 0.425492
4187.52, 0.424406
4190.91, 0.423010
4194.3, 0.421458
4197.69, 0.419829
4201.1, 0.418045
4204.5, 0.415795
4207.92, 0.413158
4211.34, 0.410132
4214.76, 0.406641
4218.19, 0.403151
4221.62, 0.399970
4225.06, 0.396867
4228.51, 0.394540
4231.96, 0.392911
4235.42, 0.392135
4238.88, 0.392135
4242.35, 0.393144
4245.83, 0.394850
4249.31, 0.397255
4252.79, 0.400048
4256.28, 0.401289
4259.78, 0.398729
4263.29, 0.394618
4266.79, 0.390894
4270.31, 0.388101
4273.83, 0.385774
4277.35, 0.383835
4280.89, 0.382361
4284.42, 0.381042
4287.97, 0.379801
4291.52, 0.378870
4295.07, 0.378250
4298.63, 0.377629
4302.2, 0.377086
4305.78, 0.376543
4309.35, 0.376155
4312.94, 0.375767
4316.53, 0.375302
4320.13, 0.374836
4323.73, 0.374138
4327.34, 0.373440
4330.96, 0.372509
4334.58, 0.371423
4338.21, 0.370415
4341.84, 0.369406
4345.48, 0.368087
4349.12, 0.366769
4352.77, 0.365605
4356.43, 0.364286
4360.1, 0.362735
4363.76, 0.361338
4367.44, 0.359942
4371.12, 0.358546
4374.81, 0.356994
4378.51, 0.355443
4382.21, 0.353814
4385.92, 0.352417
4389.63, 0.351021
4393.35, 0.349702
4397.08, 0.348461
4400.81, 0.347220
4404.55, 0.345979
4408.29, 0.344815
4412.04, 0.343729
4415.8, 0.342721
4419.57, 0.341790
4423.34, 0.340859
4427.12, 0.340006
4430.9, 0.339230
4434.69, 0.338299
4438.49, 0.337523
4442.29, 0.336670
4446.1, 0.335894
4449.92, 0.334886
4453.74, 0.333722
4457.57, 0.332481
4461.41, 0.331317
4465.25, 0.330387
4469.1, 0.329843
4472.95, 0.329456
4476.82, 0.329223
4480.69, 0.328913
4484.56, 0.328757
4488.44, 0.328447
4492.33, 0.328214
4496.23, 0.328214
4500.13, 0.328447
4504.04, 0.328835
4507.96, 0.329300
4511.88, 0.329843
4515.81, 0.330231
4519.75, 0.330387
4523.69, 0.330464
4527.65, 0.330387
4531.6, 0.329999
4535.57, 0.329378
4539.54, 0.328913
4543.52, 0.328214
4547.5, 0.327516
4551.5, 0.326663
4555.5, 0.325499
4559.5, 0.324258
4563.52, 0.323017
4567.54, 0.321698
4571.56, 0.320224
4575.6, 0.318518
4579.64, 0.316966
4583.69, 0.315337
4587.75, 0.313553
4591.81, 0.311691
4595.88, 0.309907
4599.96, 0.307968
4604.04, 0.306106
4608.14, 0.304089
4612.24, 0.302150
4616.34, 0.300288
4620.46, 0.298504
4624.58, 0.296642
4628.71, 0.294858
4632.84, 0.292918
4636.99, 0.290824
4641.14, 0.288729
4645.3, 0.286712
4649.47, 0.284773
4653.64, 0.282756
4657.82, 0.280662
4662.01, 0.278412
4666.21, 0.276240
4670.41, 0.274068
4674.62, 0.271818
4678.84, 0.269724
4683.07, 0.268095
4687.3, 0.266854
4691.54, 0.265923
4695.79, 0.265147
4700.05, 0.264371
4704.31, 0.263518
4708.59, 0.262354
4712.87, 0.261191
4717.15, 0.259794
4721.45, 0.258398
4725.76, 0.256924
4730.07, 0.255373
4734.39, 0.253899
4738.72, 0.252425
4743.05, 0.250873
4747.39, 0.249244
4751.75, 0.247770
4756.1, 0.246452
4760.47, 0.245133
4764.85, 0.243814
4769.23, 0.242495
4773.62, 0.241332
4778.02, 0.240091
4782.43, 0.238927
4786.85, 0.237686
4791.27, 0.236445
4795.7, 0.235126
4800.14, 0.233730
4804.59, 0.232333
4809.05, 0.230782
4813.51, 0.229075
4817.99, 0.227446
4822.47, 0.225817
4826.96, 0.224343
4831.46, 0.222947
4835.96, 0.221706
4840.48, 0.220542
4845.0, 0.219611
4849.54, 0.218680
4854.08, 0.217517
4858.63, 0.216120
4863.18, 0.214491
4867.75, 0.212862
4872.33, 0.211078
4876.91, 0.209061
4881.5, 0.206889
4886.1, 0.204252
4890.71, 0.201381
4895.33, 0.198278
4899.96, 0.195175
4904.59, 0.191995
4909.24, 0.188892
4913.89, 0.186177
4918.55, 0.183927
4923.22, 0.181833
4927.9, 0.180281
4932.59, 0.178963
4937.29, 0.177799
4942.0, 0.176713
4946.71, 0.175549
4951.44, 0.174075
4956.17, 0.172369
4960.91, 0.170740
4965.67, 0.169111
4970.43, 0.167094
4975.2, 0.165232
4979.98, 0.163603
4984.76, 0.162284
4989.56, 0.161121
4994.37, 0.160035
4999.18, 0.159026
5004.01, 0.158095
5008.84, 0.157087
5013.69, 0.155846
5018.54, 0.154604
5023.4, 0.154061
5028.28, 0.153596
5033.16, 0.152975
5038.05, 0.152277
5042.95, 0.151579
5047.86, 0.150881
5052.78, 0.150260
5057.71, 0.149640
5062.65, 0.149174
5067.6, 0.148864
5072.56, 0.148786
5077.53, 0.148554
5082.5, 0.148321
5087.49, 0.148709
5092.49, 0.149019
5097.5, 0.149019
5102.51, 0.148864
5107.54, 0.148631
5112.58, 0.148088
5117.62, 0.147313
5122.68, 0.146459
5127.75, 0.145683
5132.82, 0.144830
5137.91, 0.143977
5143.01, 0.142813
5148.12, 0.141727
5153.23, 0.141572
5158.36, 0.141184
5163.5, 0.140719
5168.65, 0.140176
5173.81, 0.139788
5178.98, 0.139400
5184.15, 0.139012
5189.34, 0.138779
5194.54, 0.138236
5199.75, 0.137305
5204.98, 0.137073
5210.21, 0.135599
5215.45, 0.134435
5220.7, 0.134280
5225.96, 0.132884
5231.23, 0.130867
5236.52, 0.128928
5241.81, 0.127298
5247.12, 0.125747
5252.44, 0.124118
5257.76, 0.122566
5263.1, 0.121093
5268.45, 0.119696
5273.81, 0.118300
5279.18, 0.117291
5284.56, 0.116438
5289.95, 0.114964
5295.36, 0.114421
5300.77, 0.114344
5306.2, 0.113878
5311.63, 0.113568
5317.08, 0.113180
5322.54, 0.112637
5328.01, 0.112249
5333.49, 0.111784
5338.98, 0.111086
5344.49, 0.109612
5350.0, 0.108060
5355.53, 0.108448
5361.07, 0.108991
5366.62, 0.108914
5372.18, 0.108603
5377.75, 0.108448
5383.34, 0.108603
5388.93, 0.108914
5394.54, 0.109301
5400.16, 0.109767
5405.79, 0.110077
5411.44, 0.110465
5417.09, 0.109224
5422.76, 0.108526
5428.43, 0.111086
5434.12, 0.112404
5439.83, 0.112327
5445.54, 0.112249
5451.26, 0.112094
5457.0, 0.111008
5462.75, 0.108991
5468.52, 0.108914
5474.29, 0.108681
5480.08, 0.107905
5485.88, 0.108215
5491.69, 0.107827
5497.51, 0.107052
5503.35, 0.106354
5509.2, 0.105811
5515.06, 0.104880
5520.93, 0.103794
5526.82, 0.103328
5532.71, 0.103173
5538.63, 0.102475
5544.55, 0.101466
5550.49, 0.100225
5556.44, 0.0997600
5562.4, 0.0997600
5568.37, 0.0991390
5574.36, 0.0968120
5580.36, 0.0957260
5586.37, 0.0974330
5592.4, 0.0981310
5598.44, 0.0972000
5604.49, 0.0966570
5610.56, 0.0965020
5616.63, 0.0960360
5622.73, 0.0964240
5628.83, 0.0962690
5634.95, 0.0946400
5641.08, 0.0926230
5647.23, 0.0944070
5653.39, 0.0959590
5659.56, 0.0973550
5665.74, 0.0985190
5671.94, 0.0974330
5678.15, 0.0975100
5684.38, 0.0985190
5690.62, 0.0979760
5696.87, 0.0984410
5703.14, 0.0974330
5709.42, 0.0947950
5715.72, 0.0947180
5722.03, 0.0951830
5728.35, 0.0951050
5734.69, 0.0943300
5741.03, 0.0928560
5747.4, 0.0909940
5753.78, 0.0911490
5760.17, 0.0876580
5766.58, 0.0835470
5773.0, 0.0859520
5779.44, 0.0874260
5785.88, 0.0870380
5792.35, 0.0863400
5798.83, 0.0850980
5805.32, 0.0840900
5811.83, 0.0818400
5818.35, 0.0771860
5824.89, 0.0756340
5831.45, 0.0770310
5838.01, 0.0777290
5844.59, 0.0773410
5851.19, 0.0758670
5857.8, 0.0740050
5864.43, 0.0724540
5871.07, 0.0711350
5877.73, 0.0661700
5884.4, 0.0653170
5891.09, 0.0657830
5897.79, 0.0643090
5904.5, 0.0665580
5911.23, 0.0667130
5917.98, 0.0656270
5924.75, 0.0642310
5931.53, 0.0602750
5938.32, 0.0582580
5945.13, 0.0611280
5951.96, 0.0619810
5958.8, 0.0615940
5965.65, 0.0594210
5972.53, 0.0591890
5979.42, 0.0594210
5986.32, 0.0581030
5993.24, 0.0581030
6000.18, 0.0592660
6007.13, 0.0584910
6014.1, 0.0572490
6021.08, 0.0574820
6028.09, 0.0574820
6035.1, 0.0562410
6042.14, 0.0520520
6049.19, 0.0484840
6056.25, 0.0518190
6063.34, 0.0532160
6070.44, 0.0513540
6077.55, 0.0519740
6084.69, 0.0539140
6091.84, 0.0543020
6099.0, 0.0540690
6106.19, 0.0523620
6113.39, 0.0508880
6120.61, 0.0528280
6127.84, 0.0544570
6135.09, 0.0542240
6142.36, 0.0539140
6149.65, 0.0538360
6156.95, 0.0532160
6164.27, 0.0536030
6171.61, 0.0543790
6178.97, 0.0528280
6186.34, 0.0518970
6193.73, 0.0538360
6201.14, 0.0549220
6208.57, 0.0552320
6216.01, 0.0553880
6223.47, 0.0556200
6230.95, 0.0556980
6238.45, 0.0559310
6245.97, 0.0563190
6253.5, 0.0567060
6261.06, 0.0568620
6268.63, 0.0569390
6276.21, 0.0572490
6283.82, 0.0574050
6291.45, 0.0576370
6299.1, 0.0581030
6306.76, 0.0582580
6314.44, 0.0584910
6322.14, 0.0586460
6329.86, 0.0587230
6337.6, 0.0570170
6345.35, 0.0560080
6353.13, 0.0586460
6360.92, 0.0594210
6368.74, 0.0584130
6376.57, 0.0593440
6384.43, 0.0602750
6392.3, 0.0604300
6400.19, 0.0595770
6408.1, 0.0553100
6416.03, 0.0540690
6423.98, 0.0577150
6431.95, 0.0591890
6439.94, 0.0600420
6447.95, 0.0603520
6455.98, 0.0601200
6464.03, 0.0594990
6472.1, 0.0577920
6480.19, 0.0558530
6488.31, 0.0530600
6496.44, 0.0527500
6504.59, 0.0556980
6512.76, 0.0558530
6520.95, 0.0543790
6529.16, 0.0550000
6537.4, 0.0549220
6545.65, 0.0539910
6553.92, 0.0532160
6562.22, 0.0525950
6570.54, 0.0508110
6578.88, 0.0515870
6587.23, 0.0523620
6595.61, 0.0527500
6604.02, 0.0535260
6612.44, 0.0532930
6620.89, 0.0525950
6629.35, 0.0501900
6637.84, 0.0485610
6646.35, 0.0511990
6654.88, 0.0531380
6663.44, 0.0525170
6672.01, 0.0512760
6680.61, 0.0503450
6689.23, 0.0511210
6697.88, 0.0516640
6706.54, 0.0505000
6715.23, 0.0503450
6723.94, 0.0509660
6732.67, 0.0515870
6741.42, 0.0518190
6750.2, 0.0516640
6759.0, 0.0516640
6767.82, 0.0511210
6776.67, 0.0502680
6785.54, 0.0490270
6794.44, 0.0491820
6803.35, 0.0508110
6812.29, 0.0510440
6821.26, 0.0501900
6830.24, 0.0500350
6839.25, 0.0505000
6848.29, 0.0494140
6857.35, 0.0469320
6866.43, 0.0464670
6875.54, 0.0487940
6884.67, 0.0495700
6893.82, 0.0496470
6903.0, 0.0491820
6912.2, 0.0492590
6921.43, 0.0494920
6930.69, 0.0493370
6939.96, 0.0491040
6949.27, 0.0480960
6958.59, 0.0463120
6967.95, 0.0469320
6977.33, 0.0475530
6986.73, 0.0470870
6996.16, 0.0466220
7005.61, 0.0464670
7015.09, 0.0459240
7024.6, 0.0454580
7034.13, 0.0445270
7043.69, 0.0429760
7053.27, 0.0432860
7062.88, 0.0439840
7072.52, 0.0438290
7082.18, 0.0435960
7091.87, 0.0432860
7101.58, 0.0428980
7111.32, 0.0422780
7121.09, 0.0418900
7130.88, 0.0415800
7140.71, 0.0407260
7150.56, 0.0400280
7160.43, 0.0397180
7170.33, 0.0391750
7180.27, 0.0392520
7190.23, 0.0390970
7200.21, 0.0383990
7210.23, 0.0377780
7220.27, 0.0377780
7230.34, 0.0373910
7240.44, 0.0369250
7250.56, 0.0364600
7260.72, 0.0359170
7270.9, 0.0349860
7281.12, 0.0345980
7291.36, 0.0343650
7301.63, 0.0338220
7311.93, 0.0333570
7322.25, 0.0329690
7332.61, 0.0323480
7343.0, 0.0318830
7353.41, 0.0314950
7363.86, 0.0311850
7374.33, 0.0307970
7384.83, 0.0304860
7395.37, 0.0300210
7405.93, 0.0296330
7416.53, 0.0292450
7427.15, 0.0287020
7437.81, 0.0283920
7448.5, 0.0280820
7459.22, 0.0275390
7469.96, 0.0271510
7480.74, 0.0268410
7491.55, 0.0266080
7502.39, 0.0264530
7513.27, 0.0262970
7524.17, 0.0259100
7535.11, 0.0255990
7546.08, 0.0253670
7557.08, 0.0252890
7568.11, 0.0250560
7579.17, 0.0249010
7590.27, 0.0246680
7601.4, 0.0246680
7612.56, 0.0246680
7623.76, 0.0247460
7634.98, 0.0248240
7646.24, 0.0251340
7657.54, 0.0255990
7668.87, 0.0259100
7680.23, 0.0260650
7691.62, 0.0263750
7703.05, 0.0267630
7714.51, 0.0272280
7726.01, 0.0276940
7737.54, 0.0283140
7749.11, 0.0290130
7760.71, 0.0296330
7772.35, 0.0301760
7784.02, 0.0307190
7795.72, 0.0311850
7807.46, 0.0317280
7819.23, 0.0324260
7831.04, 0.0332790
7842.89, 0.0342880
7854.77, 0.0355290
7866.69, 0.0369250
7878.65, 0.0384770
7890.64, 0.0402610
7902.67, 0.0422000
7914.74, 0.0439840
7926.84, 0.0459240
7938.98, 0.0482510
7951.16, 0.0508880
7963.37, 0.0533710
7975.62, 0.0556980
7987.91, 0.0579480
8000.24, 0.0602750
8012.6, 0.0623690
8025.01, 0.0645410
8037.45, 0.0668690
8049.93, 0.0695060
8062.45, 0.0722990
8075.01, 0.0752470
8087.61, 0.0782720
8100.24, 0.0814520
8112.91, 0.0848660
8125.63, 0.0883560
8138.39, 0.0919250
8151.18, 0.0956480
8164.02, 0.0992940
8176.9, 0.102552
8189.81, 0.105578
8202.77, 0.108603
8215.77, 0.111706
8228.82, 0.115119
8241.9, 0.118765
8255.02, 0.122722
8268.19, 0.126833
8281.39, 0.131255
8294.65, 0.135832
8307.94, 0.140253
8321.28, 0.144287
8334.66, 0.148011
8348.08, 0.151114
8361.54, 0.153518
8375.05, 0.155768
8388.6, 0.157630
8402.2, 0.159181
8415.84, 0.161043
8429.52, 0.162982
8443.25, 0.164999
8457.02, 0.167094
8470.84, 0.168723
8484.7, 0.169731
8498.61, 0.170352
8512.57, 0.171128
8526.57, 0.171593
8540.62, 0.171283
8554.71, 0.170740
8568.85, 0.169188
8583.04, 0.166008
8597.27, 0.161353
8611.55, 0.156544
8625.88, 0.154139
8640.26, 0.156544
8654.68, 0.161974
8669.16, 0.166861
8683.68, 0.170042
8698.25, 0.171826
8712.87, 0.172912
8727.53, 0.173455
8742.25, 0.173610
8757.02, 0.173688
8771.83, 0.173843
8786.7, 0.174696
8801.62, 0.176092
8816.59, 0.178187
8831.61, 0.180902
8846.68, 0.183772
8861.8, 0.186565
8876.97, 0.188814
8892.2, 0.190366
8907.48, 0.191374
8922.81, 0.191452
8938.2, 0.191064
8953.63, 0.190444
8969.13, 0.189668
8984.67, 0.188737
9000.27, 0.187806
9015.92, 0.186642
9031.63, 0.185246
9047.39, 0.183772
9063.21, 0.182066
9079.08, 0.179971
9095.01, 0.177799
9111.0, 0.175704
9127.04, 0.173532
9143.13, 0.171050
9159.28, 0.168490
9175.49, 0.166085
9191.76, 0.163913
9208.09, 0.161974
9224.47, 0.160345
9240.92, 0.159026
9257.42, 0.157475
9273.98, 0.155768
9290.6, 0.153906
9307.28, 0.151812
9324.02, 0.149097
9340.82, 0.145839
9357.68, 0.142503
9374.6, 0.138935
9391.58, 0.135521
9408.62, 0.132341
9425.73, 0.129781
9442.9, 0.128152
9460.13, 0.127143
9477.42, 0.126600
9494.78, 0.126600
9512.2, 0.127298
9529.69, 0.128229
9547.24, 0.129005
9564.86, 0.129858
9582.54, 0.130634
9600.28, 0.131487
9618.1, 0.132651
9635.97, 0.133815
9653.92, 0.135211
9671.93, 0.136685
9690.01, 0.137926
9708.16, 0.138624
9726.37, 0.138624
9744.65, 0.138236
9763.0, 0.137849
9781.43, 0.137461
9799.92, 0.136995
9818.48, 0.136762
9837.1, 0.136995
9855.8, 0.137616
9874.58, 0.138392
9893.42, 0.139710
9912.34, 0.141339
9931.33, 0.142736
9950.39, 0.144132
9969.52, 0.145606
9988.74, 0.146459
10008.0, 0.147080
10027.4, 0.147856
10046.8, 0.149097
10066.3, 0.150028
10085.9, 0.150338
10105.6, 0.149640
10125.3, 0.148243
10145.1, 0.147002
10165.0, 0.146614
10185.0, 0.147313
10205.0, 0.149174
10225.2, 0.151967
10245.4, 0.155535
10265.7, 0.159569
10286.0, 0.164224
10306.5, 0.169188
10327.0, 0.173843
10347.6, 0.178032
10368.3, 0.181910
10389.1, 0.184936
10409.9, 0.186642
10430.9, 0.186875
10451.9, 0.185867
10473.0, 0.184082
10494.2, 0.182221
10515.5, 0.180592
10536.9, 0.179118
10558.4, 0.177489
10579.9, 0.175937
10601.5, 0.174153
10623.3, 0.171903
10645.1, 0.169343
10667.0, 0.167016
10689.0, 0.164922
10711.1, 0.163370
10733.2, 0.162052
10755.5, 0.160655
10777.9, 0.158949
10800.3, 0.157475
10822.9, 0.156621
10845.5, 0.156001
10868.2, 0.155147
10891.1, 0.154217
10914.0, 0.153441
10937.0, 0.152820
10960.2, 0.152045
10983.4, 0.151114
11006.7, 0.150183
11030.1, 0.148942
11053.6, 0.147235
11077.3, 0.145373
11101.0, 0.143046
11124.8, 0.140874
11148.7, 0.138779
11172.7, 0.136375
11196.9, 0.133815
11221.1, 0.131410
11245.4, 0.128850
11269.9, 0.126290
11294.4, 0.124040
11319.1, 0.121791
11343.9, 0.119464
11368.8, 0.117447
11393.7, 0.115662
11418.8, 0.114033
11444.0, 0.112559
11469.4, 0.111241
11494.8, 0.110077
11520.3, 0.108991
11546.0, 0.107517
11571.8, 0.106121
11597.7, 0.104880
11623.7, 0.103328
11649.8, 0.101777
11676.0, 0.100380
11702.4, 0.0990620
11728.9, 0.0977430
11755.5, 0.0966570
11782.2, 0.0954930
11809.0, 0.0940190
11836.0, 0.0927780
11863.0, 0.0916150
11890.3, 0.0901410
11917.6, 0.0887440
11945.0, 0.0873480
11972.6, 0.0858740
12000.4, 0.0845550
12028.2, 0.0831590
12056.2, 0.0814520
12084.3, 0.0798230
12112.5, 0.0781940
12140.9, 0.0764100
12169.4, 0.0750140
12198.0, 0.0734620
12226.8, 0.0718330
12255.7, 0.0702820
12284.7, 0.0688850
12313.9, 0.0682650
12343.2, 0.0694280
12372.7, 0.0720660
12402.3, 0.0753240
12432.0, 0.0776510
12461.9, 0.0782720
12491.9, 0.0774960
12522.1, 0.0757120
12552.4, 0.0733070
12582.9, 0.0702820
12613.5, 0.0672560
12644.3, 0.0657830
12675.2, 0.0664030
12706.3, 0.0681870
12737.5, 0.0702820
12768.9, 0.0719880
12800.4, 0.0721440
12832.1, 0.0711350
12863.9, 0.0695840
12895.9, 0.0676440
12928.1, 0.0660930
12960.4, 0.0652400
12992.9, 0.0646960
13025.5, 0.0646960
13058.3, 0.0650840
13091.3, 0.0660930
13124.4, 0.0678770
13157.8, 0.0702040
13191.2, 0.0716780
13224.9, 0.0717560
13258.7, 0.0710580
13292.7, 0.0698160
13326.9, 0.0675670
13361.2, 0.0653950
13395.7, 0.0639980
13430.4, 0.0627570
13465.3, 0.0616710
13500.4, 0.0608950
13535.7, 0.0603520
13571.1, 0.0599640
13606.7, 0.0605080
13642.5, 0.0618260
13678.5, 0.0632230
13714.7, 0.0644640
13751.1, 0.0653170
13787.6, 0.0655500
13824.4, 0.0652400
13861.4, 0.0647740
13898.5, 0.0639210
13935.9, 0.0624470
13973.5, 0.0610510
14011.2, 0.0596540
14049.2, 0.0585680
14087.4, 0.0576370
14125.8, 0.0566290
14164.3, 0.0558530
14203.2, 0.0555430
14242.2, 0.0551550
14281.4, 0.0546890
14320.9, 0.0550770
14360.5, 0.0563190
14400.4, 0.0570940
14440.5, 0.0574050
14480.9, 0.0576370
14521.4, 0.0575600
14562.2, 0.0577920
14603.3, 0.0578700
14644.5, 0.0580250
14686.0, 0.0581030
14727.7, 0.0581800
14769.7, 0.0588010
14811.9, 0.0595770
14854.3, 0.0600420
14897.0, 0.0601970
14939.9, 0.0597320
14983.1, 0.0599640
15026.5, 0.0613610
15070.2, 0.0619810
15114.2, 0.0618260
15158.3, 0.0619810
15202.8, 0.0624470
15247.5, 0.0634550
15292.5, 0.0658600
15337.7, 0.0700490
15383.2, 0.0756340
15429.0, 0.0823060
15475.1, 0.0895200
15521.4, 0.0961140
15568.0, 0.101466
15614.9, 0.106198
15662.1, 0.110387
15709.6, 0.114576
15757.3, 0.118300
15805.4, 0.121325
15853.7, 0.124816
15902.3, 0.127454
15951.2, 0.128307
16000.5, 0.127454
16050.0, 0.124428
16099.8, 0.119541
16150.0, 0.113956
16200.5, 0.108836
16251.3, 0.105345
16302.4, 0.103483
16353.8, 0.103095
16405.5, 0.104647
16457.6, 0.106586
16510.0, 0.108370
16562.8, 0.110465
16615.9, 0.112404
16669.3, 0.115119
16723.1, 0.119619
16777.2, 0.125825
16831.7, 0.133117
16886.5, 0.139322
16941.7, 0.143201
16997.2, 0.144830
17053.1, 0.143977
17109.4, 0.142037
17166.1, 0.138779
17223.1, 0.134746
17280.5, 0.131100
17338.3, 0.128229
17396.5, 0.126911
17455.1, 0.127221
17514.0, 0.128152
17573.4, 0.127997
17633.2, 0.127842
17693.4, 0.127143
17754.0, 0.124506
17815.0, 0.121325
17876.4, 0.120239
17938.3, 0.120007
18000.5, 0.120550
18063.3, 0.123420
18126.4, 0.128850
18190.0, 0.134435
18254.1, 0.140874
18318.6, 0.147933
18383.5, 0.153751
18449.0, 0.157164
18514.9, 0.157981
18581.2, 0.158331
18648.0, 0.150634
18715.4, 0.144959
18783.2, 0.139167
18851.5, 0.131237
18920.3, 0.126416
18989.6, 0.119575
19059.4, 0.112849
19129.7, 0.109973
19200.6, 0.108573
19272.0, 0.107096
19343.9, 0.109701
19416.3, 0.110945
19489.3, 0.110478
19562.8, 0.113394
19637.0, 0.119536
19711.6, 0.129060
19786.8, 0.135668
19862.6, 0.136251
19939.0, 0.136757
20016.0, 0.139750
20093.6, 0.140955
20171.8, 0.140605
20250.6, 0.136485
20330.0, 0.131975
20410.0, 0.126844
20490.7, 0.127310
20572.0, 0.130809
20654.0, 0.134230
20736.6, 0.139283
20819.9, 0.142393
20903.8, 0.141771
20988.5, 0.137417
21073.8, 0.136990
21159.8, 0.140372
21246.5, 0.140333
21334.0, 0.141188
21422.1, 0.145037
21511.0, 0.141694
21600.7, 0.132558
21691.0, 0.130226
21782.1, 0.129759
21874.0, 0.128088
21966.7, 0.128554
22060.2, 0.124123
22154.5, 0.118875
22249.6, 0.113782
22345.5, 0.104569
22442.2, 0.0992830
22539.8, 0.100527
22638.2, 0.103986
22737.5, 0.111100
22837.7, 0.118292
22938.7, 0.125833
23040.7, 0.137106
23143.5, 0.148807
23247.3, 0.153239
23352.1, 0.152734
23457.7, 0.153045
23564.4, 0.152734
23672.0, 0.152150
23780.5, 0.151490
23890.1, 0.148846
24000.7, 0.147097
24112.3, 0.144842
24225.0, 0.143948
24338.7, 0.142238
24453.5, 0.144531
24569.4, 0.149974
24686.4, 0.153394
24804.5, 0.163696
24923.8, 0.179440
25044.2, 0.197205
25165.8, 0.212443
25288.6, 0.219168
25412.5, 0.221112
25537.7, 0.220918
25664.1, 0.218196
25791.8, 0.221617
25920.8, 0.231064
26051.1, 0.243347
26182.6, 0.251900
26315.5, 0.252638
26449.8, 0.246963
26585.4, 0.242687
26722.5, 0.238061
26860.9, 0.230325
27000.8, 0.225660
27142.1, 0.225349
27285.0, 0.224222
27429.4, 0.218624
27575.3, 0.213143
27722.7, 0.207079
27871.8, 0.199809
28022.4, 0.194328
28174.7, 0.193590
28328.7, 0.198449
28484.4, 0.203191
28641.7, 0.207428
28800.9, 0.215514
28961.8, 0.220568
29124.5, 0.219751
29289.0, 0.215553
29455.4, 0.211705
29623.8, 0.204085
29794.0, 0.196466
29966.3, 0.196272
30140.5, 0.196000
30316.7, 0.191918
30495.1, 0.187836
30675.5, 0.190441
30858.1, 0.191490
31042.8, 0.190791
31229.8, 0.191762
31419.1, 0.192112
31610.7, 0.191685
31804.6, 0.189469
32000.9, 0.187020
32199.7, 0.188925
32400.9, 0.195261
32604.8, 0.199110
32811.1, 0.199459
33020.1, 0.199343
33231.8, 0.196699
33446.2, 0.192073
33663.4, 0.193395
33883.4, 0.196311
34106.3, 0.195766
34332.1, 0.195261
34561.0, 0.195766
34792.9, 0.189741
35028.0, 0.186126
35266.3, 0.187214
35507.8, 0.183405
35752.7, 0.177263
36001.0, 0.171626
36252.8, 0.170693
36508.1, 0.169993
36767.0, 0.166106
37029.7, 0.159575
37296.1, 0.154988
37566.3, 0.152150
37840.5, 0.148691
38118.8, 0.143326
38401.2, 0.141110
38687.8, 0.142238
38978.6, 0.143132
39273.9, 0.146436
39573.7, 0.154289
39878.1, 0.160197
40187.3, 0.167350
40501.2, 0.178390
40820.0, 0.188575
41144.0, 0.190830
41473.2, 0.194911
41807.6, 0.202608
42147.5, 0.209877
42493.0, 0.216136
42844.2, 0.220179
43201.2, 0.220684
43564.3, 0.217574
43933.5, 0.211355
44309.0, 0.213609
44691.0, 0.212832
45079.6, 0.210888
45475.0, 0.210227
45877.5, 0.205252
46287.1, 0.200820
46704.2, 0.205640
47128.7, 0.212365
47561.1, 0.212093
48001.5, 0.209683
48450.1, 0.211005
48907.2, 0.219596
49373.0, 0.223017
49847.7, 0.207934
50331.5, 0.197010
50825.0, 0.190208
51328.2, 0.188186
51841.5, 0.188653
52365.1, 0.185504
52899.4, 0.186515
53444.8, 0.187020
54001.5, 0.181694
54570.1, 0.178779
55150.6, 0.183988
55743.6, 0.187098
56349.5, 0.184182
56968.7, 0.179945
57601.7, 0.181228
58248.9, 0.179012
58910.9, 0.177457
59588.1, 0.177690
60281.0, 0.172287
60990.2, 0.173336
61716.3, 0.185232
62459.8, 0.191490
63221.6, 0.201325
64002.1, 0.201986
64802.1, 0.202803
65622.1, 0.216408
66463.4, 0.214698
67326.6, 0.199343
68212.4, 0.202647
69121.9, 0.217691
70056.0, 0.228342
71015.7, 0.232852
72002.0, 0.240860
73016.3, 0.248168
74059.4, 0.252794
75132.7, 0.261618
76237.6, 0.261735
77375.5, 0.265233
78547.9, 0.270326
79756.3, 0.277867
81002.5, 0.291162
82288.5, 0.294894
83615.7, 0.303329
84986.5, 0.307683
86402.9, 0.296060
87867.4, 0.290112
89382.4, 0.299597
90950.5, 0.309393
92574.6, 0.313903
94257.2, 0.290695
96002.7, 0.272775
97814.1, 0.276468
99695.1, 0.283776
101650.0, 0.303407
103683.0, 0.301813
105799.0, 0.305856
108003.0, 0.311648
110301.0, 0.329685
112699.0, 0.345623
115204.0, 0.348111
117822.0, 0.367431
120562.0, 0.383369
123433.0, 0.385741
126443.0, 0.389784
129604.0, 0.401990
132926.0, 0.373845
136424.0, 0.361095
140111.0, 0.375362
144003.0, 0.381076
148118.0, 0.417034
152474.0, 0.456762
157095.0, 0.470057
162004.0, 0.441174
167231.0, 0.440358
172805.0, 0.489144
178764.0, 0.478143
185148.0, 0.445139
192005.0, 0.478454
199390.0, 0.448560
207366.0, 0.537192
216006.0, 0.640828
