Database of Origin, USGS Spectral Database
Sample Description, See USGS database for additional info
Date Added,2016-08-03 21:28:24.633611

Data ID,USGS_cov01          
Sample ID, covellite_hs477.6475
Mineral Name, covellite
Material Class,Sulfide

Wavelength
248.1, 0.00862000
253.6, 0.0107530
258.6, 0.0140820
263.6, 0.0155050
268.6, 0.0133720
273.1, 0.0148740
277.1, 0.0153380
281.1, 0.0155340
285.1, 0.0163710
289.1, 0.0178710
293.1, 0.0170180
297.1, 0.0181660
301.1, 0.0182340
305.1, 0.0192010
309.1, 0.0193120
313.1, 0.0202130
317.1, 0.0197030
321.1, 0.0209270
325.1, 0.0211170
329.1, 0.0208970
333.1, 0.0210480
337.1, 0.0213620
341.1, 0.0207240
345.1, 0.0208650
349.1, 0.0212810
353.1, 0.0218460
357.1, 0.0218500
360.6, 0.0218020
363.6, 0.0217840
366.6, 0.0213010
369.6, 0.0219760
372.6, 0.0219100
375.6, 0.0216000
378.6, 0.0217080
381.1, 0.0216760
383.1, 0.0218810
385.1, 0.0214180
387.1, 0.0219860
389.1, 0.0219710
391.1, 0.0222760
393.1, 0.0212350
395.1, 0.0222600
397.1, 0.0215690
399.1, 0.0221860
401.1, 0.0217230
403.1, 0.0215980
405.1, 0.0219410
407.1, 0.0217140
409.1, 0.0220690
411.1, 0.0216290
412.8, 0.0222820
415.8, 0.0220200
418.8, 0.0224520
421.8, 0.0221870
424.8, 0.0223730
427.8, 0.0227780
430.8, 0.0222530
433.8, 0.0221600
436.8, 0.0224530
439.8, 0.0227390
442.8, 0.0226660
445.8, 0.0229920
448.8, 0.0224290
451.3, 0.0224290
453.3, 0.0232360
455.3, 0.0229830
457.3, 0.0230320
459.3, 0.0234150
461.3, 0.0227790
463.3, 0.0231280
465.3, 0.0236190
467.3, 0.0229880
469.3, 0.0237550
471.3, 0.0234390
473.3, 0.0237710
475.3, 0.0239600
477.3, 0.0237210
479.3, 0.0236340
481.3, 0.0241010
483.3, 0.0242530
485.3, 0.0241600
487.3, 0.0242390
489.3, 0.0241420
491.3, 0.0242000
493.3, 0.0247800
495.3, 0.0243470
497.3, 0.0245300
499.3, 0.0246910
501.3, 0.0245490
503.3, 0.0252590
505.3, 0.0249590
507.3, 0.0247380
509.3, 0.0250090
511.3, 0.0247420
513.3, 0.0253890
515.3, 0.0248370
517.3, 0.0253440
519.3, 0.0250610
521.3, 0.0250790
523.3, 0.0250060
525.3, 0.0249660
527.3, 0.0255070
529.3, 0.0250630
531.3, 0.0253400
533.3, 0.0252450
535.3, 0.0250460
537.3, 0.0254010
539.3, 0.0250430
541.3, 0.0257880
543.3, 0.0257610
545.3, 0.0248720
547.3, 0.0255240
549.3, 0.0257730
551.3, 0.0253240
553.3, 0.0255140
555.3, 0.0253500
557.3, 0.0258310
559.3, 0.0253680
561.3, 0.0251730
563.3, 0.0255780
565.3, 0.0261940
567.3, 0.0253980
569.3, 0.0259620
571.3, 0.0257370
573.3, 0.0260440
575.3, 0.0260380
577.3, 0.0257270
579.3, 0.0260480
581.3, 0.0260620
583.3, 0.0262160
585.3, 0.0256130
587.3, 0.0264020
589.3, 0.0259610
591.3, 0.0267690
593.3, 0.0258840
595.3, 0.0266150
597.3, 0.0262200
599.3, 0.0265200
601.1, 0.0267650
602.7, 0.0266640
604.3, 0.0267810
605.9, 0.0262330
607.5, 0.0268990
609.1, 0.0269840
610.7, 0.0265340
612.3, 0.0271140
613.9, 0.0269720
615.5, 0.0273470
617.1, 0.0269290
618.7, 0.0272980
620.3, 0.0275350
621.9, 0.0271000
623.5, 0.0271870
625.1, 0.0273290
626.7, 0.0270210
628.3, 0.0282230
629.9, 0.0275030
631.7, 0.0280030
633.7, 0.0281310
635.7, 0.0281170
637.7, 0.0287890
639.7, 0.0286260
641.7, 0.0291620
643.7, 0.0284970
645.7, 0.0290550
647.7, 0.0290610
649.7, 0.0298210
651.7, 0.0295710
653.7, 0.0297060
655.7, 0.0304460
657.7, 0.0307340
659.7, 0.0300020
661.7, 0.0311650
663.7, 0.0320290
665.7, 0.0316550
667.7, 0.0317280
670.2, 0.0324040
673.2, 0.0327540
676.2, 0.0326690
679.2, 0.0330180
682.2, 0.0333870
685.2, 0.0343340
688.2, 0.0341660
691.2, 0.0345770
694.2, 0.0348930
697.2, 0.0356710
700.2, 0.0360250
702.0, 0.0357940
704.0, 0.0368370
706.0, 0.0358970
708.0, 0.0370980
710.0, 0.0370650
712.0, 0.0370260
714.0, 0.0372630
716.0, 0.0374970
718.0, 0.0380990
720.0, 0.0380110
722.0, 0.0380330
724.0, 0.0380900
726.0, 0.0386970
728.0, 0.0383800
730.0, 0.0387190
732.0, 0.0386510
734.0, 0.0389760
736.0, 0.0389620
738.0, 0.0392500
740.0, 0.0391010
742.0, 0.0397220
744.0, 0.0393800
746.0, 0.0398850
748.0, 0.0395900
750.5, 0.0399970
753.5, 0.0400580
756.5, 0.0403640
759.5, 0.0401720
762.5, 0.0408580
765.5, 0.0406230
768.5, 0.0406460
771.5, 0.0406710
774.5, 0.0413760
777.5, 0.0411320
781.0, 0.0410660
785.0, 0.0413090
789.0, 0.0414940
793.0, 0.0417540
797.0, 0.0417510
801.5, 0.0419830
806.5, 0.0419540
811.5, 0.0425400
816.5, 0.0424660
822.0, 0.0422540
828.0, 0.0426650
835.0, 0.0430260
843.0, 0.0431800
851.0, 0.0457830
859.0, 0.0452420
871.0, 0.0458580
883.0, 0.0451530
894.0, 0.0479660
904.0, 0.0472000
914.0, 0.0454020
924.0, 0.0475040
933.0, 0.0485350
941.0, 0.0502380
949.0, 0.0487820
957.0, 0.0483510
964.0, 0.0503840
970.0, 0.0500470
976.0, 0.0500200
982.0, 0.0495480
988.0, 0.0497490
994.0, 0.0501210
1000.0, 0.0498020
1006.0, 0.0516140
1012.0, 0.0492390
1018.0, 0.0494640
1023.5, 0.0488800
1028.5, 0.0496010
1033.5, 0.0508120
1038.5, 0.0497400
1043.5, 0.0503140
1048.5, 0.0498730
1053.5, 0.0488460
1058.5, 0.0499960
1063.5, 0.0509400
1068.5, 0.0506290
1073.5, 0.0504580
1078.5, 0.0491560
1083.5, 0.0508750
1088.5, 0.0498420
1093.5, 0.0508630
1098.5, 0.0500940
1103.5, 0.0495870
1108.5, 0.0507120
1113.5, 0.0508830
1118.5, 0.0515920
1123.5, 0.0515870
1128.5, 0.0512440
1133.5, 0.0507540
1138.5, 0.0512060
1143.5, 0.0511960
1148.5, 0.0515330
1153.5, 0.0510370
1158.5, 0.0516120
1163.5, 0.0509610
1168.5, 0.0516010
1173.5, 0.0517930
1178.5, 0.0520730
1183.5, 0.0511230
1188.5, 0.0518670
1193.5, 0.0513180
1198.5, 0.0513760
1203.5, 0.0517010
1208.5, 0.0519860
1213.5, 0.0517010
1218.5, 0.0521160
1223.5, 0.0519230
1228.5, 0.0526170
1233.5, 0.0512470
1238.5, 0.0518890
1243.5, 0.0521670
1248.5, 0.0519700
1253.5, 0.0512330
1258.5, 0.0520440
1263.5, 0.0518410
1268.5, 0.0520190
1273.5, 0.0517350
1278.5, 0.0520840
1283.5, 0.0519630
1288.5, 0.0512370
1293.5, 0.0523280
1298.5, 0.0530680
1303.5, 0.0520760
1308.5, 0.0514640
1313.5, 0.0530840
1318.5, 0.0517120
1323.5, 0.0525270
1328.5, 0.0524510
1333.5, 0.0515010
1338.5, 0.0514090
1343.5, 0.0522890
1348.5, 0.0511700
1353.5, 0.0512660
1358.5, 0.0506360
1363.5, 0.0512410
1368.5, 0.0517560
1373.5, 0.0520310
1378.5, 0.0524650
1383.5, 0.0519020
1388.5, 0.0526050
1393.5, 0.0519920
1398.5, 0.0506680
1403.5, 0.0524560
1408.5, 0.0520290
1413.5, 0.0524040
1418.5, 0.0519370
1423.5, 0.0507130
1428.5, 0.0518440
1433.5, 0.0517290
1438.5, 0.0510850
1443.5, 0.0519750
1448.5, 0.0517260
1453.5, 0.0516550
1458.5, 0.0500360
1463.5, 0.0521780
1468.5, 0.0516100
1473.5, 0.0509920
1478.5, 0.0518510
1483.5, 0.0519010
1488.5, 0.0534270
1493.5, 0.0515540
1498.5, 0.0506860
1503.5, 0.0512670
1508.5, 0.0516150
1513.5, 0.0504940
1518.5, 0.0508810
1523.5, 0.0512280
1528.5, 0.0510000
1534.0, 0.0518720
1540.0, 0.0506070
1546.0, 0.0510030
1552.0, 0.0499880
1558.0, 0.0518210
1564.0, 0.0511970
1570.5, 0.0507460
1577.5, 0.0517420
1584.5, 0.0508590
1591.5, 0.0498630
1598.5, 0.0505170
1605.5, 0.0509280
1612.5, 0.0502060
1619.5, 0.0495680
1626.5, 0.0502600
1633.5, 0.0495510
1640.5, 0.0499610
1647.5, 0.0498340
1654.5, 0.0496160
1661.5, 0.0504360
1668.5, 0.0494820
1676.0, 0.0497030
1684.0, 0.0482260
1692.0, 0.0495830
1700.0, 0.0510200
1708.0, 0.0494370
1716.0, 0.0501990
1724.0, 0.0493660
1732.0, 0.0498270
1740.0, 0.0498970
1748.0, 0.0476380
1756.0, 0.0506090
1764.0, 0.0503620
1772.0, 0.0489180
1780.0, 0.0493770
1788.0, 0.0496770
1796.0, 0.0505270
1805.0, 0.0492550
1815.0, 0.0491700
1825.0, 0.0482540
1835.0, 0.0493960
1845.0, 0.0482350
1855.0, 0.0484720
1865.0, 0.0495660
1875.0, 0.0498680
1885.0, 0.0486990
1895.0, 0.0502430
1905.0, 0.0506390
1915.0, 0.0485620
1925.0, 0.0484350
1935.0, 0.0477310
1945.0, 0.0492910
1955.0, 0.0483430
1965.0, 0.0483870
1975.0, 0.0482780
1985.0, 0.0499830
1995.0, 0.0492490
2005.0, 0.0485320
2015.0, 0.0497370
2025.0, 0.0496560
2035.0, 0.0484660
2045.0, 0.0495000
2055.0, 0.0487990
2065.0, 0.0490030
2075.0, 0.0478840
2085.0, 0.0497500
2095.0, 0.0490220
2105.0, 0.0488660
2115.0, 0.0502020
2125.0, 0.0497570
2135.0, 0.0506820
2145.0, 0.0509520
2155.0, 0.0504810
2165.0, 0.0503250
2175.0, 0.0494980
2185.0, 0.0486130
2195.0, 0.0502220
2205.0, 0.0509750
2215.0, 0.0506760
2225.0, 0.0498170
2235.0, 0.0499100
2245.0, 0.0515700
2255.0, 0.0507330
2265.0, 0.0495910
2275.0, 0.0515250
2285.0, 0.0499220
2295.0, 0.0512030
2305.0, 0.0521330
2315.0, 0.0537600
2325.0, 0.0508770
2335.0, 0.0522650
2345.0, 0.0524610
2355.0, 0.0520570
2365.0, 0.0518380
2375.0, 0.0516960
2386.0, 0.0530090
2400.0, 0.0530520
2418.0, 0.0540820
2440.0, 0.0537040
2466.0, 0.0549820
2496.0, 0.0547690
2528.0, 0.0561900
2560.0, 0.0548740
2592.0, 0.0567720
2624.0, 0.0574910
2656.0, 0.0576110
2688.0, 0.0614730
2720.0, 0.0651890
2752.0, 0.0583570
2784.0, 0.0619930
2816.0, 0.0563340
2848.0, 0.0489590
2880.0, 0.0418810
2912.0, 0.0410390
2944.0, 0.0449010
2976.0, 0.0392320
