Database of Origin, USGS Spectral Database
Sample Description, See USGS database for additional info
Date Added,2016-08-03 21:25:20.966811

Data ID,USGS_cli21          
Sample ID, clinoptilolite_gds2.5908
Mineral Name, clinoptilolite
Material Class,Tectosilicate

Wavelength
1384.66, 0.490582
1385.03, 0.489683
1385.4, 0.488785
1385.77, 0.488057
1386.14, 0.487116
1386.51, 0.486260
1386.88, 0.485233
1387.25, 0.483864
1387.62, 0.482752
1387.99, 0.482152
1388.36, 0.481126
1388.74, 0.480313
1389.11, 0.479328
1389.48, 0.477831
1389.85, 0.476675
1390.23, 0.475948
1390.6, 0.475178
1390.97, 0.473851
1391.35, 0.472396
1391.72, 0.471241
1392.09, 0.469786
1392.47, 0.468332
1392.84, 0.467305
1393.21, 0.466406
1393.59, 0.464866
1393.96, 0.463753
1394.34, 0.462469
1394.71, 0.460715
1395.09, 0.459175
1395.46, 0.458019
1395.84, 0.456778
1396.22, 0.455366
1396.59, 0.453783
1396.97, 0.452328
1397.35, 0.450873
1397.72, 0.449461
1398.1, 0.447835
1398.48, 0.446338
1398.85, 0.444669
1399.23, 0.442701
1399.61, 0.441417
1399.99, 0.439748
1400.37, 0.437566
1400.74, 0.436411
1401.12, 0.434956
1401.5, 0.433372
1401.88, 0.431789
1402.26, 0.430206
1402.64, 0.428880
1403.02, 0.427425
1403.4, 0.425627
1403.78, 0.424130
1404.16, 0.422589
1404.54, 0.420792
1404.92, 0.419337
1405.3, 0.417968
1405.68, 0.416813
1406.06, 0.415572
1406.44, 0.414288
1406.83, 0.412919
1407.21, 0.411764
1407.59, 0.411036
1407.97, 0.409924
1408.35, 0.408683
1408.74, 0.407528
1409.12, 0.406158
1409.5, 0.405003
1409.89, 0.404447
1410.27, 0.404019
1410.65, 0.402949
1411.04, 0.402008
1411.42, 0.401237
1411.81, 0.400553
1412.19, 0.399825
1412.58, 0.399098
1412.96, 0.398798
1413.35, 0.398199
1413.73, 0.397515
1414.12, 0.396959
1414.5, 0.396531
1414.89, 0.395675
1415.28, 0.395504
1415.66, 0.395375
1416.05, 0.394990
1416.44, 0.394776
1416.82, 0.394434
1417.21, 0.394220
1417.6, 0.394134
1417.98, 0.393835
1418.37, 0.393792
1418.76, 0.393707
1419.15, 0.393835
1419.54, 0.393878
1419.93, 0.393963
1420.32, 0.394434
1420.71, 0.394733
1421.09, 0.394605
1421.48, 0.394862
1421.88, 0.395204
1422.27, 0.395546
1422.66, 0.395760
1423.05, 0.396445
1423.44, 0.396745
1423.83, 0.397258
1424.22, 0.397558
1424.61, 0.397943
1425.0, 0.398371
1425.39, 0.398713
1425.78, 0.399312
1426.18, 0.399954
1426.57, 0.400553
1426.96, 0.401066
1427.36, 0.401580
1427.75, 0.402264
1428.14, 0.403035
1428.54, 0.403634
1428.93, 0.404062
1429.32, 0.404875
1429.72, 0.405602
1430.11, 0.406030
1430.51, 0.406843
1430.9, 0.407699
1431.3, 0.407955
1431.69, 0.408426
1432.09, 0.409111
1432.48, 0.409667
1432.88, 0.410138
1433.28, 0.410908
1433.67, 0.411806
1434.07, 0.412491
1434.46, 0.413090
1434.86, 0.413818
1435.26, 0.414374
1435.66, 0.414973
1436.05, 0.415743
1436.45, 0.416556
1436.85, 0.417027
1437.25, 0.417198
1437.65, 0.417540
1438.05, 0.418310
1438.44, 0.418610
1438.84, 0.419166
1439.24, 0.419808
1439.64, 0.420450
1440.04, 0.421263
1440.44, 0.421734
1440.84, 0.421990
1441.24, 0.422333
1441.65, 0.422889
1442.05, 0.423702
1442.45, 0.424301
1442.85, 0.424772
1443.25, 0.424986
1443.65, 0.425200
1444.05, 0.425328
1444.46, 0.426013
1444.86, 0.426612
1445.26, 0.427082
1445.67, 0.427254
1446.07, 0.427382
1446.47, 0.427553
1446.88, 0.427853
1447.28, 0.428195
1447.68, 0.428708
1448.09, 0.428965
1448.49, 0.429136
1448.9, 0.429436
1449.3, 0.429735
1449.71, 0.429693
1450.11, 0.429778
1450.52, 0.429735
1450.93, 0.429864
1451.33, 0.430078
1451.74, 0.430163
1452.14, 0.429992
1452.55, 0.430292
1452.96, 0.430506
1453.36, 0.430163
1453.77, 0.429778
1454.18, 0.429864
1454.59, 0.429992
1455.0, 0.429906
1455.41, 0.429906
1455.81, 0.429607
1456.22, 0.429393
1456.63, 0.429222
1457.04, 0.429008
1457.45, 0.428623
1457.86, 0.428837
1458.27, 0.428922
1458.68, 0.428623
1459.09, 0.428452
1459.5, 0.428323
1459.91, 0.428109
1460.32, 0.427895
1460.74, 0.427425
1461.15, 0.427168
1461.56, 0.427211
1461.97, 0.427125
1462.39, 0.427082
1462.8, 0.427125
1463.21, 0.427254
1463.62, 0.427168
1464.04, 0.426911
1464.45, 0.427040
1464.86, 0.427211
1465.28, 0.427425
1465.69, 0.427681
1466.11, 0.427681
1466.52, 0.427681
1466.94, 0.427853
1467.35, 0.428238
1467.77, 0.428537
1468.18, 0.428751
1468.6, 0.429136
1469.02, 0.429821
1469.43, 0.430334
1469.85, 0.430420
1470.27, 0.430848
1470.68, 0.431105
1471.1, 0.431404
1471.52, 0.432217
1471.94, 0.432987
1472.35, 0.433672
1472.77, 0.434057
1473.19, 0.434399
1473.61, 0.434827
1474.03, 0.435512
1474.45, 0.435940
1474.87, 0.436197
1475.29, 0.436624
1475.71, 0.437138
1476.13, 0.438036
1476.55, 0.438721
1476.97, 0.439063
1477.39, 0.439577
1477.81, 0.439962
1478.23, 0.440347
1478.65, 0.440561
1479.07, 0.440989
1479.5, 0.441545
1479.92, 0.442144
1480.34, 0.442743
1480.76, 0.443214
1481.19, 0.443642
1481.61, 0.443856
1482.03, 0.444198
1482.46, 0.444669
1482.88, 0.445182
1483.31, 0.445610
1483.73, 0.446166
1484.16, 0.446637
1484.58, 0.447065
1485.01, 0.447365
1485.43, 0.447878
1485.86, 0.448220
1486.28, 0.448306
1486.71, 0.448605
1487.14, 0.449162
1487.56, 0.449376
1487.99, 0.449675
1488.42, 0.450274
1488.84, 0.450788
1489.27, 0.451044
1489.7, 0.451344
1490.13, 0.451772
1490.56, 0.452029
1490.98, 0.452200
1491.41, 0.452414
1491.84, 0.452756
1492.27, 0.453141
1492.7, 0.453355
1493.13, 0.453783
1493.56, 0.454083
1493.99, 0.454468
1494.42, 0.454682
1494.85, 0.455067
1495.29, 0.455323
1495.72, 0.455452
1496.15, 0.455623
1496.58, 0.456094
1497.01, 0.456436
1497.44, 0.456607
1497.88, 0.456864
1498.31, 0.457035
1498.74, 0.457292
1499.18, 0.457634
1499.61, 0.457934
1500.04, 0.458105
1500.48, 0.458404
1500.91, 0.458918
1501.35, 0.459132
1501.78, 0.459175
1502.22, 0.459260
1502.65, 0.459645
1503.09, 0.459945
1503.53, 0.460073
1503.96, 0.460330
1504.4, 0.460629
1504.83, 0.460886
1505.27, 0.461228
1505.71, 0.461400
1506.15, 0.461656
1506.58, 0.461742
1507.02, 0.461956
1507.46, 0.462341
1507.9, 0.462469
1508.34, 0.462640
1508.78, 0.462812
1509.21, 0.463154
1509.66, 0.463368
1510.09, 0.463582
1510.53, 0.463710
1510.97, 0.463796
1511.42, 0.464010
1511.86, 0.464309
1512.3, 0.464609
1512.74, 0.464866
1513.18, 0.464951
1513.62, 0.464951
1514.06, 0.465251
1514.51, 0.465679
1514.95, 0.465636
1515.39, 0.466064
1515.83, 0.466149
1516.28, 0.466278
1516.72, 0.466620
1517.16, 0.466791
1517.61, 0.467219
1518.05, 0.467347
1518.5, 0.467390
1518.94, 0.467390
1519.39, 0.467561
1519.83, 0.467946
1520.28, 0.467989
1520.73, 0.468118
1521.17, 0.468289
1521.62, 0.468545
1522.07, 0.468802
1522.51, 0.469187
1522.96, 0.469273
1523.41, 0.469401
1523.85, 0.469530
1524.3, 0.469701
1524.75, 0.470086
1525.2, 0.470257
1525.65, 0.470385
1526.1, 0.470557
1526.55, 0.470728
1527.0, 0.470942
1527.45, 0.471198
1527.9, 0.471327
1528.35, 0.471455
1528.8, 0.471712
1529.25, 0.471926
1529.7, 0.472054
1530.15, 0.472097
1530.6, 0.472439
1531.05, 0.472610
1531.51, 0.472739
1531.96, 0.473167
1532.41, 0.473381
1532.87, 0.473509
1533.32, 0.473766
1533.77, 0.474022
1534.23, 0.474279
1534.68, 0.474365
1535.14, 0.474579
1535.59, 0.474835
1536.05, 0.474921
1536.5, 0.475135
1536.96, 0.475520
1537.41, 0.475777
1537.87, 0.476119
1538.32, 0.476290
1538.78, 0.476419
1539.24, 0.476461
1539.7, 0.476633
1540.15, 0.477061
1540.61, 0.477360
1541.07, 0.477574
1541.53, 0.477660
1541.98, 0.477916
1542.44, 0.478301
1542.9, 0.478515
1543.36, 0.478858
1543.82, 0.478943
1544.28, 0.478900
1544.74, 0.478986
1545.2, 0.479157
1545.66, 0.479414
1546.12, 0.479842
1546.59, 0.480313
1547.05, 0.480526
1547.51, 0.480526
1547.97, 0.480826
1548.43, 0.480997
1548.9, 0.481254
1549.36, 0.481339
1549.82, 0.481682
1550.29, 0.481810
1550.75, 0.481981
1551.21, 0.482366
1551.68, 0.482666
1552.14, 0.482837
1552.61, 0.483137
1553.07, 0.483308
1553.54, 0.483607
1554.0, 0.483778
1554.47, 0.483907
1554.93, 0.484078
1555.4, 0.484249
1555.87, 0.484463
1556.34, 0.484720
1556.8, 0.484977
1557.27, 0.485233
1557.74, 0.485447
1558.21, 0.485533
1558.68, 0.485661
1559.14, 0.485747
1559.61, 0.485961
1560.08, 0.486303
1560.55, 0.486688
1561.02, 0.486731
1561.49, 0.487031
1561.96, 0.487416
1562.43, 0.487630
1562.9, 0.487630
1563.38, 0.487801
1563.85, 0.487886
1564.32, 0.487972
1564.79, 0.488186
1565.26, 0.488314
1565.74, 0.488699
1566.21, 0.488956
1566.68, 0.489127
1567.16, 0.489298
1567.63, 0.489555
1568.1, 0.489812
1568.58, 0.489940
1569.05, 0.490069
1569.53, 0.490197
1570.0, 0.490539
1570.48, 0.490625
1570.96, 0.490539
1571.43, 0.490668
1571.91, 0.491096
1572.39, 0.491395
1572.86, 0.491395
1573.34, 0.491609
1573.82, 0.491994
1574.3, 0.492336
1574.77, 0.492422
1575.25, 0.492422
1575.73, 0.492636
1576.21, 0.492893
1576.69, 0.493064
1577.17, 0.493278
1577.65, 0.493278
1578.13, 0.493406
1578.61, 0.493791
1579.09, 0.493920
1579.57, 0.494005
1580.05, 0.494262
1580.54, 0.494476
1581.02, 0.494775
1581.5, 0.495075
1581.98, 0.495032
1582.47, 0.495246
1582.95, 0.495417
1583.43, 0.495374
1583.92, 0.495631
1584.4, 0.495888
1584.88, 0.496016
1585.37, 0.496273
1585.85, 0.496444
1586.34, 0.496615
1586.82, 0.496615
1587.31, 0.496829
1587.8, 0.496915
1588.28, 0.497043
1588.77, 0.497386
1589.26, 0.497642
1589.74, 0.497728
1590.23, 0.497985
1590.72, 0.498156
1591.21, 0.498199
1591.7, 0.498413
1592.19, 0.498798
1592.67, 0.499140
1593.16, 0.499054
1593.65, 0.499311
1594.14, 0.499653
1594.63, 0.499910
1595.12, 0.499910
1595.61, 0.500210
1596.11, 0.500338
1596.6, 0.500552
1597.09, 0.500766
1597.58, 0.501023
1598.08, 0.501194
1598.57, 0.501237
1599.06, 0.501408
1599.55, 0.501836
1600.05, 0.501921
1600.54, 0.502092
1601.04, 0.502435
1601.53, 0.502649
1602.03, 0.502905
1602.52, 0.503077
1603.02, 0.503205
1603.51, 0.503333
1604.01, 0.503590
1604.5, 0.503633
1605.0, 0.503975
1605.5, 0.504317
1606.0, 0.504703
1606.49, 0.505002
1606.99, 0.505002
1607.49, 0.505216
1607.99, 0.505387
1608.49, 0.505730
1608.99, 0.506029
1609.49, 0.506200
1609.99, 0.506243
1610.49, 0.506371
1610.99, 0.506457
1611.49, 0.506585
1611.99, 0.506928
1612.49, 0.507270
1612.99, 0.507441
1613.49, 0.507398
1614.0, 0.507741
1614.5, 0.508040
1615.0, 0.508425
1615.51, 0.508725
1616.01, 0.508682
1616.51, 0.508639
1617.02, 0.508810
1617.52, 0.509153
1618.03, 0.509495
1618.53, 0.509623
1619.04, 0.509795
1619.54, 0.510009
1620.05, 0.510265
1620.55, 0.510693
1621.06, 0.510650
1621.57, 0.510779
1622.08, 0.511207
1622.58, 0.511677
1623.09, 0.511634
1623.6, 0.511677
1624.11, 0.511934
1624.62, 0.511934
1625.13, 0.512148
1625.64, 0.512447
1626.15, 0.512704
1626.66, 0.512833
1627.17, 0.512961
1627.68, 0.513218
1628.19, 0.513432
1628.7, 0.513560
1629.21, 0.513646
1629.72, 0.513902
1630.24, 0.513902
1630.75, 0.514073
1631.26, 0.514373
1631.78, 0.514630
1632.29, 0.514929
1632.8, 0.515143
1633.32, 0.515143
1633.83, 0.515357
1634.35, 0.515571
1634.86, 0.515443
1635.38, 0.515486
1635.9, 0.515699
1636.41, 0.516042
1636.93, 0.516170
1637.45, 0.516299
1637.96, 0.516555
1638.48, 0.516812
1639.0, 0.516898
1639.52, 0.516940
1640.04, 0.516983
1640.56, 0.517240
1641.08, 0.517625
1641.59, 0.517668
1642.11, 0.517753
1642.63, 0.517839
1643.16, 0.517967
1643.68, 0.518096
1644.2, 0.518139
1644.72, 0.518438
1645.24, 0.518609
1645.76, 0.518780
1646.29, 0.519080
1646.81, 0.519080
1647.33, 0.519208
1647.86, 0.519337
1648.38, 0.519294
1648.9, 0.519379
1649.43, 0.519636
1649.95, 0.519893
1650.48, 0.519978
1651.0, 0.520192
1651.53, 0.520620
1652.06, 0.520620
1652.58, 0.520577
1653.11, 0.520791
1653.64, 0.520791
1654.17, 0.520791
1654.69, 0.520834
1655.22, 0.520963
1655.75, 0.521262
1656.28, 0.521348
1656.81, 0.521562
1657.34, 0.521690
1657.87, 0.521861
1658.4, 0.522032
1658.93, 0.522204
1659.46, 0.522246
1659.99, 0.522417
1660.52, 0.522417
1661.05, 0.522546
1661.59, 0.522760
1662.12, 0.523017
1662.65, 0.523273
1663.19, 0.523402
1663.72, 0.523487
1664.26, 0.523701
1664.79, 0.523701
1665.32, 0.523872
1665.86, 0.524129
1666.39, 0.524257
1666.93, 0.524471
1667.47, 0.524600
1668.0, 0.524685
1668.54, 0.524899
1669.08, 0.525113
1669.61, 0.525242
1670.15, 0.525070
1670.69, 0.525284
1671.23, 0.525541
1671.77, 0.525627
1672.31, 0.525712
1672.85, 0.525969
1673.39, 0.526140
1673.93, 0.526354
1674.47, 0.526525
1675.01, 0.526739
1675.55, 0.526996
1676.09, 0.527039
1676.64, 0.527081
1677.18, 0.527167
1677.72, 0.527295
1678.26, 0.527552
1678.81, 0.527638
1679.35, 0.527852
1679.89, 0.528066
1680.44, 0.528280
1680.98, 0.528151
1681.53, 0.528280
1682.07, 0.528622
1682.62, 0.528879
1683.17, 0.528964
1683.71, 0.528921
1684.26, 0.528964
1684.81, 0.529178
1685.36, 0.529264
1685.9, 0.529349
1686.45, 0.529692
1687.0, 0.529991
1687.55, 0.530034
1688.1, 0.529991
1688.65, 0.530120
1689.2, 0.530419
1689.75, 0.530505
1690.3, 0.530847
1690.85, 0.530761
1691.41, 0.530676
1691.96, 0.530847
1692.51, 0.531018
1693.06, 0.531189
1693.61, 0.531232
1694.17, 0.531361
1694.72, 0.531361
1695.28, 0.531489
1695.83, 0.531574
1696.39, 0.531660
1696.94, 0.531874
1697.5, 0.532088
1698.05, 0.532088
1698.61, 0.532088
1699.17, 0.532216
1699.72, 0.532259
1700.28, 0.532259
1700.84, 0.532430
1701.4, 0.532516
1701.95, 0.532559
1702.51, 0.532687
1703.07, 0.532730
1703.63, 0.532730
1704.19, 0.532730
1704.75, 0.532730
1705.31, 0.532901
1705.88, 0.533072
1706.44, 0.532944
1707.0, 0.532944
1707.56, 0.532986
1708.12, 0.533158
1708.69, 0.533158
1709.25, 0.533115
1709.81, 0.533158
1710.38, 0.533158
1710.94, 0.533286
1711.51, 0.533372
1712.07, 0.533286
1712.64, 0.533243
1713.2, 0.533158
1713.77, 0.533200
1714.34, 0.533414
1714.9, 0.533457
1715.47, 0.533414
1716.04, 0.533372
1716.61, 0.533414
1717.18, 0.533543
1717.74, 0.533457
1718.31, 0.533286
1718.88, 0.533372
1719.45, 0.533500
1720.02, 0.533414
1720.59, 0.533414
1721.17, 0.533457
1721.74, 0.533329
1722.31, 0.533329
1722.88, 0.533286
1723.45, 0.533243
1724.03, 0.533372
1724.6, 0.533286
1725.18, 0.533286
1725.75, 0.533158
1726.33, 0.533072
1726.9, 0.533158
1727.48, 0.533200
1728.05, 0.533115
1728.63, 0.532986
1729.2, 0.533029
1729.78, 0.532986
1730.36, 0.532944
1730.94, 0.532986
1731.51, 0.532858
1732.09, 0.532858
1732.67, 0.532944
1733.25, 0.532858
1733.83, 0.532858
1734.41, 0.532858
1734.99, 0.532601
1735.57, 0.532430
1736.15, 0.532430
1736.73, 0.532559
1737.32, 0.532559
1737.9, 0.532516
1738.48, 0.532516
1739.07, 0.532430
1739.65, 0.532430
1740.23, 0.532302
1740.82, 0.532259
1741.4, 0.532430
1741.99, 0.532259
1742.57, 0.532302
1743.16, 0.532173
1743.74, 0.532045
1744.33, 0.532002
1744.92, 0.532045
1745.51, 0.531960
1746.09, 0.531874
1746.68, 0.531746
1747.27, 0.531532
1747.86, 0.531574
1748.45, 0.531660
1749.04, 0.531660
1749.63, 0.531532
1750.22, 0.531403
1750.81, 0.531361
1751.4, 0.531275
1751.99, 0.531232
1752.59, 0.531146
1753.18, 0.531104
1753.77, 0.531061
1754.37, 0.531018
1754.96, 0.530761
1755.56, 0.530804
1756.15, 0.530890
1756.74, 0.530847
1757.34, 0.530590
1757.94, 0.530590
1758.53, 0.530462
1759.13, 0.530419
1759.73, 0.530334
1760.32, 0.530248
1760.92, 0.530419
1761.52, 0.530419
1762.12, 0.530120
1762.72, 0.529863
1763.32, 0.529948
1763.92, 0.530077
1764.52, 0.529863
1765.12, 0.529863
1765.72, 0.529649
1766.32, 0.529521
1766.92, 0.529307
1767.53, 0.529221
1768.13, 0.529307
1768.73, 0.529221
1769.34, 0.529221
1769.94, 0.529007
1770.55, 0.528921
1771.15, 0.528964
1771.76, 0.529007
1772.36, 0.528921
1772.97, 0.528750
1773.57, 0.528536
1774.18, 0.528451
1774.79, 0.528494
1775.4, 0.528408
1776.0, 0.528365
1776.61, 0.528194
1777.22, 0.528237
1777.83, 0.528108
1778.44, 0.527894
1779.05, 0.527766
1779.66, 0.527638
1780.27, 0.527552
1780.88, 0.527595
1781.5, 0.527595
1782.11, 0.527595
1782.72, 0.527253
1783.33, 0.527081
1783.95, 0.527124
1784.56, 0.527081
1785.18, 0.526910
1785.79, 0.526782
1786.41, 0.526611
1787.02, 0.526654
1787.64, 0.526654
1788.26, 0.526696
1788.87, 0.526440
1789.49, 0.526354
1790.11, 0.526226
1790.73, 0.526097
1791.35, 0.526012
1791.96, 0.525926
1792.58, 0.525883
1793.21, 0.525712
1793.83, 0.525627
1794.45, 0.525541
1795.07, 0.525498
1795.69, 0.525498
1796.31, 0.525456
1796.93, 0.525370
1797.56, 0.525284
1798.18, 0.525199
1798.8, 0.525199
1799.43, 0.525028
1800.05, 0.524771
1800.68, 0.524814
1801.3, 0.524985
1801.93, 0.524899
1802.56, 0.524814
1803.18, 0.524814
1803.81, 0.524814
1804.44, 0.524728
1805.07, 0.524600
1805.7, 0.524471
1806.33, 0.524429
1806.95, 0.524557
1807.58, 0.524600
1808.22, 0.524557
1808.85, 0.524343
1809.48, 0.524343
1810.11, 0.524343
1810.74, 0.524257
1811.38, 0.524172
1812.01, 0.524257
1812.64, 0.524086
1813.28, 0.524172
1813.91, 0.524215
1814.55, 0.524300
1815.18, 0.524172
1815.82, 0.524300
1816.45, 0.524343
1817.09, 0.524386
1817.73, 0.524386
1818.36, 0.524343
1819.0, 0.524300
1819.64, 0.524257
1820.28, 0.524257
1820.92, 0.524343
1821.56, 0.524429
1822.2, 0.524728
1822.84, 0.524856
1823.48, 0.524856
1824.12, 0.524728
1824.76, 0.524771
1825.41, 0.524814
1826.05, 0.524814
1826.69, 0.525070
1827.34, 0.525113
1827.98, 0.525070
1828.63, 0.525070
1829.27, 0.524985
1829.92, 0.525113
1830.56, 0.525070
1831.21, 0.525199
1831.86, 0.525370
1832.5, 0.525284
1833.15, 0.525327
1833.8, 0.525327
1834.45, 0.525113
1835.1, 0.525113
1835.75, 0.525242
1836.4, 0.525327
1837.05, 0.525156
1837.7, 0.524985
1838.35, 0.525070
1839.01, 0.524899
1839.66, 0.524771
1840.31, 0.524942
1840.96, 0.524856
1841.62, 0.524642
1842.27, 0.524771
1842.93, 0.524814
1843.58, 0.524685
1844.24, 0.524557
1844.9, 0.524429
1845.55, 0.524257
1846.21, 0.524001
1846.87, 0.523744
1847.53, 0.523658
1848.18, 0.523616
1848.84, 0.523530
1849.5, 0.523230
1850.16, 0.523017
1850.82, 0.522717
1851.48, 0.522332
1852.14, 0.521990
1852.81, 0.521604
1853.47, 0.521219
1854.13, 0.521091
1854.8, 0.520663
1855.46, 0.520107
1856.12, 0.519636
1856.79, 0.519379
1857.45, 0.518994
1858.12, 0.518224
1858.79, 0.517325
1859.45, 0.516684
1860.12, 0.516299
1860.79, 0.515785
1861.46, 0.515100
1862.12, 0.514416
1862.79, 0.513432
1863.46, 0.512447
1864.13, 0.511292
1864.8, 0.510222
1865.48, 0.509195
1866.15, 0.508040
1866.82, 0.506842
1867.49, 0.505687
1868.16, 0.504403
1868.84, 0.502777
1869.51, 0.501322
1870.19, 0.499696
1870.86, 0.498027
1871.54, 0.496359
1872.21, 0.494433
1872.89, 0.492336
1873.56, 0.490325
1874.24, 0.487972
1874.92, 0.485576
1875.6, 0.483265
1876.28, 0.480612
1876.96, 0.477831
1877.64, 0.474921
1878.32, 0.471883
1879.0, 0.468759
1879.68, 0.465208
1880.36, 0.461571
1881.04, 0.457634
1881.73, 0.453655
1882.41, 0.449333
1883.09, 0.444626
1883.78, 0.439705
1884.46, 0.434742
1885.15, 0.429393
1885.83, 0.423745
1886.52, 0.417883
1887.21, 0.411678
1887.89, 0.405174
1888.58, 0.398627
1889.27, 0.391824
1889.96, 0.384806
1890.65, 0.378003
1891.34, 0.371114
1892.03, 0.364310
1892.72, 0.357806
1893.41, 0.351430
1894.1, 0.345312
1894.79, 0.339492
1895.49, 0.333887
1896.18, 0.328324
1896.87, 0.323275
1897.57, 0.318739
1898.26, 0.314460
1898.96, 0.310053
1899.65, 0.305988
1900.35, 0.302479
1901.05, 0.299056
1901.74, 0.295932
1902.44, 0.292980
1903.14, 0.290113
1903.84, 0.287546
1904.54, 0.285363
1905.24, 0.283523
1905.94, 0.282111
1906.64, 0.280870
1907.34, 0.279972
1908.04, 0.279672
1908.75, 0.279672
1909.45, 0.280143
1910.15, 0.280870
1910.86, 0.281940
1911.56, 0.283395
1912.27, 0.285192
1912.97, 0.287203
1913.68, 0.289600
1914.39, 0.292295
1915.09, 0.294820
1915.8, 0.297430
1916.51, 0.300425
1917.22, 0.303463
1917.93, 0.306544
1918.64, 0.309753
1919.35, 0.313005
1920.06, 0.316215
1920.77, 0.319509
1921.48, 0.322847
1922.19, 0.326185
1922.91, 0.329608
1923.62, 0.332945
1924.33, 0.336155
1925.05, 0.339278
1925.76, 0.342487
1926.48, 0.345526
1927.19, 0.348692
1927.91, 0.351687
1928.63, 0.354597
1929.35, 0.357507
1930.07, 0.360160
1930.78, 0.362727
1931.5, 0.365380
1932.22, 0.367904
1932.94, 0.370301
1933.66, 0.372611
1934.39, 0.374622
1935.11, 0.376762
1935.83, 0.378901
1936.55, 0.380870
1937.28, 0.382795
1938.0, 0.384592
1938.73, 0.386304
1939.45, 0.387973
1940.18, 0.389641
1940.9, 0.391353
1941.63, 0.393022
1942.36, 0.394391
1943.09, 0.395675
1943.81, 0.397001
1944.54, 0.398371
1945.27, 0.399569
1946.0, 0.400767
1946.73, 0.401794
1947.47, 0.402906
1948.2, 0.404104
1948.93, 0.405046
1949.66, 0.406115
1950.4, 0.407228
1951.13, 0.408298
1951.86, 0.409239
1952.6, 0.410009
1953.34, 0.410822
1954.07, 0.411764
1954.81, 0.412876
1955.55, 0.413860
1956.29, 0.414802
1957.02, 0.415786
1957.76, 0.416556
1958.5, 0.417326
1959.24, 0.418225
1959.98, 0.418995
1960.72, 0.419894
1961.47, 0.420878
1962.21, 0.421734
1962.95, 0.422632
1963.7, 0.423616
1964.44, 0.424472
1965.18, 0.425371
1965.93, 0.426269
1966.67, 0.427125
1967.42, 0.428195
1968.17, 0.429093
1968.92, 0.429992
1969.66, 0.431019
1970.41, 0.431918
1971.16, 0.432773
1971.91, 0.433715
1972.66, 0.434656
1973.41, 0.435726
1974.16, 0.436710
1974.92, 0.437651
1975.67, 0.438721
1976.42, 0.439791
1977.18, 0.440604
1977.93, 0.441631
1978.69, 0.442658
1979.44, 0.443642
1980.2, 0.444583
1980.95, 0.445610
1981.71, 0.446723
1982.47, 0.447750
1983.23, 0.448605
1983.99, 0.449675
1984.74, 0.450659
1985.51, 0.451601
1986.27, 0.452499
1987.03, 0.453483
1987.79, 0.454468
1988.55, 0.455537
1989.32, 0.456650
1990.08, 0.457548
1990.84, 0.458490
1991.61, 0.459474
1992.37, 0.460415
1993.14, 0.461442
1993.9, 0.462555
1994.67, 0.463453
1995.44, 0.464523
1996.21, 0.465636
1996.98, 0.466363
1997.75, 0.467305
1998.52, 0.468289
1999.29, 0.469316
2000.06, 0.470214
2000.83, 0.471198
2001.6, 0.472097
2002.38, 0.473081
2003.15, 0.474022
2003.93, 0.474964
2004.7, 0.475948
2005.48, 0.476847
2006.25, 0.477788
2007.03, 0.478601
2007.81, 0.479457
2008.58, 0.480270
2009.36, 0.481168
2010.14, 0.482024
2010.92, 0.482752
2011.7, 0.483607
2012.48, 0.484420
2013.26, 0.485233
2014.05, 0.485961
2014.83, 0.486731
2015.61, 0.487501
2016.4, 0.488229
2017.18, 0.489042
2017.97, 0.489683
2018.75, 0.490454
2019.54, 0.491138
2020.32, 0.491780
2021.11, 0.492465
2021.9, 0.493107
2022.69, 0.493663
2023.48, 0.494348
2024.27, 0.495075
2025.06, 0.495503
2025.85, 0.496016
2026.64, 0.496701
2027.44, 0.497257
2028.23, 0.497813
2029.02, 0.498413
2029.82, 0.499012
2030.61, 0.499525
2031.41, 0.499953
2032.2, 0.500466
2033.0, 0.500894
2033.8, 0.501365
2034.6, 0.501836
2035.4, 0.502221
2036.2, 0.502777
2037.0, 0.503162
2037.8, 0.503333
2038.6, 0.503761
2039.4, 0.504189
2040.2, 0.504574
2041.01, 0.504788
2041.81, 0.505130
2042.61, 0.505558
2043.42, 0.505901
2044.22, 0.506329
2045.03, 0.506756
2045.84, 0.506842
2046.65, 0.506885
2047.46, 0.507099
2048.26, 0.507569
2049.07, 0.507869
2049.88, 0.508126
2050.69, 0.508340
2051.51, 0.508682
2052.32, 0.508768
2053.13, 0.508853
2053.94, 0.509024
2054.76, 0.509067
2055.57, 0.509195
2056.39, 0.509452
2057.2, 0.509623
2058.02, 0.509837
2058.84, 0.509837
2059.66, 0.509795
2060.48, 0.509880
2061.29, 0.510009
2062.11, 0.510137
2062.94, 0.510222
2063.76, 0.510222
2064.58, 0.510265
2065.4, 0.510351
2066.22, 0.510565
2067.05, 0.510608
2067.87, 0.510565
2068.7, 0.510608
2069.52, 0.510565
2070.35, 0.510522
2071.18, 0.510650
2072.0, 0.510650
2072.83, 0.510650
2073.66, 0.510650
2074.49, 0.510522
2075.32, 0.510522
2076.15, 0.510565
2076.98, 0.510693
2077.82, 0.510779
2078.65, 0.510736
2079.48, 0.510522
2080.32, 0.510522
2081.15, 0.510693
2081.99, 0.510736
2082.83, 0.510821
2083.66, 0.510907
2084.5, 0.510993
2085.34, 0.510993
2086.18, 0.510736
2087.02, 0.510736
2087.86, 0.510736
2088.7, 0.510650
2089.54, 0.510779
2090.39, 0.510821
2091.23, 0.510821
2092.07, 0.510821
2092.92, 0.510950
2093.76, 0.511035
2094.61, 0.511078
2095.45, 0.511078
2096.3, 0.511164
2097.15, 0.511207
2098.0, 0.511292
2098.85, 0.511378
2099.7, 0.511506
2100.55, 0.511506
2101.4, 0.511420
2102.25, 0.511592
2103.1, 0.511720
2103.96, 0.511763
2104.81, 0.511806
2105.67, 0.511848
2106.52, 0.511934
2107.38, 0.512105
2108.24, 0.512276
2109.09, 0.512447
2109.95, 0.512576
2110.81, 0.512704
2111.67, 0.512790
2112.53, 0.512961
2113.39, 0.513047
2114.25, 0.513047
2115.12, 0.513132
2115.98, 0.513517
2116.84, 0.513731
2117.71, 0.513688
2118.58, 0.513902
2119.44, 0.514159
2120.31, 0.514287
2121.18, 0.514459
2122.04, 0.514501
2122.91, 0.514544
2123.78, 0.514758
2124.65, 0.514844
2125.52, 0.514972
2126.4, 0.515272
2127.27, 0.515443
2128.14, 0.515443
2129.02, 0.515486
2129.89, 0.515657
2130.77, 0.515871
2131.64, 0.515956
2132.52, 0.516085
2133.4, 0.516256
2134.27, 0.516470
2135.15, 0.516684
2136.03, 0.516769
2136.91, 0.516983
2137.79, 0.517026
2138.68, 0.517112
2139.56, 0.517325
2140.44, 0.517325
2141.33, 0.517368
2142.21, 0.517411
2143.1, 0.517668
2143.99, 0.517839
2144.87, 0.517796
2145.76, 0.517925
2146.65, 0.518010
2147.54, 0.518096
2148.43, 0.518224
2149.32, 0.518310
2150.21, 0.518481
2151.1, 0.518566
2151.99, 0.518523
2152.89, 0.518436
2153.78, 0.518436
2154.68, 0.518826
2155.57, 0.519000
2156.47, 0.518740
2157.37, 0.518740
2158.27, 0.518653
2159.16, 0.518393
2160.06, 0.518740
2160.96, 0.518523
2161.86, 0.518220
2162.77, 0.518090
2163.67, 0.517699
2164.57, 0.517786
2165.48, 0.517830
2166.38, 0.517743
2167.29, 0.517613
2168.2, 0.517569
2169.1, 0.517916
2170.01, 0.517136
2170.92, 0.516529
2171.83, 0.516486
2172.74, 0.516746
2173.65, 0.516269
2174.56, 0.516356
2175.47, 0.516009
2176.39, 0.515229
2177.3, 0.514839
2178.22, 0.514795
2179.13, 0.514882
2180.05, 0.514925
2180.96, 0.515012
2181.88, 0.514882
2182.8, 0.514579
2183.72, 0.514665
2184.64, 0.514622
2185.56, 0.514405
2186.48, 0.514362
2187.41, 0.514449
2188.33, 0.514535
2189.25, 0.514535
2190.18, 0.514362
2191.1, 0.514189
2192.03, 0.514275
2192.96, 0.514102
2193.89, 0.513539
2194.82, 0.513755
2195.74, 0.514102
2196.68, 0.514015
2197.61, 0.513972
2198.54, 0.513669
2199.47, 0.513495
2200.4, 0.513539
2201.34, 0.512845
2202.28, 0.512628
2203.21, 0.512628
2204.15, 0.512672
2205.08, 0.512368
2206.02, 0.512542
2206.96, 0.512151
2207.9, 0.512108
2208.84, 0.512238
2209.78, 0.512325
2210.73, 0.511848
2211.67, 0.511761
2212.61, 0.511761
2213.56, 0.511545
2214.5, 0.511155
2215.45, 0.510938
2216.4, 0.510938
2217.35, 0.511198
2218.3, 0.510938
2219.24, 0.511025
2220.2, 0.510634
2221.15, 0.510548
2222.1, 0.510721
2223.05, 0.510591
2224.0, 0.510288
2224.96, 0.510244
2225.91, 0.510461
2226.87, 0.510461
2227.83, 0.509941
2228.79, 0.509508
2229.74, 0.509724
2230.7, 0.509941
2231.66, 0.509638
2232.63, 0.509508
2233.59, 0.509204
2234.55, 0.508987
2235.51, 0.508641
2236.48, 0.508641
2237.44, 0.508814
2238.41, 0.508554
2239.38, 0.508164
2240.34, 0.508121
2241.31, 0.508164
2242.28, 0.507904
2243.25, 0.507557
2244.22, 0.507730
2245.19, 0.507427
2246.17, 0.506994
2247.14, 0.507037
2248.12, 0.506907
2249.09, 0.506560
2250.07, 0.506517
2251.04, 0.506387
2252.02, 0.506430
2253.0, 0.506127
2253.98, 0.505823
2254.96, 0.505607
2255.94, 0.505780
2256.92, 0.505433
2257.91, 0.504913
2258.89, 0.504306
2259.88, 0.504003
2260.86, 0.503786
2261.85, 0.503959
2262.83, 0.503786
2263.82, 0.503786
2264.81, 0.503613
2265.8, 0.503223
2266.79, 0.502486
2267.78, 0.502096
2268.78, 0.502139
2269.77, 0.502139
2270.76, 0.501576
2271.76, 0.501055
2272.75, 0.500795
2273.75, 0.500665
2274.75, 0.500145
2275.75, 0.500189
2276.75, 0.499929
2277.75, 0.499408
2278.75, 0.498975
2279.75, 0.498802
2280.75, 0.498238
2281.76, 0.497588
2282.76, 0.497285
2283.77, 0.497111
2284.77, 0.496721
2285.78, 0.496504
2286.79, 0.496071
2287.8, 0.495464
2288.81, 0.494944
2289.82, 0.495117
2290.83, 0.494511
2291.84, 0.494034
2292.86, 0.493687
2293.87, 0.493514
2294.89, 0.492863
2295.91, 0.492560
2296.92, 0.491997
2297.94, 0.492083
2298.96, 0.491997
2299.98, 0.491520
2301.0, 0.491000
2302.02, 0.490783
2303.04, 0.490220
2304.07, 0.489916
2305.09, 0.489656
2306.12, 0.489266
2307.15, 0.488919
2308.17, 0.488876
2309.2, 0.488356
2310.23, 0.487922
2311.26, 0.487532
2312.29, 0.487142
2313.32, 0.486709
2314.35, 0.486622
2315.39, 0.486232
2316.42, 0.485972
2317.46, 0.485755
2318.5, 0.485625
2319.53, 0.485148
2320.57, 0.484715
2321.61, 0.484195
2322.65, 0.484195
2323.69, 0.483631
2324.73, 0.482938
2325.78, 0.482331
2326.82, 0.481811
2327.86, 0.481377
2328.91, 0.480771
2329.96, 0.480294
2331.01, 0.479730
2332.05, 0.479080
2333.1, 0.478690
2334.15, 0.477997
2335.21, 0.477086
2336.26, 0.476523
2337.31, 0.476176
2338.36, 0.475353
2339.42, 0.474442
2340.48, 0.473402
2341.53, 0.472492
2342.59, 0.471538
2343.65, 0.470888
2344.71, 0.470411
2345.77, 0.469761
2346.83, 0.468894
2347.9, 0.468027
2348.96, 0.467074
2350.02, 0.466034
2351.09, 0.465167
2352.16, 0.464647
2353.23, 0.463823
2354.29, 0.462913
2355.36, 0.461829
2356.43, 0.461006
2357.51, 0.460009
2358.58, 0.458969
2359.65, 0.458102
2360.73, 0.457148
2361.8, 0.456151
2362.88, 0.455458
2363.96, 0.454591
2365.03, 0.453594
2366.11, 0.452554
2367.19, 0.451470
2368.27, 0.450473
2369.36, 0.449216
2370.44, 0.448089
2371.53, 0.447049
2372.61, 0.446052
2373.7, 0.445055
2374.78, 0.443972
2375.87, 0.442888
2376.96, 0.441978
2378.05, 0.441328
2379.14, 0.440287
2380.24, 0.438987
2381.33, 0.437600
2382.42, 0.436473
2383.52, 0.435346
2384.61, 0.434393
2385.71, 0.433136
2386.81, 0.431879
2387.91, 0.430665
2389.01, 0.429451
2390.11, 0.428108
2391.22, 0.427067
2392.32, 0.426114
2393.42, 0.424987
2394.53, 0.423557
2395.64, 0.422256
2396.74, 0.420869
2397.85, 0.419526
2398.96, 0.417922
2400.07, 0.416838
2401.18, 0.415885
2402.3, 0.414454
2403.41, 0.412937
2404.52, 0.411854
2405.64, 0.410250
2406.76, 0.408646
2407.88, 0.407389
2408.99, 0.406349
2410.11, 0.405092
2411.23, 0.403532
2412.36, 0.402145
2413.48, 0.400671
2414.6, 0.399284
2415.73, 0.397680
2416.85, 0.396293
2417.98, 0.394993
2419.11, 0.393346
2420.24, 0.391569
2421.37, 0.389965
2422.5, 0.388708
2423.64, 0.387191
2424.77, 0.385587
2425.9, 0.384070
2427.04, 0.382813
2428.18, 0.381426
2429.31, 0.379909
2430.45, 0.378262
2431.59, 0.376918
2432.73, 0.375445
2433.88, 0.373928
2435.02, 0.372497
2436.16, 0.371154
2437.31, 0.369507
2438.45, 0.367946
2439.6, 0.366429
2440.75, 0.365129
2441.9, 0.363785
2443.05, 0.362485
2444.2, 0.360968
2445.35, 0.359624
2446.51, 0.358367
2447.67, 0.356937
2448.82, 0.355247
2449.98, 0.353903
2451.14, 0.352689
2452.3, 0.351259
2453.46, 0.349872
2454.62, 0.348398
2455.78, 0.347228
2456.94, 0.346014
2458.11, 0.344714
2459.28, 0.343500
2460.44, 0.342157
2461.61, 0.341160
2462.78, 0.339859
2463.95, 0.338733
2465.12, 0.337649
2466.3, 0.336435
2467.47, 0.335222
2468.65, 0.333965
2469.82, 0.332751
2471.0, 0.331884
2472.18, 0.330887
2473.36, 0.329760
2474.54, 0.328547
2475.72, 0.327420
2476.9, 0.326553
2478.08, 0.325643
2479.27, 0.324472
2480.46, 0.323432
2481.64, 0.322392
2482.83, 0.321742
2484.02, 0.321005
2485.21, 0.319921
2486.4, 0.318751
2487.6, 0.317841
2488.79, 0.317147
2489.99, 0.316324
2491.18, 0.315197
2492.38, 0.314200
2493.58, 0.313290
2494.78, 0.312553
2495.98, 0.311729
2497.18, 0.310906
2498.39, 0.310039
2499.59, 0.309389
2500.8, 0.308479
2502.01, 0.307698
2503.21, 0.306918
2504.42, 0.306095
2505.63, 0.305098
2506.84, 0.304144
2508.06, 0.303494
2509.27, 0.303104
2510.49, 0.302410
2511.7, 0.301717
2512.92, 0.300937
2514.14, 0.300373
2515.36, 0.299940
2516.58, 0.299073
2517.8, 0.298163
2519.03, 0.297556
2520.25, 0.296862
2521.48, 0.296256
2522.7, 0.295735
2523.93, 0.295259
2525.16, 0.294565
2526.39, 0.293915
2527.62, 0.293352
2528.86, 0.292875
2530.09, 0.292398
2531.33, 0.292008
2532.56, 0.291444
2533.8, 0.290751
2535.04, 0.290231
2536.28, 0.290014
2537.52, 0.289537
2538.76, 0.288930
2540.01, 0.288324
2541.25, 0.288020
2542.5, 0.287803
2543.75, 0.287543
2544.99, 0.287023
2546.24, 0.286677
2547.49, 0.286243
2548.75, 0.285810
2550.0, 0.285420
2551.26, 0.285376
2552.51, 0.285246
2553.77, 0.284899
2555.03, 0.284336
2556.29, 0.284033
2557.55, 0.283772
2558.81, 0.283772
2560.08, 0.283989
2561.34, 0.284076
2562.61, 0.283729
2563.88, 0.283816
2565.14, 0.283252
2566.41, 0.282472
2567.68, 0.282342
2568.96, 0.282819
2570.23, 0.282732
2571.51, 0.281909
2572.78, 0.282082
2574.06, 0.282429
2575.34, 0.281649
2576.62, 0.281692
2577.9, 0.281475
2579.18, 0.281042
2580.47, 0.281172
2581.75, 0.281172
2583.04, 0.280998
2584.32, 0.281302
2585.61, 0.280435
2586.9, 0.280435
2588.2, 0.280348
2589.49, 0.280218
2590.78, 0.279742
2592.08, 0.279395
2593.37, 0.279655
2594.67, 0.280912
2595.97, 0.280435
2597.27, 0.279091
2598.57, 0.278138
2599.88, 0.277704
2601.18, 0.277488
2602.49, 0.277271
2603.79, 0.276837
2605.1, 0.276881
2606.41, 0.276534
2607.72, 0.275797
2609.03, 0.275277
2610.35, 0.274714
2611.66, 0.273847
2612.98, 0.273197
2614.3, 0.272590
2615.62, 0.272243
2616.94, 0.272286
2618.26, 0.271073
2619.58, 0.270249
2620.91, 0.270163
2622.23, 0.268559
2623.56, 0.267258
2624.89, 0.266478
2626.22, 0.266088
2627.55, 0.264918
2628.88, 0.263661
2630.21, 0.263531
2631.55, 0.262577
2632.89, 0.260800
2634.22, 0.259543
2635.56, 0.258026
2636.9, 0.256813
2638.25, 0.255339
2639.59, 0.253909
2640.93, 0.252478
2642.28, 0.251265
2643.63, 0.249574
2644.98, 0.248014
2646.33, 0.246367
2647.68, 0.244590
2649.03, 0.242552
2650.39, 0.240602
2651.74, 0.238738
2653.1, 0.236788
2654.46, 0.234447
2655.82, 0.232453
2657.18, 0.229896
2658.54, 0.227729
2659.9, 0.225518
2661.27, 0.222874
2662.64, 0.220014
2664.01, 0.217673
2665.38, 0.215159
2666.74, 0.211171
2668.12, 0.204930
2669.49, 0.199165
2670.87, 0.194918
2672.24, 0.190713
2673.62, 0.187419
2675.0, 0.184775
2676.38, 0.182348
2677.76, 0.179530
2679.15, 0.176280
2680.54, 0.172942
2681.92, 0.169691
2683.31, 0.166484
2684.7, 0.162973
2686.09, 0.159419
2687.48, 0.155518
2688.88, 0.151487
2690.27, 0.147066
2691.67, 0.142818
2693.07, 0.138614
2694.47, 0.134149
2695.87, 0.129165
2697.27, 0.124180
2698.67, 0.118979
2700.08, 0.114124
2701.49, 0.108837
2702.9, 0.103375
2704.31, 0.0980440
2705.72, 0.0927130
2707.13, 0.0875110
2708.54, 0.0826570
2709.96, 0.0778890
2711.38, 0.0731650
2712.8, 0.0684400
2714.22, 0.0640190
2715.64, 0.0599010
2717.06, 0.0563900
2718.49, 0.0532700
2719.91, 0.0503660
2721.34, 0.0472880
2722.77, 0.0444710
2724.2, 0.0418270
2725.63, 0.0394860
2727.07, 0.0373620
2728.5, 0.0354990
2729.94, 0.0338520
2731.38, 0.0322480
2732.82, 0.0308180
2734.26, 0.0294310
2735.7, 0.0283040
2737.15, 0.0273070
2738.59, 0.0262660
2740.04, 0.0253560
2741.49, 0.0245760
2742.94, 0.0237960
2744.39, 0.0229290
2745.84, 0.0222790
2747.3, 0.0218890
2748.76, 0.0215850
2750.21, 0.0211520
2751.67, 0.0208050
2753.14, 0.0205450
2754.6, 0.0203720
2756.06, 0.0203280
2757.53, 0.0204150
2759.0, 0.0202420
2760.46, 0.0200250
2761.94, 0.0199820
2763.41, 0.0201550
2764.88, 0.0202420
2766.36, 0.0203280
2767.83, 0.0203280
2769.31, 0.0204150
2770.79, 0.0206750
2772.27, 0.0207180
2773.76, 0.0206320
2775.24, 0.0208050
2776.73, 0.0211950
2778.22, 0.0213690
2779.71, 0.0216720
2781.2, 0.0217590
2782.69, 0.0218450
2784.18, 0.0218890
2785.68, 0.0220620
2787.18, 0.0223220
2788.68, 0.0223650
2790.18, 0.0224520
2791.68, 0.0225820
2793.19, 0.0228420
2794.69, 0.0231020
2796.2, 0.0231020
2797.71, 0.0232760
2799.22, 0.0233620
2800.73, 0.0235360
2802.24, 0.0235790
2803.76, 0.0234490
2805.28, 0.0234490
2806.8, 0.0235790
2808.32, 0.0236660
2809.84, 0.0237520
2811.36, 0.0237960
2812.89, 0.0238820
2814.42, 0.0240560
2815.94, 0.0242730
2817.48, 0.0242290
2819.01, 0.0242290
2820.54, 0.0243590
2822.08, 0.0244890
2823.61, 0.0244460
2825.15, 0.0245760
2826.69, 0.0247490
2828.23, 0.0247490
2829.78, 0.0248790
2831.32, 0.0249230
2832.87, 0.0250530
2834.42, 0.0252260
2835.97, 0.0251830
2837.52, 0.0251390
2839.08, 0.0252260
2840.63, 0.0253560
2842.19, 0.0253130
2843.75, 0.0252690
2845.31, 0.0253560
2846.87, 0.0254430
2848.44, 0.0254860
2850.0, 0.0255730
2851.57, 0.0254860
2853.14, 0.0254430
2854.71, 0.0254430
2856.28, 0.0254860
2857.86, 0.0255730
2859.43, 0.0256160
2861.01, 0.0255730
2862.59, 0.0255300
2864.17, 0.0256600
2865.76, 0.0257460
2867.34, 0.0257030
2868.93, 0.0256160
2870.52, 0.0256600
2872.11, 0.0257900
2873.7, 0.0257030
2875.29, 0.0255300
2876.89, 0.0254860
2878.49, 0.0256160
2880.08, 0.0257030
2881.69, 0.0257460
2883.29, 0.0257460
2884.89, 0.0256160
2886.5, 0.0255730
2888.11, 0.0257030
2889.72, 0.0259630
2891.33, 0.0260930
2892.94, 0.0259630
2894.56, 0.0259630
2896.17, 0.0259630
2897.79, 0.0259630
2899.42, 0.0260060
2901.04, 0.0260930
2902.66, 0.0262230
2904.29, 0.0263100
2905.92, 0.0263530
2907.55, 0.0264830
2909.18, 0.0265700
2910.81, 0.0265260
2912.45, 0.0264830
2914.08, 0.0266130
2915.72, 0.0267870
2917.36, 0.0267870
2919.01, 0.0268730
2920.65, 0.0271330
2922.3, 0.0274370
2923.94, 0.0275670
2925.59, 0.0276970
2927.25, 0.0277400
2928.9, 0.0277400
2930.56, 0.0277830
2932.21, 0.0282170
2933.87, 0.0286070
2935.53, 0.0286500
2937.2, 0.0286940
2938.86, 0.0286940
2940.53, 0.0289540
2942.2, 0.0291270
2943.87, 0.0293440
2945.54, 0.0296470
2947.22, 0.0298640
2948.89, 0.0299940
2950.57, 0.0302110
2952.25, 0.0302540
2953.93, 0.0304710
2955.62, 0.0308180
2957.3, 0.0310340
2958.99, 0.0311640
2960.68, 0.0314680
2962.37, 0.0317710
2964.07, 0.0321180
2965.76, 0.0324210
2967.46, 0.0326380
2969.16, 0.0328550
2970.86, 0.0331580
2972.56, 0.0333310
2974.27, 0.0335480
2975.98, 0.0338520
2977.69, 0.0341980
2979.4, 0.0344580
2981.11, 0.0346320
2982.83, 0.0350220
2984.54, 0.0355420
2986.26, 0.0358450
2987.98, 0.0361050
2989.71, 0.0364960
2991.43, 0.0368860
2993.16, 0.0371460
2994.89, 0.0375790
2996.62, 0.0379260
2998.35, 0.0382730
3000.09, 0.0386190
3001.83, 0.0389660
3003.57, 0.0393130
3005.31, 0.0396600
3007.05, 0.0399200
3008.79, 0.0403100
3010.54, 0.0408300
3012.29, 0.0411770
3014.04, 0.0413930
3015.8, 0.0416970
3017.55, 0.0420440
3019.31, 0.0423040
3021.07, 0.0426940
3022.83, 0.0431270
3024.59, 0.0434310
3026.36, 0.0435610
3028.13, 0.0437770
3029.9, 0.0441240
3031.67, 0.0443840
3033.44, 0.0446010
3035.22, 0.0448610
3037.0, 0.0451640
3038.78, 0.0454680
3040.56, 0.0458150
3042.34, 0.0459880
3044.13, 0.0461180
3045.92, 0.0462910
3047.71, 0.0464210
3049.5, 0.0466810
3051.3, 0.0469850
3053.09, 0.0471580
3054.89, 0.0474180
3056.69, 0.0476350
3058.5, 0.0478080
3060.3, 0.0478950
3062.11, 0.0479380
3063.92, 0.0481120
3065.73, 0.0484150
3067.55, 0.0485890
3069.36, 0.0487190
3071.18, 0.0489790
3073.0, 0.0492390
3074.82, 0.0494120
3076.65, 0.0495420
3078.48, 0.0497150
3080.31, 0.0499760
3082.14, 0.0504520
3083.97, 0.0507560
3085.8, 0.0511020
3087.64, 0.0514930
3089.48, 0.0517530
3091.33, 0.0520990
3093.17, 0.0525330
3095.02, 0.0529660
3096.87, 0.0533560
3098.72, 0.0538330
3100.57, 0.0543970
3102.43, 0.0548730
3104.28, 0.0552630
3106.14, 0.0558700
3108.01, 0.0565200
3109.87, 0.0572140
3111.74, 0.0578640
3113.61, 0.0585140
3115.48, 0.0592080
3117.35, 0.0599450
3119.23, 0.0607680
3121.1, 0.0615480
3122.98, 0.0622420
3124.87, 0.0631090
3126.75, 0.0640190
3128.64, 0.0648860
3130.53, 0.0656230
3132.42, 0.0664460
3134.31, 0.0673560
3136.21, 0.0683100
3138.11, 0.0693500
3140.01, 0.0703470
3141.91, 0.0713440
3143.82, 0.0723840
3145.73, 0.0733810
3147.64, 0.0744210
3149.55, 0.0754180
3151.46, 0.0763720
3153.38, 0.0774120
3155.3, 0.0784960
3157.22, 0.0795360
3159.14, 0.0807060
3161.07, 0.0818330
3163.0, 0.0830040
3164.93, 0.0841740
3166.86, 0.0853010
3168.8, 0.0864280
3170.74, 0.0875110
3172.68, 0.0886380
3174.62, 0.0898520
3176.56, 0.0910660
3178.51, 0.0921920
3180.46, 0.0933190
3182.42, 0.0945330
3184.37, 0.0957470
3186.33, 0.0969170
3188.29, 0.0980440
3190.25, 0.0992580
3192.21, 0.100514
3194.18, 0.101685
3196.15, 0.102942
3198.12, 0.104285
3200.09, 0.105456
3202.07, 0.106669
3204.05, 0.108013
3206.03, 0.109357
3208.02, 0.110614
3210.0, 0.111827
3211.99, 0.112998
3213.98, 0.114255
3215.98, 0.115642
3217.97, 0.116942
3219.97, 0.118069
3221.97, 0.119369
3223.98, 0.120886
3225.98, 0.122186
3227.99, 0.123573
3230.0, 0.125047
3232.02, 0.126304
3234.03, 0.127561
3236.05, 0.128861
3238.07, 0.130118
3240.1, 0.131505
3242.12, 0.132979
3244.15, 0.134453
3246.18, 0.135796
3248.22, 0.137053
3250.25, 0.138484
3252.29, 0.139871
3254.33, 0.141431
3256.38, 0.142861
3258.43, 0.144205
3260.47, 0.145549
3262.53, 0.146936
3264.58, 0.148453
3266.64, 0.149927
3268.7, 0.151444
3270.76, 0.152874
3272.82, 0.154348
3274.89, 0.155778
3276.96, 0.157078
3279.04, 0.158509
3281.11, 0.160112
3283.19, 0.161673
3285.27, 0.163190
3287.35, 0.164663
3289.44, 0.166094
3291.53, 0.167568
3293.62, 0.168998
3295.71, 0.170558
3297.81, 0.171989
3299.91, 0.173462
3302.01, 0.175023
3304.11, 0.176540
3306.22, 0.178013
3308.33, 0.179530
3310.44, 0.181047
3312.56, 0.182564
3314.68, 0.184125
3316.8, 0.185599
3318.92, 0.187116
3321.05, 0.188763
3323.18, 0.190280
3325.31, 0.191710
3327.44, 0.193184
3329.58, 0.194744
3331.72, 0.196174
3333.86, 0.197648
3336.01, 0.199209
3338.16, 0.200769
3340.31, 0.202199
3342.46, 0.203673
3344.61, 0.205103
3346.77, 0.206490
3348.94, 0.207791
3351.1, 0.209178
3353.27, 0.210651
3355.44, 0.212082
3357.61, 0.213425
3359.79, 0.214726
3361.97, 0.216026
3364.15, 0.217283
3366.33, 0.218497
3368.52, 0.219754
3370.71, 0.221227
3372.9, 0.222528
3375.1, 0.223741
3377.3, 0.225042
3379.5, 0.226385
3381.71, 0.227859
3383.91, 0.229333
3386.12, 0.230893
3388.34, 0.232453
3390.55, 0.233970
3392.77, 0.235401
3394.99, 0.236831
3397.22, 0.238088
3399.45, 0.239432
3401.68, 0.240645
3403.91, 0.241946
3406.15, 0.243246
3408.39, 0.244416
3410.63, 0.245717
3412.87, 0.247190
3415.12, 0.248664
3417.37, 0.250181
3419.63, 0.251785
3421.88, 0.253475
3424.14, 0.255209
3426.41, 0.256899
3428.67, 0.258633
3430.94, 0.260323
3433.21, 0.262014
3435.49, 0.263618
3437.77, 0.265308
3440.05, 0.266825
3442.33, 0.268342
3444.62, 0.269772
3446.91, 0.271159
3449.2, 0.272676
3451.5, 0.274193
3453.8, 0.275537
3456.1, 0.276881
3458.41, 0.278311
3460.72, 0.279655
3463.03, 0.280912
3465.34, 0.282125
3467.66, 0.283252
3469.98, 0.284249
3472.31, 0.285290
3474.63, 0.286460
3476.96, 0.287630
3479.3, 0.288627
3481.64, 0.289624
3483.97, 0.290794
3486.32, 0.292008
3488.66, 0.293221
3491.01, 0.294305
3493.36, 0.295345
3495.72, 0.296429
3498.08, 0.297469
3500.44, 0.298596
3502.81, 0.299896
3505.18, 0.301283
3507.55, 0.302714
3509.92, 0.304144
3512.3, 0.305575
3514.68, 0.307048
3517.06, 0.308479
3519.45, 0.309996
3521.84, 0.311339
3524.24, 0.312726
3526.64, 0.314070
3529.04, 0.315414
3531.44, 0.316714
3533.85, 0.317927
3536.26, 0.319228
3538.67, 0.320441
3541.09, 0.321655
3543.51, 0.322782
3545.93, 0.323952
3548.36, 0.325123
3550.79, 0.326076
3553.22, 0.327203
3555.66, 0.328330
3558.1, 0.329414
3560.54, 0.330497
3562.99, 0.331624
3565.44, 0.332578
3567.9, 0.333575
3570.35, 0.334658
3572.81, 0.335655
3575.28, 0.336609
3577.75, 0.337649
3580.22, 0.338733
3582.69, 0.339773
3585.17, 0.340553
3587.65, 0.341420
3590.14, 0.342417
3592.62, 0.343370
3595.11, 0.344237
3597.61, 0.345061
3600.11, 0.345971
3602.61, 0.346968
3605.11, 0.347921
3607.62, 0.348832
3610.14, 0.349612
3612.65, 0.350392
3615.17, 0.351216
3617.69, 0.352039
3620.22, 0.352819
3622.75, 0.353600
3625.28, 0.354293
3627.82, 0.355073
3630.36, 0.355897
3632.9, 0.356634
3635.45, 0.357414
3638.0, 0.358237
3640.56, 0.358974
3643.12, 0.359711
3645.68, 0.360448
3648.24, 0.361141
3650.81, 0.361922
3653.39, 0.362745
3655.96, 0.363525
3658.54, 0.364089
3661.13, 0.364826
3663.71, 0.365432
3666.3, 0.366169
3668.9, 0.366863
3671.5, 0.367470
3674.1, 0.368206
3676.7, 0.368857
3679.31, 0.369463
3681.93, 0.370027
3684.54, 0.370634
3687.17, 0.371284
3689.79, 0.371934
3692.42, 0.372671
3695.05, 0.373191
3697.69, 0.373754
3700.32, 0.374318
3702.97, 0.374881
3705.61, 0.375445
3708.27, 0.375965
3710.92, 0.376528
3713.58, 0.377092
3716.24, 0.377569
3718.91, 0.378045
3721.58, 0.378522
3724.25, 0.378999
3726.93, 0.379432
3729.61, 0.379779
3732.29, 0.380169
3734.98, 0.380603
3737.67, 0.381080
3740.37, 0.381513
3743.07, 0.381860
3745.78, 0.382206
3748.49, 0.382683
3751.2, 0.383073
3753.91, 0.383247
3756.63, 0.383637
3759.36, 0.383940
3762.09, 0.384330
3764.82, 0.384634
3767.55, 0.384937
3770.29, 0.385284
3773.04, 0.385587
3775.78, 0.385847
3778.54, 0.386194
3781.29, 0.386411
3784.05, 0.386671
3786.82, 0.386888
3789.59, 0.387148
3792.36, 0.387364
3795.13, 0.387581
3797.92, 0.387754
3800.7, 0.387971
3803.49, 0.388231
3806.28, 0.388405
3809.08, 0.388578
3811.88, 0.388751
3814.68, 0.388838
3817.49, 0.389011
3820.31, 0.389185
3823.12, 0.389272
3825.94, 0.389358
3828.77, 0.389488
3831.6, 0.389532
3834.43, 0.389618
3837.27, 0.389618
3840.11, 0.389748
3842.96, 0.389922
3845.81, 0.390052
3848.67, 0.390138
3851.53, 0.390138
3854.39, 0.390095
3857.26, 0.390138
3860.13, 0.390268
3863.01, 0.390268
3865.89, 0.390355
3868.77, 0.390355
3871.66, 0.390312
3874.55, 0.390312
3877.45, 0.390268
3880.35, 0.390225
3883.26, 0.390182
3886.17, 0.390138
3889.09, 0.390052
3892.01, 0.390052
3894.93, 0.390052
3897.86, 0.390008
3900.79, 0.389792
3903.73, 0.389532
3906.67, 0.389445
3909.62, 0.389358
3912.57, 0.389185
3915.52, 0.389055
3918.48, 0.388838
3921.45, 0.388708
3924.42, 0.388491
3927.39, 0.388275
3930.37, 0.388015
3933.35, 0.387798
3936.34, 0.387538
3939.33, 0.387234
3942.32, 0.386888
3945.32, 0.386628
3948.33, 0.386281
3951.34, 0.385891
3954.35, 0.385501
3957.37, 0.385241
3960.39, 0.384937
3963.42, 0.384677
3966.45, 0.384244
3969.49, 0.383854
3972.53, 0.383463
3975.58, 0.383160
3978.63, 0.382857
3981.68, 0.382553
3984.75, 0.382206
3987.81, 0.381860
3990.88, 0.381513
3993.95, 0.381340
3997.03, 0.381036
4000.12, 0.380819
4003.21, 0.380516
4006.3, 0.380213
4009.4, 0.379779
4012.5, 0.379389
4015.61, 0.378956
4018.72, 0.378522
4021.84, 0.378045
4024.96, 0.377569
4028.09, 0.377005
4031.22, 0.376398
4034.36, 0.375835
4037.5, 0.375185
4040.65, 0.374535
4043.8, 0.373884
4046.96, 0.373191
4050.12, 0.372584
4053.29, 0.371977
4056.46, 0.371284
4059.64, 0.370504
4062.82, 0.369810
4066.0, 0.368987
4069.19, 0.368206
4072.39, 0.367426
4075.59, 0.366733
4078.8, 0.365952
4082.01, 0.365129
4085.23, 0.364305
4088.45, 0.363569
4091.68, 0.362745
4094.91, 0.361922
4098.15, 0.361055
4101.39, 0.360231
4104.63, 0.359408
4107.89, 0.358671
4111.14, 0.357761
4114.41, 0.356980
4117.67, 0.356070
4120.95, 0.355247
4124.23, 0.354466
4127.51, 0.353643
4130.8, 0.352733
4134.09, 0.351866
4137.39, 0.350956
4140.7, 0.350089
4144.01, 0.349265
4147.32, 0.348398
4150.64, 0.347488
4153.97, 0.346621
4157.3, 0.345711
4160.64, 0.344801
4163.98, 0.343847
4167.33, 0.342937
4170.68, 0.341940
4174.04, 0.340943
4177.4, 0.339990
4180.77, 0.339123
4184.14, 0.338169
4187.52, 0.337216
4190.91, 0.336219
4194.3, 0.335265
4197.69, 0.334225
4201.1, 0.333358
4204.5, 0.332448
4207.92, 0.331494
4211.34, 0.330584
4214.76, 0.329804
4218.19, 0.328937
4221.62, 0.327940
4225.06, 0.326813
4228.51, 0.325859
4231.96, 0.324863
4235.42, 0.323822
4238.88, 0.322782
4242.35, 0.321655
4245.83, 0.320398
4249.31, 0.319098
4252.79, 0.317711
4256.28, 0.316194
4259.78, 0.314763
4263.29, 0.313593
4266.79, 0.312683
4270.31, 0.311989
4273.83, 0.311253
4277.35, 0.310429
4280.89, 0.309345
4284.42, 0.308262
4287.97, 0.307178
4291.52, 0.306095
4295.07, 0.305011
4298.63, 0.303971
4302.2, 0.302844
4305.78, 0.301760
4309.35, 0.300720
4312.94, 0.299636
4316.53, 0.298466
4320.13, 0.297339
4323.73, 0.296169
4327.34, 0.295042
4330.96, 0.293958
4334.58, 0.292918
4338.21, 0.291791
4341.84, 0.290708
4345.48, 0.289667
4349.12, 0.288540
4352.77, 0.287457
4356.43, 0.286330
4360.1, 0.285203
4363.76, 0.284163
4367.44, 0.283079
4371.12, 0.281952
4374.81, 0.280738
4378.51, 0.279655
4382.21, 0.278485
4385.92, 0.277401
4389.63, 0.276317
4393.35, 0.275190
4397.08, 0.273977
4400.81, 0.272806
4404.55, 0.271636
4408.29, 0.270509
4412.04, 0.269339
4415.8, 0.268125
4419.57, 0.266998
4423.34, 0.265915
4427.12, 0.264745
4430.9, 0.263574
4434.69, 0.262447
4438.49, 0.261364
4442.29, 0.260280
4446.1, 0.259110
4449.92, 0.257853
4453.74, 0.256726
4457.57, 0.255599
4461.41, 0.254472
4465.25, 0.253302
4469.1, 0.252261
4472.95, 0.251221
4476.82, 0.250181
4480.69, 0.249054
4484.56, 0.247927
4488.44, 0.246930
4492.33, 0.245977
4496.23, 0.245023
4500.13, 0.244026
4504.04, 0.242986
4507.96, 0.242076
4511.88, 0.241122
4515.81, 0.240255
4519.75, 0.239388
4523.69, 0.238478
4527.65, 0.237568
4531.6, 0.236701
4535.57, 0.235834
4539.54, 0.235011
4543.52, 0.234144
4547.5, 0.233364
4551.5, 0.232627
4555.5, 0.231933
4559.5, 0.231110
4563.52, 0.230373
4567.54, 0.229636
4571.56, 0.228899
4575.6, 0.228119
4579.64, 0.227469
4583.69, 0.226819
4587.75, 0.226168
4591.81, 0.225475
4595.88, 0.224781
4599.96, 0.224131
4604.04, 0.223524
4608.14, 0.222788
4612.24, 0.222181
4616.34, 0.221531
4620.46, 0.220837
4624.58, 0.220100
4628.71, 0.219537
4632.84, 0.218930
4636.99, 0.218323
4641.14, 0.217716
4645.3, 0.217153
4649.47, 0.216416
4653.64, 0.215853
4657.82, 0.215202
4662.01, 0.214552
4666.21, 0.213902
4670.41, 0.213295
4674.62, 0.212688
4678.84, 0.211952
4683.07, 0.211215
4687.3, 0.210651
4691.54, 0.210001
4695.79, 0.209351
4700.05, 0.208614
4704.31, 0.207921
4708.59, 0.207140
4712.87, 0.206404
4717.15, 0.205623
4721.45, 0.204973
4725.76, 0.204236
4730.07, 0.203543
4734.39, 0.202806
4738.72, 0.202026
4743.05, 0.201202
4747.39, 0.200509
4751.75, 0.199859
4756.1, 0.199165
4760.47, 0.198298
4764.85, 0.197605
4769.23, 0.196998
4773.62, 0.196348
4778.02, 0.195611
4782.43, 0.195004
4786.85, 0.194267
4791.27, 0.193531
4795.7, 0.192837
4800.14, 0.192274
4804.59, 0.191623
4809.05, 0.190973
4813.51, 0.190280
4817.99, 0.189630
4822.47, 0.189023
4826.96, 0.188416
4831.46, 0.187722
4835.96, 0.187072
4840.48, 0.186422
4845.0, 0.185729
4849.54, 0.185078
4854.08, 0.184472
4858.63, 0.183691
4863.18, 0.182911
4867.75, 0.182131
4872.33, 0.181351
4876.91, 0.180614
4881.5, 0.179747
4886.1, 0.178880
4890.71, 0.177970
4895.33, 0.176930
4899.96, 0.175933
4904.59, 0.174936
4909.24, 0.173852
4913.89, 0.172725
4918.55, 0.171555
4923.22, 0.170298
4927.9, 0.169041
4932.59, 0.167828
4937.29, 0.166571
4942.0, 0.165184
4946.71, 0.163840
4951.44, 0.162496
4956.17, 0.161153
4960.91, 0.159766
4965.67, 0.158379
4970.43, 0.157035
4975.2, 0.155605
4979.98, 0.154174
4984.76, 0.152831
4989.56, 0.151444
4994.37, 0.149927
4999.18, 0.148583
5004.01, 0.147283
5008.84, 0.145896
5013.69, 0.144509
5018.54, 0.143122
5023.4, 0.141778
5028.28, 0.140478
5033.16, 0.139221
5038.05, 0.137877
5042.95, 0.136620
5047.86, 0.135406
5052.78, 0.134236
5057.71, 0.133022
5062.65, 0.131895
5067.6, 0.130812
5072.56, 0.129685
5077.53, 0.128688
5082.5, 0.127778
5087.49, 0.126781
5092.49, 0.125871
5097.5, 0.124917
5102.51, 0.124180
5107.54, 0.123443
5112.58, 0.122793
5117.62, 0.122056
5122.68, 0.121450
5127.75, 0.120799
5132.82, 0.120193
5137.91, 0.119716
5143.01, 0.119369
5148.12, 0.119022
5153.23, 0.118459
5158.36, 0.117982
5163.5, 0.117722
5168.65, 0.117419
5173.81, 0.117115
5178.98, 0.116898
5184.15, 0.116638
5189.34, 0.116335
5194.54, 0.116118
5199.75, 0.115902
5204.98, 0.115685
5210.21, 0.115555
5215.45, 0.115295
5220.7, 0.114948
5225.96, 0.114688
5231.23, 0.114385
5236.52, 0.114124
5241.81, 0.113821
5247.12, 0.113431
5252.44, 0.112954
5257.76, 0.112564
5263.1, 0.112174
5268.45, 0.111697
5273.81, 0.111220
5279.18, 0.110787
5284.56, 0.110180
5289.95, 0.109660
5295.36, 0.109010
5300.77, 0.108360
5306.2, 0.107753
5311.63, 0.107103
5317.08, 0.106366
5322.54, 0.105629
5328.01, 0.104849
5333.49, 0.104155
5338.98, 0.103419
5344.49, 0.102812
5350.0, 0.102248
5355.53, 0.101511
5361.07, 0.100688
5366.62, 0.0999510
5372.18, 0.0992140
5377.75, 0.0984770
5383.34, 0.0977400
5388.93, 0.0970470
5394.54, 0.0963100
5400.16, 0.0955730
5405.79, 0.0948360
5411.44, 0.0941860
5417.09, 0.0934930
5422.76, 0.0927990
5428.43, 0.0919760
5434.12, 0.0912820
5439.83, 0.0906320
5445.54, 0.0900690
5451.26, 0.0895480
5457.0, 0.0891150
5462.75, 0.0887250
5468.52, 0.0882050
5474.29, 0.0877710
5480.08, 0.0874680
5485.88, 0.0870780
5491.69, 0.0867740
5497.51, 0.0866010
5503.35, 0.0864280
5509.2, 0.0862980
5515.06, 0.0862540
5520.93, 0.0862110
5526.82, 0.0860810
5532.71, 0.0859940
5538.63, 0.0859940
5544.55, 0.0859940
5550.49, 0.0859510
5556.44, 0.0858640
5562.4, 0.0859080
5568.37, 0.0859940
5574.36, 0.0861680
5580.36, 0.0862540
5586.37, 0.0861240
5592.4, 0.0860380
5598.44, 0.0862110
5604.49, 0.0862540
5610.56, 0.0863410
5616.63, 0.0863410
5622.73, 0.0863410
5628.83, 0.0863410
5634.95, 0.0864280
5641.08, 0.0865140
5647.23, 0.0864710
5653.39, 0.0863410
5659.56, 0.0861680
5665.74, 0.0859080
5671.94, 0.0858640
5678.15, 0.0857340
5684.38, 0.0856040
5690.62, 0.0855610
5696.87, 0.0853440
5703.14, 0.0850840
5709.42, 0.0849970
5715.72, 0.0846940
5722.03, 0.0843040
5728.35, 0.0837840
5734.69, 0.0833070
5741.03, 0.0827430
5747.4, 0.0820930
5753.78, 0.0811830
5760.17, 0.0805330
5766.58, 0.0799690
5773.0, 0.0788430
5779.44, 0.0777160
5785.88, 0.0766750
5792.35, 0.0755920
5798.83, 0.0744650
5805.32, 0.0731210
5811.83, 0.0719080
5818.35, 0.0707370
5824.89, 0.0693070
5831.45, 0.0676160
5838.01, 0.0659690
5844.59, 0.0642360
5851.19, 0.0625020
5857.8, 0.0607250
5864.43, 0.0588610
5871.07, 0.0569110
5877.73, 0.0553070
5884.4, 0.0531400
5891.09, 0.0509290
5897.79, 0.0486320
5904.5, 0.0462480
5911.23, 0.0440370
5917.98, 0.0418270
5924.75, 0.0395730
5931.53, 0.0375360
5938.32, 0.0352820
5945.13, 0.0329850
5951.96, 0.0307740
5958.8, 0.0286940
5965.65, 0.0267430
5972.53, 0.0248360
5979.42, 0.0231020
5986.32, 0.0215420
5993.24, 0.0198520
6000.18, 0.0183340
6007.13, 0.0170340
6014.1, 0.0157770
6021.08, 0.0145640
6028.09, 0.0135230
6035.1, 0.0125700
6042.14, 0.0119200
6049.19, 0.0111830
6056.25, 0.0105330
6063.34, 0.0100120
6070.44, 0.00953600
6077.55, 0.00910200
6084.69, 0.00879900
6091.84, 0.00849500
6099.0, 0.00832200
6106.19, 0.00836500
6113.39, 0.00840900
6120.61, 0.00836500
6127.84, 0.00845200
6135.09, 0.00858200
6142.36, 0.00884200
6149.65, 0.00927600
6156.95, 0.00988200
6164.27, 0.0104890
6171.61, 0.0111390
6178.97, 0.0118760
6186.34, 0.0128300
6193.73, 0.0139130
6201.14, 0.0150840
6208.57, 0.0164270
6216.01, 0.0178580
6223.47, 0.0194180
6230.95, 0.0209780
6238.45, 0.0226690
6245.97, 0.0244460
6253.5, 0.0261800
6261.06, 0.0278700
6268.63, 0.0296040
6276.21, 0.0312510
6283.82, 0.0328550
6291.45, 0.0344150
6299.1, 0.0358450
6306.76, 0.0371460
6314.44, 0.0384030
6322.14, 0.0395730
6329.86, 0.0405700
6337.6, 0.0415670
6345.35, 0.0426940
6353.13, 0.0434740
6360.92, 0.0441670
6368.74, 0.0449910
6376.57, 0.0455980
6384.43, 0.0460310
6392.3, 0.0465510
6400.19, 0.0470710
6408.1, 0.0477650
6416.03, 0.0482420
6423.98, 0.0483280
6431.95, 0.0484580
6439.94, 0.0485020
6447.95, 0.0485450
6455.98, 0.0485890
6464.03, 0.0485890
6472.1, 0.0487190
6480.19, 0.0488050
6488.31, 0.0488490
6496.44, 0.0485450
6504.59, 0.0480680
6512.76, 0.0477650
6520.95, 0.0475920
6529.16, 0.0472450
6537.4, 0.0469410
6545.65, 0.0467250
6553.92, 0.0465080
6562.22, 0.0462050
6570.54, 0.0460310
6578.88, 0.0457280
6587.23, 0.0454240
6595.61, 0.0451210
6604.02, 0.0446880
6612.44, 0.0443840
6620.89, 0.0441670
6629.35, 0.0439940
6637.84, 0.0437340
6646.35, 0.0431710
6654.88, 0.0426940
6663.44, 0.0423900
6672.01, 0.0420440
6680.61, 0.0416530
6689.23, 0.0411770
6697.88, 0.0407430
6706.54, 0.0403970
6715.23, 0.0399630
6723.94, 0.0393560
6732.67, 0.0387490
6741.42, 0.0381860
6750.2, 0.0377090
6759.0, 0.0371460
6767.82, 0.0366690
6776.67, 0.0361490
6785.54, 0.0356720
6794.44, 0.0351090
6803.35, 0.0343720
6812.29, 0.0337220
6821.26, 0.0332450
6830.24, 0.0326810
6839.25, 0.0321180
6848.29, 0.0316410
6857.35, 0.0312940
6866.43, 0.0306870
6875.54, 0.0300370
6884.67, 0.0295170
6893.82, 0.0290840
6903.0, 0.0286940
6912.2, 0.0281740
6921.43, 0.0276970
6930.69, 0.0272630
6939.96, 0.0267870
6949.27, 0.0264400
6958.59, 0.0260500
6967.95, 0.0255300
6977.33, 0.0250090
6986.73, 0.0246190
6996.16, 0.0241860
7005.61, 0.0237520
7015.09, 0.0233620
7024.6, 0.0229720
7034.13, 0.0225820
7043.69, 0.0221920
7053.27, 0.0217590
7062.88, 0.0213690
7072.52, 0.0208920
7082.18, 0.0204580
7091.87, 0.0200250
7101.58, 0.0196350
7111.32, 0.0191580
7121.09, 0.0187250
7130.88, 0.0183780
7140.71, 0.0179440
7150.56, 0.0174240
7160.43, 0.0169470
7170.33, 0.0164710
7180.27, 0.0159940
7190.23, 0.0155600
7200.21, 0.0151700
7210.23, 0.0147370
7220.27, 0.0143030
7230.34, 0.0138270
7240.44, 0.0133070
7250.56, 0.0127860
7260.72, 0.0123100
7270.9, 0.0119630
7281.12, 0.0115290
7291.36, 0.0109230
7301.63, 0.0104890
7311.93, 0.0100990
7322.25, 0.00962200
7332.61, 0.00923200
7343.0, 0.00884200
7353.41, 0.00840900
7363.86, 0.00801900
7374.33, 0.00758500
7384.83, 0.00732500
7395.37, 0.00697800
7405.93, 0.00654500
7416.53, 0.00615500
7427.15, 0.00576500
7437.81, 0.00546100
7448.5, 0.00515800
7459.22, 0.00489800
7469.96, 0.00459400
7480.74, 0.00424800
7491.55, 0.00398800
7502.39, 0.00381400
7513.27, 0.00359800
7524.17, 0.00333700
7535.11, 0.00316400
7546.08, 0.00299100
7557.08, 0.00277400
7568.11, 0.00255700
7579.17, 0.00247100
7590.27, 0.00234100
7601.4, 0.00221100
7612.56, 0.00208100
7623.76, 0.00203700
7634.98, 0.00190700
7646.24, 0.00182000
7657.54, 0.00173400
7668.87, 0.00173400
7680.23, 0.00173400
7691.62, 0.00173400
7703.05, 0.00160400
7714.51, 0.00160400
7726.01, 0.00160400
7737.54, 0.00160400
7749.11, 0.00164700
7760.71, 0.00182000
7772.35, 0.00190700
7784.02, 0.00199400
7795.72, 0.00216700
7807.46, 0.00225400
7819.23, 0.00238400
7831.04, 0.00268700
7842.89, 0.00303400
7854.77, 0.00342400
7866.69, 0.00372800
7878.65, 0.00411800
7890.64, 0.00450800
7902.67, 0.00498500
7914.74, 0.00550500
7926.84, 0.00611100
7938.98, 0.00667500
7951.16, 0.00736800
7963.37, 0.00806200
7975.62, 0.00892900
7987.91, 0.00988200
8000.24, 0.0107490
8012.6, 0.0116160
8025.01, 0.0126560
8037.45, 0.0136530
8049.93, 0.0148240
8062.45, 0.0159940
8075.01, 0.0171640
8087.61, 0.0183780
8100.24, 0.0195050
8112.91, 0.0205020
8125.63, 0.0213690
8138.39, 0.0221920
8151.18, 0.0227990
8164.02, 0.0232320
8176.9, 0.0234920
8189.81, 0.0237960
8202.77, 0.0239260
8215.77, 0.0240560
8228.82, 0.0241430
8241.9, 0.0241430
8255.02, 0.0242290
8268.19, 0.0243590
8281.39, 0.0244890
8294.65, 0.0244460
8307.94, 0.0245330
8321.28, 0.0246630
8334.66, 0.0247930
8348.08, 0.0249230
8361.54, 0.0250960
8375.05, 0.0253130
8388.6, 0.0255300
8402.2, 0.0258760
8415.84, 0.0261360
8429.52, 0.0263530
8443.25, 0.0264830
8457.02, 0.0267430
8470.84, 0.0269170
8484.7, 0.0270900
8498.61, 0.0272630
8512.57, 0.0273930
8526.57, 0.0276100
8540.62, 0.0278700
8554.71, 0.0280000
8568.85, 0.0281300
8583.04, 0.0284340
8597.27, 0.0286500
8611.55, 0.0287800
8625.88, 0.0289970
8640.26, 0.0293000
8654.68, 0.0295610
8669.16, 0.0297770
8683.68, 0.0300370
8698.25, 0.0302540
8712.87, 0.0306440
8727.53, 0.0309480
8742.25, 0.0312940
8757.02, 0.0317710
8771.83, 0.0322050
8786.7, 0.0325950
8801.62, 0.0328980
8816.59, 0.0332450
8831.61, 0.0336780
8846.68, 0.0342850
8861.8, 0.0348050
8876.97, 0.0353690
8892.2, 0.0359320
8907.48, 0.0365390
8922.81, 0.0371020
8938.2, 0.0377530
8953.63, 0.0384460
8969.13, 0.0390530
8984.67, 0.0398330
9000.27, 0.0405700
9015.92, 0.0413930
9031.63, 0.0422170
9047.39, 0.0430840
9063.21, 0.0440370
9079.08, 0.0451210
9095.01, 0.0460750
9111.0, 0.0469850
9127.04, 0.0477650
9143.13, 0.0483720
9159.28, 0.0488920
9175.49, 0.0493250
9191.76, 0.0495850
9208.09, 0.0496720
9224.47, 0.0497590
9240.92, 0.0497150
9257.42, 0.0493690
9273.98, 0.0489350
9290.6, 0.0486320
9307.28, 0.0481980
9324.02, 0.0476350
9340.82, 0.0471150
9357.68, 0.0465510
9374.6, 0.0461610
9391.58, 0.0456840
9408.62, 0.0449910
9425.73, 0.0444270
9442.9, 0.0439940
9460.13, 0.0436040
9477.42, 0.0433440
9494.78, 0.0430400
9512.2, 0.0426940
9529.69, 0.0424770
9547.24, 0.0423470
9564.86, 0.0422170
9582.54, 0.0419570
9600.28, 0.0416100
9618.1, 0.0412630
9635.97, 0.0409600
9653.92, 0.0406130
9671.93, 0.0403530
9690.01, 0.0401800
9708.16, 0.0398330
9726.37, 0.0394000
9744.65, 0.0389660
9763.0, 0.0385760
9781.43, 0.0382290
9799.92, 0.0378830
9818.48, 0.0376230
9837.1, 0.0372320
9855.8, 0.0369290
9874.58, 0.0364960
9893.42, 0.0360620
9912.34, 0.0357590
9931.33, 0.0354990
9950.39, 0.0351090
9969.52, 0.0348480
9988.74, 0.0345880
10008.0, 0.0343720
10027.4, 0.0341120
10046.8, 0.0339820
10066.3, 0.0337650
10085.9, 0.0335480
10105.6, 0.0334610
10125.3, 0.0334610
10145.1, 0.0335050
10165.0, 0.0337650
10185.0, 0.0341120
10205.0, 0.0344580
10225.2, 0.0348920
10245.4, 0.0354990
10265.7, 0.0360620
10286.0, 0.0367120
10306.5, 0.0375360
10327.0, 0.0385760
10347.6, 0.0396600
10368.3, 0.0405700
10389.1, 0.0414800
10409.9, 0.0424770
10430.9, 0.0434740
10451.9, 0.0445580
10473.0, 0.0456410
10494.2, 0.0468980
10515.5, 0.0481120
10536.9, 0.0492390
10558.4, 0.0503220
10579.9, 0.0514930
10601.5, 0.0527930
10623.3, 0.0538330
10645.1, 0.0548730
10667.0, 0.0560000
10689.0, 0.0570840
10711.1, 0.0577770
10733.2, 0.0584280
10755.5, 0.0591640
10777.9, 0.0598580
10800.3, 0.0603780
10822.9, 0.0609850
10845.5, 0.0615920
10868.2, 0.0620680
10891.1, 0.0624590
10914.0, 0.0628490
10937.0, 0.0632820
10960.2, 0.0636720
10983.4, 0.0641920
11006.7, 0.0646260
11030.1, 0.0647990
11053.6, 0.0650590
11077.3, 0.0652760
11101.0, 0.0654490
11124.8, 0.0654060
11148.7, 0.0654060
11172.7, 0.0652760
11196.9, 0.0650160
11221.1, 0.0646260
11245.4, 0.0642790
11269.9, 0.0637160
11294.4, 0.0632820
11319.1, 0.0628490
11343.9, 0.0625020
11368.8, 0.0620250
11393.7, 0.0614180
11418.8, 0.0608550
11444.0, 0.0605080
11469.4, 0.0604650
11494.8, 0.0607250
11520.3, 0.0608110
11546.0, 0.0607250
11571.8, 0.0605950
11597.7, 0.0603350
11623.7, 0.0600750
11649.8, 0.0596850
11676.0, 0.0590340
11702.4, 0.0584710
11728.9, 0.0577770
11755.5, 0.0569540
11782.2, 0.0560870
11809.0, 0.0551770
11836.0, 0.0542230
11863.0, 0.0530530
11890.3, 0.0517960
11917.6, 0.0503220
11945.0, 0.0488050
11972.6, 0.0472880
12000.4, 0.0455110
12028.2, 0.0435610
12056.2, 0.0413930
12084.3, 0.0394000
12112.5, 0.0373620
12140.9, 0.0349350
12169.4, 0.0323780
12198.0, 0.0300370
12226.8, 0.0277400
12255.7, 0.0253130
12284.7, 0.0229720
12313.9, 0.0211950
12343.2, 0.0198950
12372.7, 0.0187680
12402.3, 0.0177280
12432.0, 0.0166870
12461.9, 0.0158210
12491.9, 0.0154740
12522.1, 0.0154740
12552.4, 0.0154300
12582.9, 0.0153870
12613.5, 0.0154300
12644.3, 0.0155600
12675.2, 0.0155170
12706.3, 0.0154740
12737.5, 0.0156040
12768.9, 0.0158640
12800.4, 0.0160810
12832.1, 0.0162540
12863.9, 0.0162110
12895.9, 0.0163410
12928.1, 0.0161670
12960.4, 0.0156900
12992.9, 0.0158210
13025.5, 0.0160370
13058.3, 0.0159940
13091.3, 0.0158640
13124.4, 0.0157340
13157.8, 0.0155170
13191.2, 0.0153440
13224.9, 0.0150840
13258.7, 0.0148670
13292.7, 0.0145640
13326.9, 0.0143470
13361.2, 0.0143470
13395.7, 0.0142170
13430.4, 0.0141730
13465.3, 0.0145640
13500.4, 0.0145640
13535.7, 0.0140430
13571.1, 0.0139130
13606.7, 0.0138270
13642.5, 0.0137400
13678.5, 0.0136970
13714.7, 0.0139130
13751.1, 0.0140000
13787.6, 0.0138700
13824.4, 0.0139130
13861.4, 0.0138270
13898.5, 0.0136970
13935.9, 0.0138270
13973.5, 0.0140430
14011.2, 0.0139570
14049.2, 0.0137830
14087.4, 0.0140430
14125.8, 0.0142600
14164.3, 0.0144770
14203.2, 0.0144770
14242.2, 0.0140430
14281.4, 0.0138700
14320.9, 0.0139130
14360.5, 0.0138270
14400.4, 0.0137400
14440.5, 0.0134800
14480.9, 0.0132630
14521.4, 0.0131330
14562.2, 0.0129600
14603.3, 0.0127430
14644.5, 0.0125260
14686.0, 0.0123100
14727.7, 0.0120500
14769.7, 0.0118760
14811.9, 0.0118330
14854.3, 0.0117460
14897.0, 0.0117030
14939.9, 0.0117900
14983.1, 0.0118760
15026.5, 0.0120930
15070.2, 0.0121800
15114.2, 0.0122230
15158.3, 0.0120930
15202.8, 0.0120930
15247.5, 0.0122230
15292.5, 0.0118760
15337.7, 0.0113560
15383.2, 0.0110530
15429.0, 0.0110090
15475.1, 0.0109660
15521.4, 0.0107930
15568.0, 0.0104030
15614.9, 0.0100990
15662.1, 0.00953600
15709.6, 0.00927600
15757.3, 0.00918900
15805.4, 0.00923200
15853.7, 0.00936200
15902.3, 0.00927600
15951.2, 0.00914600
16000.5, 0.00953600
16050.0, 0.00992600
16099.8, 0.0102730
16150.0, 0.0110530
16200.5, 0.0119200
16251.3, 0.0124830
16302.4, 0.0133070
16353.8, 0.0139570
16405.5, 0.0147800
16457.6, 0.0157340
16510.0, 0.0160810
16562.8, 0.0162970
16615.9, 0.0163840
16669.3, 0.0163840
16723.1, 0.0166870
16777.2, 0.0164270
16831.7, 0.0162110
16886.5, 0.0162110
16941.7, 0.0161670
16997.2, 0.0161670
17053.1, 0.0163840
17109.4, 0.0168610
17166.1, 0.0168170
17223.1, 0.0166010
17280.5, 0.0167740
17338.3, 0.0165140
17396.5, 0.0160810
17455.1, 0.0159070
17514.0, 0.0159510
17573.4, 0.0158640
17633.2, 0.0156470
17693.4, 0.0149540
17754.0, 0.0145640
17815.0, 0.0145640
17876.4, 0.0144340
17938.3, 0.0145200
18000.5, 0.0148240
18063.3, 0.0149540
18126.4, 0.0142170
18190.0, 0.0135670
18254.1, 0.0141300
18318.6, 0.0141300
18383.5, 0.0142600
18449.0, 0.0143030
18514.9, 0.0143470
18581.2, 0.0148240
18648.0, 0.0156470
18715.4, 0.0165570
18783.2, 0.0169040
18851.5, 0.0169910
18920.3, 0.0175110
18989.6, 0.0179440
19059.4, 0.0179440
19129.7, 0.0175980
19200.6, 0.0172080
19272.0, 0.0173810
19343.9, 0.0179880
19416.3, 0.0175540
19489.3, 0.0164270
19562.8, 0.0160810
19637.0, 0.0167740
19711.6, 0.0173380
19786.8, 0.0186380
19862.6, 0.0203280
19939.0, 0.0218890
20016.0, 0.0234490
20093.6, 0.0252690
20171.8, 0.0275230
20250.6, 0.0303840
20330.0, 0.0334180
20410.0, 0.0357590
20490.7, 0.0379990
20572.0, 0.0395040
20654.0, 0.0404070
20736.6, 0.0434920
20819.9, 0.0452980
20903.8, 0.0449220
20988.5, 0.0443200
21073.8, 0.0440190
21159.8, 0.0444700
21246.5, 0.0457500
21334.0, 0.0479320
21422.1, 0.0484580
21511.0, 0.0470290
21600.7, 0.0459750
21691.0, 0.0450720
21782.1, 0.0446960
21874.0, 0.0449220
21966.7, 0.0433420
22060.2, 0.0424390
22154.5, 0.0424390
22249.6, 0.0429650
22345.5, 0.0414610
22442.2, 0.0401810
22539.8, 0.0395790
22638.2, 0.0391280
22737.5, 0.0384510
22837.7, 0.0376980
22938.7, 0.0367950
23040.7, 0.0368710
23143.5, 0.0369460
23247.3, 0.0362690
23352.1, 0.0356670
23457.7, 0.0346880
23564.4, 0.0337850
23672.0, 0.0326570
23780.5, 0.0328070
23890.1, 0.0330330
24000.7, 0.0338610
24112.3, 0.0351400
24225.0, 0.0347640
24338.7, 0.0337850
24453.5, 0.0331080
24569.4, 0.0334090
24686.4, 0.0342370
24804.5, 0.0334840
24923.8, 0.0347640
25044.2, 0.0361930
25165.8, 0.0369460
25288.6, 0.0373220
25412.5, 0.0373970
25537.7, 0.0379240
25664.1, 0.0383000
25791.8, 0.0383000
25920.8, 0.0381500
26051.1, 0.0385260
26182.6, 0.0389770
26315.5, 0.0394290
26449.8, 0.0399560
26585.4, 0.0396550
26722.5, 0.0404070
26860.9, 0.0405580
27000.8, 0.0401810
27142.1, 0.0403320
27285.0, 0.0410840
27429.4, 0.0414610
27575.3, 0.0418370
27722.7, 0.0416110
27871.8, 0.0417620
28022.4, 0.0421380
28174.7, 0.0418370
28328.7, 0.0413850
28484.4, 0.0410090
28641.7, 0.0412350
28800.9, 0.0417620
28961.8, 0.0412350
29124.5, 0.0420630
29289.0, 0.0436430
29455.4, 0.0435670
29623.8, 0.0443200
29794.0, 0.0444700
29966.3, 0.0455990
30140.5, 0.0471790
30316.7, 0.0474800
30495.1, 0.0476310
30675.5, 0.0485340
30858.1, 0.0491360
31042.8, 0.0505650
31229.8, 0.0522210
31419.1, 0.0531990
31610.7, 0.0536500
31804.6, 0.0539510
32000.9, 0.0559830
32199.7, 0.0577890
32400.9, 0.0584660
32604.8, 0.0587670
32811.1, 0.0584660
33020.1, 0.0582400
33231.8, 0.0599710
33446.2, 0.0610250
33663.4, 0.0617020
33883.4, 0.0620780
34106.3, 0.0628300
34332.1, 0.0639590
34561.0, 0.0643350
34792.9, 0.0643350
35028.0, 0.0647120
35266.3, 0.0648620
35507.8, 0.0652380
35752.7, 0.0646360
36001.0, 0.0651630
36252.8, 0.0675710
36508.1, 0.0692260
36767.0, 0.0698280
37029.7, 0.0696030
37296.1, 0.0707310
37566.3, 0.0723110
37840.5, 0.0738160
38118.8, 0.0750960
38401.2, 0.0769770
38687.8, 0.0775030
38978.6, 0.0769010
39273.9, 0.0763000
39573.7, 0.0771270
39878.1, 0.0790840
40187.3, 0.0788580
40501.2, 0.0780300
40820.0, 0.0786320
41144.0, 0.0793090
41473.2, 0.0788580
41807.6, 0.0794600
42147.5, 0.0815670
42493.0, 0.0811900
42844.2, 0.0806640
43201.2, 0.0812660
43564.3, 0.0812660
43933.5, 0.0812660
44309.0, 0.0824700
44691.0, 0.0848780
45079.6, 0.0872100
45475.0, 0.0887900
45877.5, 0.0890910
46287.1, 0.0899190
46704.2, 0.0901450
47128.7, 0.0898440
47561.1, 0.0888660
48001.5, 0.0871350
48450.1, 0.0881130
48907.2, 0.0864580
49373.0, 0.0838990
49847.7, 0.0870600
50331.5, 0.0885650
50825.0, 0.0876620
51328.2, 0.0860060
51841.5, 0.0880380
52365.1, 0.0889410
52899.4, 0.0873610
53444.8, 0.0866080
54001.5, 0.0863070
54570.1, 0.0856300
55150.6, 0.0842760
55743.6, 0.0844260
56349.5, 0.0836740
56968.7, 0.0808900
57601.7, 0.0795350
58248.9, 0.0789330
58910.9, 0.0803630
59588.1, 0.0815670
60281.0, 0.0790080
60990.2, 0.0776540
61716.3, 0.0759230
62459.8, 0.0750200
63221.6, 0.0735150
64002.1, 0.0726880
64802.1, 0.0701290
65622.1, 0.0671190
66463.4, 0.0652380
67326.6, 0.0660660
68212.4, 0.0648620
69121.9, 0.0642600
70056.0, 0.0647870
71015.7, 0.0601970
72002.0, 0.0580150
73016.3, 0.0586920
74059.4, 0.0589180
75132.7, 0.0581650
76237.6, 0.0591430
77375.5, 0.0599710
78547.9, 0.0598960
79756.3, 0.0624540
81002.5, 0.0617020
82288.5, 0.0569610
83615.7, 0.0571120
84986.5, 0.0576380
86402.9, 0.0567360
87867.4, 0.0586920
89382.4, 0.0599710
90950.5, 0.0611750
92574.6, 0.0662920
94257.2, 0.0625290
96002.7, 0.0599710
97814.1, 0.0614010
99695.1, 0.0588420
101650.0, 0.0582400
103683.0, 0.0591430
105799.0, 0.0565850
108003.0, 0.0521460
110301.0, 0.0540270
112699.0, 0.0537260
115204.0, 0.0478560
117822.0, 0.0503400
120562.0, 0.0480820
123433.0, 0.0432660
126443.0, 0.0485340
129604.0, 0.0511670
132926.0, 0.0522210
136424.0, 0.0409340
140111.0, 0.0400310
144003.0, 0.0472550
148118.0, 0.0519200
152474.0, 0.0607990
157095.0, 0.0631310
162004.0, 0.0878120
167231.0, 0.103614
172805.0, 0.0868340
178764.0, 0.0828460
185148.0, 0.0818680
192005.0, 0.0398050
216006.0, 0.182547
