Database of Origin, USGS Spectral Database
Sample Description, See USGS database for additional info
Date Added,2016-08-10 05:09:31.651090

Data ID,USGS_miz02          
Sample ID, mizzonite_bm931-12.14037
Mineral Name, mizzonite
Material Class,Tectosilicate

Wavelength
1384.66, 0.733493
1385.03, 0.732791
1385.4, 0.732265
1385.77, 0.731739
1386.14, 0.731271
1386.51, 0.730452
1386.88, 0.729399
1387.25, 0.728814
1387.62, 0.727469
1387.99, 0.726417
1388.36, 0.725832
1388.74, 0.725130
1389.11, 0.723960
1389.48, 0.723492
1389.85, 0.722557
1390.23, 0.721212
1390.6, 0.719574
1390.97, 0.718580
1391.35, 0.717293
1391.72, 0.716007
1392.09, 0.714545
1392.47, 0.713199
1392.84, 0.711971
1393.21, 0.710509
1393.59, 0.708521
1393.96, 0.707000
1394.34, 0.705655
1394.71, 0.703784
1395.09, 0.701971
1395.46, 0.700392
1395.84, 0.697935
1396.22, 0.695888
1396.59, 0.694602
1396.97, 0.693549
1397.35, 0.691912
1397.72, 0.689806
1398.1, 0.687701
1398.48, 0.685888
1398.85, 0.684484
1399.23, 0.683022
1399.61, 0.681326
1399.99, 0.679396
1400.37, 0.677174
1400.74, 0.675478
1401.12, 0.674133
1401.5, 0.672671
1401.88, 0.671384
1402.26, 0.669747
1402.64, 0.667875
1403.02, 0.666647
1403.4, 0.665477
1403.78, 0.663430
1404.16, 0.661559
1404.54, 0.660038
1404.92, 0.658576
1405.3, 0.657524
1405.68, 0.656354
1406.06, 0.655009
1406.44, 0.653722
1406.83, 0.653020
1407.21, 0.652260
1407.59, 0.650564
1407.97, 0.648517
1408.35, 0.647231
1408.74, 0.646061
1409.12, 0.645242
1409.5, 0.643956
1409.89, 0.643371
1410.27, 0.642377
1410.65, 0.641090
1411.04, 0.640096
1411.42, 0.639686
1411.81, 0.638985
1412.19, 0.638575
1412.58, 0.638224
1412.96, 0.637873
1413.35, 0.637815
1413.73, 0.637815
1414.12, 0.638283
1414.5, 0.638458
1414.89, 0.639043
1415.28, 0.639745
1415.66, 0.640388
1416.05, 0.641032
1416.44, 0.641441
1416.82, 0.642143
1417.21, 0.643312
1417.6, 0.644657
1417.98, 0.645652
1418.37, 0.646236
1418.76, 0.646880
1419.15, 0.648342
1419.54, 0.649979
1419.93, 0.651383
1420.32, 0.652611
1420.71, 0.654015
1421.09, 0.655243
1421.48, 0.656179
1421.88, 0.657407
1422.27, 0.658693
1422.66, 0.659629
1423.05, 0.660857
1423.44, 0.661793
1423.83, 0.662787
1424.22, 0.663781
1424.61, 0.664717
1425.0, 0.665887
1425.39, 0.666881
1425.78, 0.667407
1426.18, 0.668284
1426.57, 0.669045
1426.96, 0.669688
1427.36, 0.670448
1427.75, 0.670975
1428.14, 0.671443
1428.54, 0.672261
1428.93, 0.672378
1429.32, 0.672905
1429.72, 0.672905
1430.11, 0.673314
1430.51, 0.673489
1430.9, 0.673665
1431.3, 0.674133
1431.69, 0.673840
1432.09, 0.673548
1432.48, 0.673840
1432.88, 0.673782
1433.28, 0.673957
1433.67, 0.674308
1434.07, 0.674367
1434.46, 0.674250
1434.86, 0.674133
1435.26, 0.674191
1435.66, 0.674133
1436.05, 0.674016
1436.45, 0.673899
1436.85, 0.673957
1437.25, 0.673665
1437.65, 0.673840
1438.05, 0.674074
1438.44, 0.673840
1438.84, 0.673548
1439.24, 0.673489
1439.64, 0.673782
1440.04, 0.673899
1440.44, 0.673840
1440.84, 0.673373
1441.24, 0.673080
1441.65, 0.672905
1442.05, 0.672612
1442.45, 0.672203
1442.85, 0.672203
1443.25, 0.672378
1443.65, 0.672203
1444.05, 0.672261
1444.46, 0.672086
1444.86, 0.672027
1445.26, 0.671910
1445.67, 0.671326
1446.07, 0.670916
1446.47, 0.670682
1446.88, 0.670156
1447.28, 0.669981
1447.68, 0.670039
1448.09, 0.669981
1448.49, 0.669688
1448.9, 0.669162
1449.3, 0.668928
1449.71, 0.668869
1450.11, 0.668460
1450.52, 0.668109
1450.93, 0.667875
1451.33, 0.667583
1451.74, 0.667407
1452.14, 0.666822
1452.55, 0.666413
1452.96, 0.666589
1453.36, 0.666296
1453.77, 0.665594
1454.18, 0.665594
1454.59, 0.665243
1455.0, 0.664775
1455.41, 0.664892
1455.81, 0.664775
1456.22, 0.664308
1456.63, 0.663781
1457.04, 0.663489
1457.45, 0.663606
1457.86, 0.663606
1458.27, 0.663138
1458.68, 0.662261
1459.09, 0.662144
1459.5, 0.661851
1459.91, 0.661325
1460.32, 0.660974
1460.74, 0.660974
1461.15, 0.660682
1461.56, 0.660155
1461.97, 0.659571
1462.39, 0.659103
1462.8, 0.658693
1463.21, 0.658050
1463.62, 0.657465
1464.04, 0.657056
1464.45, 0.656529
1464.86, 0.656237
1465.28, 0.655126
1465.69, 0.654658
1466.11, 0.654249
1466.52, 0.653254
1466.94, 0.652085
1467.35, 0.651383
1467.77, 0.650330
1468.18, 0.649161
1468.6, 0.647932
1469.02, 0.646938
1469.43, 0.645301
1469.85, 0.644073
1470.27, 0.642611
1470.68, 0.640914
1471.1, 0.639511
1471.52, 0.637698
1471.94, 0.635885
1472.35, 0.634130
1472.77, 0.632142
1473.19, 0.630446
1473.61, 0.628516
1474.03, 0.626762
1474.45, 0.625416
1474.87, 0.624188
1475.29, 0.623311
1475.71, 0.622785
1476.13, 0.622375
1476.55, 0.622375
1476.97, 0.622083
1477.39, 0.621498
1477.81, 0.621498
1478.23, 0.621557
1478.65, 0.622083
1479.07, 0.622843
1479.5, 0.623487
1479.92, 0.624364
1480.34, 0.625241
1480.76, 0.626177
1481.19, 0.626996
1481.61, 0.628282
1482.03, 0.629510
1482.46, 0.630797
1482.88, 0.632201
1483.31, 0.633546
1483.73, 0.635008
1484.16, 0.636645
1484.58, 0.638341
1485.01, 0.639920
1485.43, 0.641265
1485.86, 0.642727
1486.28, 0.644073
1486.71, 0.645301
1487.14, 0.646470
1487.56, 0.647640
1487.99, 0.649219
1488.42, 0.650506
1488.84, 0.651324
1489.27, 0.652202
1489.7, 0.653196
1490.13, 0.654073
1490.56, 0.654892
1490.98, 0.655828
1491.41, 0.656822
1491.84, 0.657524
1492.27, 0.657933
1492.7, 0.658752
1493.13, 0.659337
1493.56, 0.659454
1493.99, 0.660272
1494.42, 0.660799
1494.85, 0.661383
1495.29, 0.661968
1495.72, 0.662202
1496.15, 0.662553
1496.58, 0.662962
1497.01, 0.663255
1497.44, 0.663957
1497.88, 0.664366
1498.31, 0.664308
1498.74, 0.664483
1499.18, 0.664775
1499.61, 0.665009
1500.04, 0.665068
1500.48, 0.665419
1500.91, 0.665770
1501.35, 0.665887
1501.78, 0.665945
1502.22, 0.666296
1502.65, 0.666705
1503.09, 0.666881
1503.53, 0.666939
1503.96, 0.667115
1504.4, 0.667407
1504.83, 0.667641
1505.27, 0.667641
1505.71, 0.667583
1506.15, 0.667875
1506.58, 0.668226
1507.02, 0.668168
1507.46, 0.668518
1507.9, 0.668869
1508.34, 0.669103
1508.78, 0.668928
1509.21, 0.668694
1509.66, 0.669103
1510.09, 0.669630
1510.53, 0.669747
1510.97, 0.669630
1511.42, 0.669922
1511.86, 0.670097
1512.3, 0.670448
1512.74, 0.670448
1513.18, 0.670507
1513.62, 0.671033
1514.06, 0.671150
1514.51, 0.670799
1514.95, 0.670799
1515.39, 0.671209
1515.83, 0.671501
1516.28, 0.671677
1516.72, 0.671560
1517.16, 0.671677
1517.61, 0.671969
1518.05, 0.672261
1518.5, 0.672612
1518.94, 0.672671
1519.39, 0.672554
1519.83, 0.672437
1520.28, 0.672554
1520.73, 0.672963
1521.17, 0.673139
1521.62, 0.673022
1522.07, 0.673022
1522.51, 0.673256
1522.96, 0.673489
1523.41, 0.673723
1523.85, 0.673606
1524.3, 0.673548
1524.75, 0.674016
1525.2, 0.674133
1525.65, 0.674074
1526.1, 0.674367
1526.55, 0.674952
1527.0, 0.675068
1527.45, 0.674659
1527.9, 0.674776
1528.35, 0.675127
1528.8, 0.675536
1529.25, 0.675595
1529.7, 0.675712
1530.15, 0.675712
1530.6, 0.675770
1531.05, 0.675887
1531.51, 0.676297
1531.96, 0.676531
1532.41, 0.676355
1532.87, 0.676297
1533.32, 0.676764
1533.77, 0.676940
1534.23, 0.677174
1534.68, 0.677349
1535.14, 0.677408
1535.59, 0.677934
1536.05, 0.678519
1536.5, 0.678285
1536.96, 0.678285
1537.41, 0.678577
1537.87, 0.679045
1538.32, 0.679162
1538.78, 0.679396
1539.24, 0.679747
1539.7, 0.679806
1540.15, 0.679689
1540.61, 0.679747
1541.07, 0.679923
1541.53, 0.680449
1541.98, 0.680858
1542.44, 0.681034
1542.9, 0.680975
1543.36, 0.681209
1543.82, 0.681502
1544.28, 0.682028
1544.74, 0.682028
1545.2, 0.682145
1545.66, 0.682496
1546.12, 0.682730
1546.59, 0.682964
1547.05, 0.683139
1547.51, 0.683373
1547.97, 0.683549
1548.43, 0.683841
1548.9, 0.683899
1549.36, 0.683841
1549.82, 0.684309
1550.29, 0.684718
1550.75, 0.684952
1551.21, 0.685011
1551.68, 0.685245
1552.14, 0.685537
1552.61, 0.685771
1553.07, 0.685771
1553.54, 0.685946
1554.0, 0.686356
1554.47, 0.686648
1554.93, 0.686824
1555.4, 0.686999
1555.87, 0.687174
1556.34, 0.687233
1556.8, 0.687525
1557.27, 0.687701
1557.74, 0.687876
1558.21, 0.688344
1558.68, 0.688578
1559.14, 0.688695
1559.61, 0.688987
1560.08, 0.689221
1560.55, 0.689338
1561.02, 0.689221
1561.49, 0.689514
1561.96, 0.689631
1562.43, 0.689865
1562.9, 0.690216
1563.38, 0.690566
1563.85, 0.690800
1564.32, 0.690917
1564.79, 0.691210
1565.26, 0.691502
1565.74, 0.691678
1566.21, 0.691795
1566.68, 0.691853
1567.16, 0.691853
1567.63, 0.692029
1568.1, 0.692146
1568.58, 0.692204
1569.05, 0.692321
1569.53, 0.692613
1570.0, 0.692847
1570.48, 0.693140
1570.96, 0.693432
1571.43, 0.693549
1571.91, 0.693725
1572.39, 0.694076
1572.86, 0.694192
1573.34, 0.694192
1573.82, 0.694251
1574.3, 0.694426
1574.77, 0.694485
1575.25, 0.694602
1575.73, 0.695011
1576.21, 0.695187
1576.69, 0.695070
1577.17, 0.695304
1577.65, 0.695654
1578.13, 0.695654
1578.61, 0.695596
1579.09, 0.695888
1579.57, 0.696298
1580.05, 0.696298
1580.54, 0.696356
1581.02, 0.696415
1581.5, 0.696707
1581.98, 0.697117
1582.47, 0.697117
1582.95, 0.697175
1583.43, 0.697351
1583.92, 0.697467
1584.4, 0.697292
1584.88, 0.697584
1585.37, 0.697760
1585.85, 0.698111
1586.34, 0.698228
1586.82, 0.698228
1587.31, 0.698403
1587.8, 0.698462
1588.28, 0.698520
1588.77, 0.698930
1589.26, 0.698988
1589.74, 0.699222
1590.23, 0.699397
1590.72, 0.699339
1591.21, 0.699573
1591.7, 0.700158
1592.19, 0.700333
1592.67, 0.700450
1593.16, 0.700626
1593.65, 0.700976
1594.14, 0.701152
1594.63, 0.701210
1595.12, 0.701269
1595.61, 0.701386
1596.11, 0.701561
1596.6, 0.701795
1597.09, 0.702146
1597.58, 0.702438
1598.08, 0.702497
1598.57, 0.702789
1599.06, 0.703199
1599.55, 0.703374
1600.05, 0.703433
1600.54, 0.703784
1601.04, 0.704135
1601.53, 0.704251
1602.03, 0.704368
1602.52, 0.704778
1603.02, 0.705187
1603.51, 0.705538
1604.01, 0.705889
1604.5, 0.705889
1605.0, 0.706064
1605.5, 0.706123
1606.0, 0.706240
1606.49, 0.706591
1606.99, 0.707117
1607.49, 0.707468
1607.99, 0.707644
1608.49, 0.707819
1608.99, 0.708053
1609.49, 0.708170
1609.99, 0.708404
1610.49, 0.708872
1610.99, 0.708813
1611.49, 0.708872
1611.99, 0.709047
1612.49, 0.709281
1612.99, 0.709749
1613.49, 0.710100
1614.0, 0.710685
1614.5, 0.710743
1615.0, 0.710568
1615.51, 0.710743
1616.01, 0.710919
1616.51, 0.711386
1617.02, 0.712088
1617.52, 0.712147
1618.03, 0.712147
1618.53, 0.712381
1619.04, 0.712615
1619.54, 0.713024
1620.05, 0.713492
1620.55, 0.713375
1621.06, 0.713550
1621.57, 0.713667
1622.08, 0.713784
1622.58, 0.713960
1623.09, 0.714194
1623.6, 0.714545
1624.11, 0.714603
1624.62, 0.714895
1625.13, 0.715188
1625.64, 0.715539
1626.15, 0.715831
1626.66, 0.716299
1627.17, 0.716241
1627.68, 0.716299
1628.19, 0.716474
1628.7, 0.716708
1629.21, 0.717001
1629.72, 0.717176
1630.24, 0.717352
1630.75, 0.717644
1631.26, 0.717586
1631.78, 0.717703
1632.29, 0.717878
1632.8, 0.718229
1633.32, 0.718463
1633.83, 0.718755
1634.35, 0.718580
1634.86, 0.718814
1635.38, 0.718931
1635.9, 0.719048
1636.41, 0.719165
1636.93, 0.719165
1637.45, 0.719340
1637.96, 0.719867
1638.48, 0.719867
1639.0, 0.719925
1639.52, 0.720334
1640.04, 0.720568
1640.56, 0.720276
1641.08, 0.720393
1641.59, 0.720510
1642.11, 0.720685
1642.63, 0.720919
1643.16, 0.721095
1643.68, 0.721212
1644.2, 0.721446
1644.72, 0.721562
1645.24, 0.721679
1645.76, 0.721972
1646.29, 0.721738
1646.81, 0.721855
1647.33, 0.722206
1647.86, 0.722264
1648.38, 0.722615
1648.9, 0.722849
1649.43, 0.722615
1649.95, 0.722615
1650.48, 0.722908
1651.0, 0.723141
1651.53, 0.723434
1652.06, 0.723317
1652.58, 0.723434
1653.11, 0.723785
1653.64, 0.723902
1654.17, 0.724136
1654.69, 0.724253
1655.22, 0.724253
1655.75, 0.724428
1656.28, 0.724721
1656.81, 0.724896
1657.34, 0.724721
1657.87, 0.724662
1658.4, 0.725013
1658.93, 0.725422
1659.46, 0.725539
1659.99, 0.725715
1660.52, 0.725773
1661.05, 0.725890
1661.59, 0.726066
1662.12, 0.726007
1662.65, 0.726358
1663.19, 0.726943
1663.72, 0.727060
1664.26, 0.727001
1664.79, 0.726884
1665.32, 0.727060
1665.86, 0.727411
1666.39, 0.727762
1666.93, 0.728113
1667.47, 0.728346
1668.0, 0.728230
1668.54, 0.728346
1669.08, 0.728697
1669.61, 0.728990
1670.15, 0.729341
1670.69, 0.729633
1671.23, 0.729750
1671.77, 0.730043
1672.31, 0.729984
1672.85, 0.730335
1673.39, 0.730569
1673.93, 0.730686
1674.47, 0.731212
1675.01, 0.731212
1675.55, 0.731095
1676.09, 0.731388
1676.64, 0.731680
1677.18, 0.732031
1677.72, 0.732265
1678.26, 0.732440
1678.81, 0.732674
1679.35, 0.732850
1679.89, 0.732908
1680.44, 0.733025
1680.98, 0.732967
1681.53, 0.733317
1682.07, 0.733902
1682.62, 0.734370
1683.17, 0.734370
1683.71, 0.734546
1684.26, 0.734604
1684.81, 0.734780
1685.36, 0.735014
1685.9, 0.735423
1686.45, 0.735481
1687.0, 0.735598
1687.55, 0.735949
1688.1, 0.736476
1688.65, 0.736534
1689.2, 0.736534
1689.75, 0.736709
1690.3, 0.736827
1690.85, 0.736885
1691.41, 0.737177
1691.96, 0.737528
1692.51, 0.737645
1693.06, 0.737821
1693.61, 0.737938
1694.17, 0.737938
1694.72, 0.738230
1695.28, 0.738581
1695.83, 0.738639
1696.39, 0.738756
1696.94, 0.739049
1697.5, 0.739107
1698.05, 0.739049
1698.61, 0.739166
1699.17, 0.739400
1699.72, 0.739692
1700.28, 0.739692
1700.84, 0.739809
1701.4, 0.739926
1701.95, 0.739751
1702.51, 0.739751
1703.07, 0.740102
1703.63, 0.740452
1704.19, 0.740452
1704.75, 0.740628
1705.31, 0.740686
1705.88, 0.740920
1706.44, 0.741154
1707.0, 0.741271
1707.56, 0.741154
1708.12, 0.741213
1708.69, 0.741213
1709.25, 0.741271
1709.81, 0.741388
1710.38, 0.741622
1710.94, 0.741798
1711.51, 0.741798
1712.07, 0.741856
1712.64, 0.742031
1713.2, 0.741973
1713.77, 0.742207
1714.34, 0.742324
1714.9, 0.742324
1715.47, 0.742324
1716.04, 0.742441
1716.61, 0.742441
1717.18, 0.742733
1717.74, 0.743084
1718.31, 0.743084
1718.88, 0.742967
1719.45, 0.743201
1720.02, 0.743318
1720.59, 0.743318
1721.17, 0.743494
1721.74, 0.743552
1722.31, 0.743611
1722.88, 0.743494
1723.45, 0.743552
1724.03, 0.743727
1724.6, 0.743844
1725.18, 0.743903
1725.75, 0.744020
1726.33, 0.744312
1726.9, 0.744312
1727.48, 0.744078
1728.05, 0.744195
1728.63, 0.744371
1729.2, 0.744605
1729.78, 0.744663
1730.36, 0.744546
1730.94, 0.744663
1731.51, 0.744722
1732.09, 0.744956
1732.67, 0.744780
1733.25, 0.744839
1733.83, 0.744897
1734.41, 0.745248
1734.99, 0.745540
1735.57, 0.745540
1736.15, 0.745774
1736.73, 0.745833
1737.32, 0.745774
1737.9, 0.745774
1738.48, 0.746067
1739.07, 0.746535
1739.65, 0.746652
1740.23, 0.746827
1740.82, 0.746886
1741.4, 0.747061
1741.99, 0.747412
1742.57, 0.747704
1743.16, 0.747763
1743.74, 0.747938
1744.33, 0.747880
1744.92, 0.748114
1745.51, 0.748406
1746.09, 0.748465
1746.68, 0.748640
1747.27, 0.748815
1747.86, 0.748991
1748.45, 0.749166
1749.04, 0.749400
1749.63, 0.749810
1750.22, 0.750044
1750.81, 0.750161
1751.4, 0.750219
1751.99, 0.750278
1752.59, 0.750511
1753.18, 0.750804
1753.77, 0.750862
1754.37, 0.750979
1754.96, 0.751213
1755.56, 0.751213
1756.15, 0.751389
1756.74, 0.751623
1757.34, 0.751974
1757.94, 0.752208
1758.53, 0.752208
1759.13, 0.752324
1759.73, 0.752208
1760.32, 0.752675
1760.92, 0.753260
1761.52, 0.753319
1762.12, 0.753202
1762.72, 0.753436
1763.32, 0.753494
1763.92, 0.753670
1764.52, 0.754079
1765.12, 0.754254
1765.72, 0.754430
1766.32, 0.754664
1766.92, 0.754664
1767.53, 0.754781
1768.13, 0.755190
1768.73, 0.755424
1769.34, 0.755599
1769.94, 0.755775
1770.55, 0.755775
1771.15, 0.755833
1771.76, 0.755950
1772.36, 0.756418
1772.97, 0.756652
1773.57, 0.756711
1774.18, 0.756945
1774.79, 0.757003
1775.4, 0.757003
1776.0, 0.756886
1776.61, 0.756769
1777.22, 0.756945
1777.83, 0.757120
1778.44, 0.757354
1779.05, 0.757471
1779.66, 0.757588
1780.27, 0.757705
1780.88, 0.757939
1781.5, 0.757705
1782.11, 0.757705
1782.72, 0.757997
1783.33, 0.758173
1783.95, 0.757939
1784.56, 0.757939
1785.18, 0.758173
1785.79, 0.758348
1786.41, 0.758524
1787.02, 0.758758
1787.64, 0.758699
1788.26, 0.758524
1788.87, 0.758407
1789.49, 0.758641
1790.11, 0.758582
1790.73, 0.758524
1791.35, 0.758699
1791.96, 0.758758
1792.58, 0.758933
1793.21, 0.758875
1793.83, 0.758816
1794.45, 0.758875
1795.07, 0.758816
1795.69, 0.758991
1796.31, 0.759108
1796.93, 0.758875
1797.56, 0.758991
1798.18, 0.759284
1798.8, 0.759342
1799.43, 0.759284
1800.05, 0.759284
1800.68, 0.759226
1801.3, 0.759167
1801.93, 0.759284
1802.56, 0.759226
1803.18, 0.759284
1803.81, 0.759284
1804.44, 0.759284
1805.07, 0.759284
1805.7, 0.759284
1806.33, 0.759226
1806.95, 0.759342
1807.58, 0.759459
1808.22, 0.759518
1808.85, 0.759459
1809.48, 0.759459
1810.11, 0.759342
1810.74, 0.759226
1811.38, 0.759226
1812.01, 0.759108
1812.64, 0.759226
1813.28, 0.759518
1813.91, 0.759635
1814.55, 0.759635
1815.18, 0.759576
1815.82, 0.759576
1816.45, 0.759576
1817.09, 0.759576
1817.73, 0.759752
1818.36, 0.759752
1819.0, 0.759810
1819.64, 0.759869
1820.28, 0.759752
1820.92, 0.759986
1821.56, 0.759927
1822.2, 0.760103
1822.84, 0.760044
1823.48, 0.760220
1824.12, 0.760220
1824.76, 0.760220
1825.41, 0.760220
1826.05, 0.760220
1826.69, 0.760454
1827.34, 0.760629
1827.98, 0.760629
1828.63, 0.760804
1829.27, 0.760454
1829.92, 0.760512
1830.56, 0.760512
1831.21, 0.760746
1831.86, 0.760804
1832.5, 0.760921
1833.15, 0.760921
1833.8, 0.760921
1834.45, 0.761155
1835.1, 0.760980
1835.75, 0.760863
1836.4, 0.761097
1837.05, 0.761097
1837.7, 0.761214
1838.35, 0.761565
1839.01, 0.761740
1839.66, 0.761565
1840.31, 0.761740
1840.96, 0.761916
1841.62, 0.761857
1842.27, 0.762150
1842.93, 0.762442
1843.58, 0.762676
1844.24, 0.763027
1844.9, 0.763027
1845.55, 0.763144
1846.21, 0.762851
1846.87, 0.762793
1847.53, 0.763144
1848.18, 0.763319
1848.84, 0.763846
1849.5, 0.763904
1850.16, 0.763904
1850.82, 0.763963
1851.48, 0.763963
1852.14, 0.764080
1852.81, 0.764138
1853.47, 0.764196
1854.13, 0.764430
1854.8, 0.764547
1855.46, 0.764430
1856.12, 0.764314
1856.79, 0.764430
1857.45, 0.764489
1858.12, 0.764372
1858.79, 0.764314
1859.45, 0.764430
1860.12, 0.764664
1860.79, 0.764664
1861.46, 0.764547
1862.12, 0.764606
1862.79, 0.764430
1863.46, 0.764372
1864.13, 0.764255
1864.8, 0.764314
1865.48, 0.764138
1866.15, 0.763963
1866.82, 0.763495
1867.49, 0.763319
1868.16, 0.763378
1868.84, 0.763202
1869.51, 0.762734
1870.19, 0.762383
1870.86, 0.762208
1871.54, 0.762267
1872.21, 0.762033
1872.89, 0.761740
1873.56, 0.761506
1874.24, 0.761272
1874.92, 0.760804
1875.6, 0.760688
1876.28, 0.760337
1876.96, 0.760044
1877.64, 0.759927
1878.32, 0.759693
1879.0, 0.759693
1879.68, 0.759576
1880.36, 0.759167
1881.04, 0.759050
1881.73, 0.758991
1882.41, 0.759108
1883.09, 0.758991
1883.78, 0.758933
1884.46, 0.759108
1885.15, 0.759050
1885.83, 0.758875
1886.52, 0.758816
1887.21, 0.758699
1887.89, 0.758641
1888.58, 0.758231
1889.27, 0.757997
1889.96, 0.757822
1890.65, 0.757763
1891.34, 0.757646
1892.03, 0.757237
1892.72, 0.756945
1893.41, 0.756594
1894.1, 0.756301
1894.79, 0.755950
1895.49, 0.755424
1896.18, 0.755015
1896.87, 0.754605
1897.57, 0.754137
1898.26, 0.753611
1898.96, 0.753026
1899.65, 0.752558
1900.35, 0.752091
1901.05, 0.751798
1901.74, 0.751389
1902.44, 0.750979
1903.14, 0.750395
1903.84, 0.750044
1904.54, 0.749927
1905.24, 0.749634
1905.94, 0.749400
1906.64, 0.749400
1907.34, 0.749459
1908.04, 0.749342
1908.75, 0.749049
1909.45, 0.748991
1910.15, 0.748991
1910.86, 0.749049
1911.56, 0.749166
1912.27, 0.749283
1912.97, 0.749517
1913.68, 0.749634
1914.39, 0.749751
1915.09, 0.749927
1915.8, 0.750395
1916.51, 0.750745
1917.22, 0.750921
1917.93, 0.751038
1918.64, 0.751272
1919.35, 0.751447
1920.06, 0.751564
1920.77, 0.751857
1921.48, 0.752149
1922.19, 0.752441
1922.91, 0.752734
1923.62, 0.752909
1924.33, 0.753026
1925.05, 0.753319
1925.76, 0.753787
1926.48, 0.754079
1927.19, 0.754079
1927.91, 0.754137
1928.63, 0.754547
1929.35, 0.754781
1930.07, 0.754956
1930.78, 0.754956
1931.5, 0.755366
1932.22, 0.755775
1932.94, 0.755950
1933.66, 0.755950
1934.39, 0.756067
1935.11, 0.756360
1935.83, 0.756477
1936.55, 0.756711
1937.28, 0.757062
1938.0, 0.757354
1938.73, 0.757471
1939.45, 0.757822
1940.18, 0.758056
1940.9, 0.758407
1941.63, 0.758816
1942.36, 0.758875
1943.09, 0.758933
1943.81, 0.759167
1944.54, 0.759459
1945.27, 0.759576
1946.0, 0.759635
1946.73, 0.759693
1947.47, 0.759810
1948.2, 0.759869
1948.93, 0.759986
1949.66, 0.760220
1950.4, 0.760278
1951.13, 0.760395
1951.86, 0.760395
1952.6, 0.760337
1953.34, 0.760395
1954.07, 0.760571
1954.81, 0.760571
1955.55, 0.760571
1956.29, 0.760629
1957.02, 0.760688
1957.76, 0.760746
1958.5, 0.760804
1959.24, 0.760746
1959.98, 0.760746
1960.72, 0.760688
1961.47, 0.760746
1962.21, 0.760863
1962.95, 0.760980
1963.7, 0.761038
1964.44, 0.761214
1965.18, 0.761038
1965.93, 0.761155
1966.67, 0.761155
1967.42, 0.761389
1968.17, 0.761214
1968.92, 0.761272
1969.66, 0.761448
1970.41, 0.761331
1971.16, 0.761214
1971.91, 0.761623
1972.66, 0.761682
1973.41, 0.761448
1974.16, 0.761506
1974.92, 0.761506
1975.67, 0.761565
1976.42, 0.761565
1977.18, 0.761448
1977.93, 0.761389
1978.69, 0.761331
1979.44, 0.761155
1980.2, 0.760980
1980.95, 0.761038
1981.71, 0.761038
1982.47, 0.760863
1983.23, 0.760512
1983.99, 0.760161
1984.74, 0.760103
1985.51, 0.759986
1986.27, 0.759752
1987.03, 0.759518
1987.79, 0.759284
1988.55, 0.759226
1989.32, 0.758816
1990.08, 0.758290
1990.84, 0.758056
1991.61, 0.757997
1992.37, 0.757939
1993.14, 0.757939
1993.9, 0.757997
1994.67, 0.758056
1995.44, 0.758231
1996.21, 0.758524
1996.98, 0.758991
1997.75, 0.759226
1998.52, 0.759576
1999.29, 0.759986
2000.06, 0.760103
2000.83, 0.760629
2001.6, 0.760921
2002.38, 0.760863
2003.15, 0.761038
2003.93, 0.761448
2004.7, 0.761799
2005.48, 0.761974
2006.25, 0.762091
2007.03, 0.762325
2007.81, 0.762617
2008.58, 0.762851
2009.36, 0.763085
2010.14, 0.763261
2010.92, 0.763319
2011.7, 0.763495
2012.48, 0.763553
2013.26, 0.763729
2014.05, 0.764080
2014.83, 0.764489
2015.61, 0.764606
2016.4, 0.764664
2017.18, 0.764723
2017.97, 0.764957
2018.75, 0.765132
2019.54, 0.764957
2020.32, 0.765074
2021.11, 0.765249
2021.9, 0.765542
2022.69, 0.765834
2023.48, 0.765951
2024.27, 0.766009
2025.06, 0.766127
2025.85, 0.766302
2026.64, 0.766185
2027.44, 0.766419
2028.23, 0.766770
2029.02, 0.766945
2029.82, 0.767121
2030.61, 0.767296
2031.41, 0.767413
2032.2, 0.767413
2033.0, 0.767647
2033.8, 0.767940
2034.6, 0.767998
2035.4, 0.768056
2036.2, 0.768290
2037.0, 0.768583
2037.8, 0.768641
2038.6, 0.768700
2039.4, 0.768875
2040.2, 0.768758
2041.01, 0.768817
2041.81, 0.769051
2042.61, 0.769285
2043.42, 0.769401
2044.22, 0.769226
2045.03, 0.769285
2045.84, 0.769401
2046.65, 0.769460
2047.46, 0.769577
2048.26, 0.769752
2049.07, 0.769518
2049.88, 0.769635
2050.69, 0.769752
2051.51, 0.769694
2052.32, 0.769577
2053.13, 0.769577
2053.94, 0.769635
2054.76, 0.769694
2055.57, 0.769460
2056.39, 0.769401
2057.2, 0.769343
2058.02, 0.769401
2058.84, 0.769343
2059.66, 0.769285
2060.48, 0.768994
2061.29, 0.768936
2062.11, 0.769343
2062.94, 0.769110
2063.76, 0.769110
2064.58, 0.768936
2065.4, 0.768471
2066.22, 0.768529
2067.05, 0.768762
2067.87, 0.768936
2068.7, 0.768529
2069.52, 0.767891
2070.35, 0.768181
2071.18, 0.768123
2072.0, 0.767658
2072.83, 0.767310
2073.66, 0.766903
2074.49, 0.767310
2075.32, 0.767252
2076.15, 0.766961
2076.98, 0.767019
2077.82, 0.766206
2078.65, 0.766090
2079.48, 0.765858
2080.32, 0.766090
2081.15, 0.765858
2081.99, 0.765277
2082.83, 0.764348
2083.66, 0.764464
2084.5, 0.764638
2085.34, 0.764464
2086.18, 0.763883
2087.02, 0.763012
2087.86, 0.762431
2088.7, 0.762315
2089.54, 0.761966
2090.39, 0.762373
2091.23, 0.761618
2092.07, 0.760921
2092.92, 0.760514
2093.76, 0.760282
2094.61, 0.759411
2095.45, 0.758539
2096.3, 0.758307
2097.15, 0.758075
2098.0, 0.757378
2098.85, 0.757204
2099.7, 0.756913
2100.55, 0.756391
2101.4, 0.755577
2102.25, 0.755403
2103.1, 0.755461
2103.96, 0.755055
2104.81, 0.754125
2105.67, 0.753661
2106.52, 0.752906
2107.38, 0.752499
2108.24, 0.751860
2109.09, 0.751454
2109.95, 0.751221
2110.81, 0.751279
2111.67, 0.751163
2112.53, 0.751047
2113.39, 0.750873
2114.25, 0.750640
2115.12, 0.750408
2115.98, 0.750408
2116.84, 0.750176
2117.71, 0.749943
2118.58, 0.749711
2119.44, 0.749247
2120.31, 0.748840
2121.18, 0.748898
2122.04, 0.748782
2122.91, 0.748550
2123.78, 0.748433
2124.65, 0.748956
2125.52, 0.749014
2126.4, 0.748956
2127.27, 0.749305
2128.14, 0.749479
2129.02, 0.749130
2129.89, 0.749247
2130.77, 0.748956
2131.64, 0.748608
2132.52, 0.748491
2133.4, 0.749014
2134.27, 0.749014
2135.15, 0.748956
2136.03, 0.748956
2136.91, 0.748956
2137.79, 0.748724
2138.68, 0.748259
2139.56, 0.747562
2140.44, 0.747853
2141.33, 0.748433
2142.21, 0.748724
2143.1, 0.748027
2143.99, 0.747795
2144.87, 0.747388
2145.76, 0.746981
2146.65, 0.746807
2147.54, 0.746807
2148.43, 0.746691
2149.32, 0.746284
2150.21, 0.746226
2151.1, 0.745936
2151.99, 0.745007
2152.89, 0.744542
2153.78, 0.744368
2154.68, 0.744077
2155.57, 0.743322
2156.47, 0.742916
2157.37, 0.742509
2158.27, 0.741928
2159.16, 0.740941
2160.06, 0.740012
2160.96, 0.739373
2161.86, 0.738850
2162.77, 0.738095
2163.67, 0.737282
2164.57, 0.736004
2165.48, 0.735133
2166.38, 0.734262
2167.29, 0.732984
2168.2, 0.731648
2169.1, 0.730254
2170.01, 0.729150
2170.92, 0.727931
2171.83, 0.726072
2172.74, 0.724388
2173.65, 0.722994
2174.56, 0.721019
2175.47, 0.718986
2176.39, 0.717186
2177.3, 0.715269
2178.22, 0.713178
2179.13, 0.710739
2180.05, 0.708474
2180.96, 0.705744
2181.88, 0.703072
2182.8, 0.700749
2183.72, 0.698890
2184.64, 0.696160
2185.56, 0.693547
2186.48, 0.690701
2187.41, 0.687739
2188.33, 0.684486
2189.25, 0.682047
2190.18, 0.679433
2191.1, 0.676355
2192.03, 0.673857
2192.96, 0.671650
2193.89, 0.669095
2194.82, 0.667236
2195.74, 0.664913
2196.68, 0.662880
2197.61, 0.661196
2198.54, 0.659743
2199.47, 0.657769
2200.4, 0.656549
2201.34, 0.655968
2202.28, 0.655213
2203.21, 0.654168
2204.15, 0.653297
2205.08, 0.652425
2206.02, 0.651322
2206.96, 0.650915
2207.9, 0.650799
2208.84, 0.650334
2209.78, 0.650044
2210.73, 0.649870
2211.67, 0.649405
2212.61, 0.648824
2213.56, 0.648766
2214.5, 0.648476
2215.45, 0.648998
2216.4, 0.649347
2217.35, 0.649289
2218.3, 0.649405
2219.24, 0.650509
2220.2, 0.651089
2221.15, 0.651670
2222.1, 0.652251
2223.05, 0.652832
2224.0, 0.653645
2224.96, 0.654865
2225.91, 0.655445
2226.87, 0.655562
2227.83, 0.656084
2228.79, 0.656839
2229.74, 0.656839
2230.7, 0.657130
2231.66, 0.658001
2232.63, 0.659047
2233.59, 0.659976
2234.55, 0.661196
2235.51, 0.663170
2236.48, 0.665145
2237.44, 0.666771
2238.41, 0.668746
2239.38, 0.671592
2240.34, 0.673160
2241.31, 0.675135
2242.28, 0.677981
2243.25, 0.680072
2244.22, 0.682047
2245.19, 0.684021
2246.17, 0.685996
2247.14, 0.687681
2248.12, 0.689655
2249.09, 0.691630
2250.07, 0.693256
2251.04, 0.694244
2252.02, 0.695057
2253.0, 0.696044
2253.98, 0.697090
2254.96, 0.698193
2255.94, 0.699122
2256.92, 0.699761
2257.91, 0.700458
2258.89, 0.700807
2259.88, 0.701271
2260.86, 0.701736
2261.85, 0.702143
2262.83, 0.702375
2263.82, 0.702491
2264.81, 0.702143
2265.8, 0.701968
2266.79, 0.702027
2267.78, 0.700981
2268.78, 0.699994
2269.77, 0.699587
2270.76, 0.698193
2271.76, 0.696741
2272.75, 0.695463
2273.75, 0.694128
2274.75, 0.692559
2275.75, 0.691049
2276.75, 0.689888
2277.75, 0.688784
2278.75, 0.687622
2279.75, 0.686984
2280.75, 0.685938
2281.76, 0.685299
2282.76, 0.684428
2283.77, 0.684080
2284.77, 0.683905
2285.78, 0.684370
2286.79, 0.684602
2287.8, 0.684254
2288.81, 0.683441
2289.82, 0.683441
2290.83, 0.682976
2291.84, 0.682395
2292.86, 0.682453
2293.87, 0.682860
2294.89, 0.683092
2295.91, 0.683150
2296.92, 0.682918
2297.94, 0.683150
2298.96, 0.683789
2299.98, 0.685009
2301.0, 0.686228
2302.02, 0.687332
2303.04, 0.688087
2304.07, 0.688958
2305.09, 0.689888
2306.12, 0.689946
2307.15, 0.689539
2308.17, 0.689365
2309.2, 0.688436
2310.23, 0.686984
2311.26, 0.685183
2312.29, 0.683441
2313.32, 0.681292
2314.35, 0.678271
2315.39, 0.674787
2316.42, 0.670663
2317.46, 0.666016
2318.5, 0.660905
2319.53, 0.654981
2320.57, 0.648940
2321.61, 0.642377
2322.65, 0.635291
2323.69, 0.628322
2324.73, 0.621410
2325.78, 0.614847
2326.82, 0.609271
2327.86, 0.604044
2328.91, 0.599630
2329.96, 0.595448
2331.01, 0.591266
2332.05, 0.588130
2333.1, 0.585516
2334.15, 0.583483
2335.21, 0.581392
2336.26, 0.579592
2337.31, 0.578778
2338.36, 0.578430
2339.42, 0.577617
2340.48, 0.576281
2341.53, 0.574945
2342.59, 0.573783
2343.65, 0.572331
2344.71, 0.570531
2345.77, 0.569021
2346.83, 0.567801
2347.9, 0.565768
2348.96, 0.563387
2350.02, 0.561354
2351.09, 0.558798
2352.16, 0.556127
2353.23, 0.553629
2354.29, 0.551887
2355.36, 0.551074
2356.43, 0.550841
2357.51, 0.550493
2358.58, 0.550319
2359.65, 0.551132
2360.73, 0.552526
2361.8, 0.554036
2362.88, 0.555836
2363.96, 0.557927
2365.03, 0.560948
2366.11, 0.564665
2367.19, 0.569021
2368.27, 0.573377
2369.36, 0.577559
2370.44, 0.581102
2371.53, 0.584238
2372.61, 0.586736
2373.7, 0.588478
2374.78, 0.589814
2375.87, 0.590801
2376.96, 0.591382
2378.05, 0.592253
2379.14, 0.592718
2380.24, 0.592311
2381.33, 0.591789
2382.42, 0.591789
2383.52, 0.592079
2384.61, 0.591905
2385.71, 0.591382
2386.81, 0.591440
2387.91, 0.591847
2389.01, 0.592718
2390.11, 0.593589
2391.22, 0.594635
2392.32, 0.595738
2393.42, 0.597132
2394.53, 0.599339
2395.64, 0.601314
2396.74, 0.603289
2397.85, 0.605554
2398.96, 0.607412
2400.07, 0.609445
2401.18, 0.611188
2402.3, 0.612407
2403.41, 0.613627
2404.52, 0.614673
2405.64, 0.615195
2406.76, 0.616008
2407.88, 0.616647
2408.99, 0.616996
2410.11, 0.617635
2411.23, 0.617925
2412.36, 0.618448
2413.48, 0.619087
2414.6, 0.619609
2415.73, 0.620132
2416.85, 0.620364
2417.98, 0.620771
2419.11, 0.621468
2420.24, 0.621933
2421.37, 0.622223
2422.5, 0.622455
2423.64, 0.622572
2424.77, 0.622746
2425.9, 0.623036
2427.04, 0.623385
2428.18, 0.623210
2429.31, 0.622920
2430.45, 0.623036
2431.59, 0.622920
2432.73, 0.622920
2433.88, 0.622804
2435.02, 0.622978
2436.16, 0.623501
2437.31, 0.623907
2438.45, 0.624024
2439.6, 0.624140
2440.75, 0.624372
2441.9, 0.624721
2443.05, 0.624662
2444.2, 0.624372
2445.35, 0.624256
2446.51, 0.624198
2447.67, 0.623907
2448.82, 0.623327
2449.98, 0.622978
2451.14, 0.622746
2452.3, 0.622920
2453.46, 0.622804
2454.62, 0.621875
2455.78, 0.621120
2456.94, 0.621236
2458.11, 0.621062
2459.28, 0.620771
2460.44, 0.620481
2461.61, 0.620248
2462.78, 0.619900
2463.95, 0.618912
2465.12, 0.618099
2466.3, 0.617518
2467.47, 0.616996
2468.65, 0.616473
2469.82, 0.615834
2471.0, 0.615137
2472.18, 0.614731
2473.36, 0.614556
2474.54, 0.614614
2475.72, 0.614673
2476.9, 0.614673
2478.08, 0.614905
2479.27, 0.615253
2480.46, 0.616125
2481.64, 0.616938
2482.83, 0.617344
2484.02, 0.617751
2485.21, 0.617925
2486.4, 0.618274
2487.6, 0.618912
2488.79, 0.619319
2489.99, 0.619726
2491.18, 0.619551
2492.38, 0.619958
2493.58, 0.619726
2494.78, 0.619551
2495.98, 0.619726
2497.18, 0.619842
2498.39, 0.619900
2499.59, 0.619842
2500.8, 0.619842
2502.01, 0.619958
2503.21, 0.619842
2504.42, 0.619726
2505.63, 0.619784
2506.84, 0.619726
2508.06, 0.619609
2509.27, 0.619551
2510.49, 0.619319
2511.7, 0.618854
2512.92, 0.618216
2514.14, 0.617518
2515.36, 0.616357
2516.58, 0.615369
2517.8, 0.613801
2519.03, 0.612175
2520.25, 0.610665
2521.48, 0.609213
2522.7, 0.607529
2523.93, 0.605960
2525.16, 0.604857
2526.39, 0.603695
2527.62, 0.603231
2528.86, 0.602998
2530.09, 0.603114
2531.33, 0.603172
2532.56, 0.603463
2533.8, 0.603928
2535.04, 0.604044
2536.28, 0.604799
2537.52, 0.606077
2538.76, 0.607354
2540.01, 0.608051
2541.25, 0.608458
2542.5, 0.608226
2543.75, 0.608574
2544.99, 0.609039
2546.24, 0.609097
2547.49, 0.608922
2548.75, 0.608864
2550.0, 0.608167
2551.26, 0.607296
2552.51, 0.606193
2553.77, 0.606077
2555.03, 0.606193
2556.29, 0.605902
2557.55, 0.605438
2558.81, 0.604857
2560.08, 0.603289
2561.34, 0.601488
2562.61, 0.600443
2563.88, 0.600094
2565.14, 0.600559
2566.41, 0.601082
2567.68, 0.599978
2568.96, 0.598236
2570.23, 0.597481
2571.51, 0.597481
2572.78, 0.595622
2574.06, 0.595448
2575.34, 0.596319
2576.62, 0.596261
2577.9, 0.597422
2579.18, 0.598875
2580.47, 0.598642
2581.75, 0.598991
2583.04, 0.598061
2584.32, 0.598177
2585.61, 0.599513
2586.9, 0.599513
2588.2, 0.599862
2589.49, 0.601198
2590.78, 0.601837
2592.08, 0.601314
2593.37, 0.597190
2594.67, 0.593008
2595.97, 0.594983
2597.27, 0.598410
2598.57, 0.599397
2599.88, 0.598700
2601.18, 0.596900
2602.49, 0.595448
2603.79, 0.593589
2605.1, 0.591789
2606.41, 0.592137
2607.72, 0.593647
2609.03, 0.594112
2610.35, 0.594693
2611.66, 0.595215
2612.98, 0.595332
2614.3, 0.595622
2615.62, 0.594576
2616.94, 0.594286
2618.26, 0.596784
2619.58, 0.597422
2620.91, 0.598816
2622.23, 0.602301
2623.56, 0.604566
2624.89, 0.604741
2626.22, 0.603811
2627.55, 0.605031
2628.88, 0.605786
2630.21, 0.605205
2631.55, 0.607819
2632.89, 0.609910
2634.22, 0.611246
2635.56, 0.613104
2636.9, 0.614614
2638.25, 0.615369
2639.59, 0.615834
2640.93, 0.615428
2642.28, 0.615253
2643.63, 0.615021
2644.98, 0.613917
2646.33, 0.613395
2647.68, 0.613511
2649.03, 0.612582
2650.39, 0.610723
2651.74, 0.607819
2653.1, 0.605902
2654.46, 0.604392
2655.82, 0.602417
2657.18, 0.600849
2658.54, 0.598177
2659.9, 0.595332
2661.27, 0.593473
2662.64, 0.591382
2664.01, 0.587258
2665.38, 0.582496
2666.74, 0.579882
2668.12, 0.579243
2669.49, 0.575526
2670.87, 0.572273
2672.24, 0.573086
2673.62, 0.572157
2675.0, 0.568382
2676.38, 0.563677
2677.76, 0.561064
2679.15, 0.558740
2680.54, 0.557346
2681.92, 0.554791
2683.31, 0.550725
2684.7, 0.546311
2686.09, 0.542071
2687.48, 0.537425
2688.88, 0.532313
2690.27, 0.526215
2691.67, 0.519013
2693.07, 0.509546
2694.47, 0.500427
2695.87, 0.492818
2697.27, 0.486023
2698.67, 0.478414
2700.08, 0.469412
2701.49, 0.460177
2702.9, 0.452045
2704.31, 0.442752
2705.72, 0.432240
2707.13, 0.420217
2708.54, 0.406452
2709.96, 0.391409
2711.38, 0.377179
2712.8, 0.364575
2714.22, 0.351623
2715.64, 0.337219
2717.06, 0.321769
2718.49, 0.306088
2719.91, 0.290173
2721.34, 0.275769
2722.77, 0.263107
2724.2, 0.249575
2725.63, 0.237842
2727.07, 0.227562
2728.5, 0.217920
2729.94, 0.209034
2731.38, 0.201425
2732.82, 0.194514
2734.26, 0.188067
2735.7, 0.183072
2737.15, 0.178774
2738.59, 0.173546
2740.04, 0.168726
2741.49, 0.164950
2742.94, 0.161988
2744.39, 0.159317
2745.84, 0.156819
2747.3, 0.154612
2748.76, 0.152637
2750.21, 0.150372
2751.67, 0.147933
2753.14, 0.145377
2754.6, 0.143054
2756.06, 0.142299
2757.53, 0.142821
2759.0, 0.143460
2760.46, 0.144390
2761.94, 0.145667
2763.41, 0.147700
2764.88, 0.150488
2766.36, 0.153450
2767.83, 0.156645
2769.31, 0.160420
2770.79, 0.164718
2772.27, 0.169887
2773.76, 0.175637
2775.24, 0.181736
2776.73, 0.188299
2778.22, 0.195211
2779.71, 0.202529
2781.2, 0.210196
2782.69, 0.218443
2784.18, 0.226807
2785.68, 0.235112
2787.18, 0.243825
2788.68, 0.253234
2790.18, 0.262469
2791.68, 0.270774
2793.19, 0.278383
2794.69, 0.285527
2796.2, 0.292032
2797.71, 0.297433
2799.22, 0.301790
2800.73, 0.304868
2802.24, 0.306959
2803.76, 0.309572
2805.28, 0.312593
2806.8, 0.314567
2808.32, 0.315729
2809.84, 0.316368
2811.36, 0.316600
2812.89, 0.316600
2814.42, 0.315903
2815.94, 0.314974
2817.48, 0.314161
2819.01, 0.313173
2820.54, 0.311779
2822.08, 0.310676
2823.61, 0.309340
2825.15, 0.308004
2826.69, 0.306552
2828.23, 0.304694
2829.78, 0.302603
2831.32, 0.299873
2832.87, 0.296620
2834.42, 0.293252
2835.97, 0.288954
2837.52, 0.283668
2839.08, 0.277512
2840.63, 0.270135
2842.19, 0.262236
2843.75, 0.254744
2845.31, 0.247135
2846.87, 0.239410
2848.44, 0.231628
2850.0, 0.224251
2851.57, 0.217514
2853.14, 0.210544
2854.71, 0.203052
2856.28, 0.194746
2857.86, 0.185279
2859.43, 0.175289
2861.01, 0.166170
2862.59, 0.160130
2864.17, 0.158561
2865.76, 0.160594
2867.34, 0.163034
2868.93, 0.163673
2870.52, 0.163324
2872.11, 0.163673
2873.7, 0.166635
2875.29, 0.172559
2876.89, 0.180458
2878.49, 0.188357
2880.08, 0.195443
2881.69, 0.202180
2883.29, 0.208744
2884.89, 0.215074
2886.5, 0.221696
2888.11, 0.228259
2889.72, 0.234299
2891.33, 0.240049
2892.94, 0.246032
2894.56, 0.252362
2896.17, 0.258577
2897.79, 0.264327
2899.42, 0.269845
2901.04, 0.275130
2902.66, 0.279893
2904.29, 0.284365
2905.92, 0.288431
2907.55, 0.292032
2909.18, 0.295517
2910.81, 0.298653
2912.45, 0.301034
2914.08, 0.303183
2915.72, 0.305391
2917.36, 0.307075
2919.01, 0.308643
2920.65, 0.310037
2922.3, 0.311431
2923.94, 0.312883
2925.59, 0.313870
2927.25, 0.314509
2928.9, 0.315090
2930.56, 0.315497
2932.21, 0.315961
2933.87, 0.315961
2935.53, 0.315903
2937.2, 0.315787
2938.86, 0.315497
2940.53, 0.315206
2942.2, 0.314858
2943.87, 0.314509
2945.54, 0.313987
2947.22, 0.313522
2948.89, 0.313522
2950.57, 0.313464
2952.25, 0.313348
2953.93, 0.313406
2955.62, 0.313696
2957.3, 0.313928
2958.99, 0.313928
2960.68, 0.314161
2962.37, 0.314625
2964.07, 0.315032
2965.76, 0.315439
2967.46, 0.315787
2969.16, 0.316019
2970.86, 0.316252
2972.56, 0.316600
2974.27, 0.316891
2975.98, 0.316949
2977.69, 0.317123
2979.4, 0.317355
2981.11, 0.317704
2982.83, 0.317994
2984.54, 0.318110
2986.26, 0.318226
2987.98, 0.318285
2989.71, 0.318401
2991.43, 0.318633
2993.16, 0.318865
2994.89, 0.319040
2996.62, 0.319330
2998.35, 0.319679
3000.09, 0.319969
3001.83, 0.320201
3003.57, 0.320317
3005.31, 0.320434
3007.05, 0.321014
3008.79, 0.321421
3010.54, 0.321595
3012.29, 0.321828
3014.04, 0.322176
3015.8, 0.322292
3017.55, 0.322466
3019.31, 0.322583
3021.07, 0.322583
3022.83, 0.322524
3024.59, 0.322466
3026.36, 0.322757
3028.13, 0.322815
3029.9, 0.322989
3031.67, 0.323454
3033.44, 0.323860
3035.22, 0.324151
3037.0, 0.324499
3038.78, 0.325022
3040.56, 0.325719
3042.34, 0.326474
3044.13, 0.327287
3045.92, 0.328158
3047.71, 0.329088
3049.5, 0.330017
3051.3, 0.331004
3053.09, 0.332108
3054.89, 0.333270
3056.69, 0.334431
3058.5, 0.335767
3060.3, 0.336929
3062.11, 0.338148
3063.92, 0.339426
3065.73, 0.340472
3067.55, 0.341691
3069.36, 0.343085
3071.18, 0.344421
3073.0, 0.345583
3074.82, 0.346512
3076.65, 0.347383
3078.48, 0.348429
3080.31, 0.349474
3082.14, 0.350345
3083.97, 0.351158
3085.8, 0.351972
3087.64, 0.352785
3089.48, 0.353714
3091.33, 0.354643
3093.17, 0.355340
3095.02, 0.356037
3096.87, 0.356909
3098.72, 0.357722
3100.57, 0.358477
3102.43, 0.358941
3104.28, 0.359522
3106.14, 0.360393
3108.01, 0.361090
3109.87, 0.361845
3111.74, 0.362542
3113.61, 0.363239
3115.48, 0.364053
3117.35, 0.365040
3119.23, 0.365795
3121.1, 0.366550
3122.98, 0.367479
3124.87, 0.368351
3126.75, 0.369106
3128.64, 0.369977
3130.53, 0.370906
3132.42, 0.371719
3134.31, 0.372474
3136.21, 0.373113
3138.11, 0.373752
3140.01, 0.374333
3141.91, 0.374972
3143.82, 0.375785
3145.73, 0.376366
3147.64, 0.376888
3149.55, 0.377469
3151.46, 0.378108
3153.38, 0.378515
3155.3, 0.378921
3157.22, 0.379618
3159.14, 0.380257
3161.07, 0.380664
3163.0, 0.380896
3164.93, 0.381186
3166.86, 0.381593
3168.8, 0.381941
3170.74, 0.382174
3172.68, 0.382232
3174.62, 0.382406
3176.56, 0.382755
3178.51, 0.382697
3180.46, 0.382638
3182.42, 0.382755
3184.37, 0.382813
3186.33, 0.382871
3188.29, 0.383045
3190.25, 0.383335
3192.21, 0.383393
3194.18, 0.383219
3196.15, 0.383335
3198.12, 0.383452
3200.09, 0.383277
3202.07, 0.383103
3204.05, 0.383045
3206.03, 0.382638
3208.02, 0.382348
3210.0, 0.381825
3211.99, 0.381186
3213.98, 0.380489
3215.98, 0.379909
3217.97, 0.379386
3219.97, 0.378747
3221.97, 0.378166
3223.98, 0.377469
3225.98, 0.376830
3227.99, 0.376366
3230.0, 0.375959
3232.02, 0.375785
3234.03, 0.375727
3236.05, 0.375727
3238.07, 0.376133
3240.1, 0.376656
3242.12, 0.377469
3244.15, 0.378282
3246.18, 0.379154
3248.22, 0.380315
3250.25, 0.381593
3252.29, 0.382755
3254.33, 0.383916
3256.38, 0.385194
3258.43, 0.386239
3260.47, 0.387111
3262.53, 0.387924
3264.58, 0.388621
3266.64, 0.389318
3268.7, 0.389899
3270.76, 0.390189
3272.82, 0.390247
3274.89, 0.390247
3276.96, 0.390131
3279.04, 0.389724
3281.11, 0.389144
3283.19, 0.388795
3285.27, 0.388737
3287.35, 0.388621
3289.44, 0.388330
3291.53, 0.388098
3293.62, 0.388214
3295.71, 0.388272
3297.81, 0.388563
3299.91, 0.389027
3302.01, 0.389724
3304.11, 0.390479
3306.22, 0.391351
3308.33, 0.392164
3310.44, 0.392919
3312.56, 0.393964
3314.68, 0.394835
3316.8, 0.395707
3318.92, 0.396752
3321.05, 0.397565
3323.18, 0.398378
3325.31, 0.399133
3327.44, 0.399830
3329.58, 0.400644
3331.72, 0.401457
3333.86, 0.402212
3336.01, 0.402851
3338.16, 0.403141
3340.31, 0.403141
3342.46, 0.402909
3344.61, 0.402502
3346.77, 0.401979
3348.94, 0.401631
3351.1, 0.401457
3353.27, 0.401457
3355.44, 0.401515
3357.61, 0.401863
3359.79, 0.401921
3361.97, 0.401573
3364.15, 0.401224
3366.33, 0.400818
3368.52, 0.400005
3370.71, 0.398959
3372.9, 0.397914
3375.1, 0.396868
3377.3, 0.395765
3379.5, 0.394545
3381.71, 0.393383
3383.91, 0.392222
3386.12, 0.391234
3388.34, 0.390247
3390.55, 0.389376
3392.77, 0.388505
3394.99, 0.387808
3397.22, 0.387517
3399.45, 0.387750
3401.68, 0.388040
3403.91, 0.388795
3406.15, 0.390131
3408.39, 0.391815
3410.63, 0.393848
3412.87, 0.396578
3415.12, 0.399889
3417.37, 0.403606
3419.63, 0.407555
3421.88, 0.411621
3424.14, 0.415977
3426.41, 0.420391
3428.67, 0.424805
3430.94, 0.428755
3433.21, 0.432472
3435.49, 0.435957
3437.77, 0.439035
3440.05, 0.441765
3442.33, 0.444263
3444.62, 0.446702
3446.91, 0.448677
3449.2, 0.450361
3451.5, 0.452045
3453.8, 0.453381
3456.1, 0.454369
3458.41, 0.455124
3460.72, 0.455763
3463.03, 0.455821
3465.34, 0.455414
3467.66, 0.454485
3469.98, 0.453091
3472.31, 0.451639
3474.63, 0.450477
3476.96, 0.449780
3479.3, 0.449606
3481.64, 0.449896
3483.97, 0.450187
3486.32, 0.450419
3488.66, 0.451000
3491.01, 0.451465
3493.36, 0.451697
3495.72, 0.451929
3498.08, 0.452278
3500.44, 0.452626
3502.81, 0.453091
3505.18, 0.453788
3507.55, 0.454833
3509.92, 0.456227
3512.3, 0.457679
3514.68, 0.459015
3517.06, 0.460583
3519.45, 0.462151
3521.84, 0.463720
3524.24, 0.465114
3526.64, 0.466566
3529.04, 0.467960
3531.44, 0.469296
3533.85, 0.470573
3536.26, 0.471677
3538.67, 0.472838
3541.09, 0.474349
3543.51, 0.475801
3545.93, 0.477311
3548.36, 0.478937
3550.79, 0.480737
3553.22, 0.482364
3555.66, 0.484164
3558.1, 0.486139
3560.54, 0.488172
3562.99, 0.490205
3565.44, 0.492121
3567.9, 0.493980
3570.35, 0.495897
3572.81, 0.497639
3575.28, 0.499498
3577.75, 0.501472
3580.22, 0.503215
3582.69, 0.504783
3585.17, 0.506525
3587.65, 0.508036
3590.14, 0.509430
3592.62, 0.510824
3595.11, 0.512217
3597.61, 0.513437
3600.11, 0.514599
3602.61, 0.515818
3605.11, 0.517096
3607.62, 0.518200
3610.14, 0.519303
3612.65, 0.520233
3615.17, 0.521220
3617.69, 0.522149
3620.22, 0.523137
3622.75, 0.524008
3625.28, 0.524763
3627.82, 0.525518
3630.36, 0.526273
3632.9, 0.526796
3635.45, 0.527319
3638.0, 0.527899
3640.56, 0.528422
3643.12, 0.528887
3645.68, 0.529293
3648.24, 0.529584
3650.81, 0.529990
3653.39, 0.530339
3655.96, 0.530629
3658.54, 0.531152
3661.13, 0.531733
3663.71, 0.532313
3666.3, 0.533069
3668.9, 0.533707
3671.5, 0.534288
3674.1, 0.534927
3676.7, 0.535508
3679.31, 0.536089
3681.93, 0.536902
3684.54, 0.537657
3687.17, 0.538354
3689.79, 0.539167
3692.42, 0.539980
3695.05, 0.540677
3697.69, 0.541374
3700.32, 0.542071
3702.97, 0.542826
3705.61, 0.543349
3708.27, 0.543697
3710.92, 0.544104
3713.58, 0.544452
3716.24, 0.544627
3718.91, 0.544743
3721.58, 0.544627
3724.25, 0.544452
3726.93, 0.544162
3729.61, 0.543930
3732.29, 0.543697
3734.98, 0.543581
3737.67, 0.543291
3740.37, 0.543117
3743.07, 0.542826
3745.78, 0.542304
3748.49, 0.541723
3751.2, 0.541142
3753.91, 0.540329
3756.63, 0.539399
3759.36, 0.538122
3762.09, 0.536728
3764.82, 0.535043
3767.55, 0.532952
3770.29, 0.530513
3773.04, 0.527899
3775.78, 0.524647
3778.54, 0.520988
3781.29, 0.516690
3784.05, 0.511579
3786.82, 0.505654
3789.59, 0.498859
3792.36, 0.491192
3795.13, 0.482770
3797.92, 0.473652
3800.7, 0.464010
3803.49, 0.454136
3806.28, 0.444437
3809.08, 0.435028
3811.88, 0.426199
3814.68, 0.418068
3817.49, 0.411156
3820.31, 0.405464
3823.12, 0.401224
3825.94, 0.398320
3828.77, 0.396926
3831.6, 0.396926
3834.43, 0.398437
3837.27, 0.401224
3840.11, 0.405116
3842.96, 0.409820
3845.81, 0.415570
3848.67, 0.421669
3851.53, 0.427942
3854.39, 0.433982
3857.26, 0.439674
3860.13, 0.444785
3863.01, 0.449257
3865.89, 0.452859
3868.77, 0.455646
3871.66, 0.458202
3874.55, 0.460467
3877.45, 0.461977
3880.35, 0.463023
3883.26, 0.463894
3886.17, 0.464242
3889.09, 0.463081
3892.01, 0.460061
3894.93, 0.455240
3897.86, 0.449490
3900.79, 0.443566
3903.73, 0.437816
3906.67, 0.433053
3909.62, 0.431601
3912.57, 0.435260
3915.52, 0.442172
3918.48, 0.448967
3921.45, 0.453962
3924.42, 0.456866
3927.39, 0.458144
3930.37, 0.458318
3933.35, 0.458028
3936.34, 0.457157
3939.33, 0.455240
3942.32, 0.452162
3945.32, 0.448502
3948.33, 0.444379
3951.34, 0.439965
3954.35, 0.434970
3957.37, 0.429917
3960.39, 0.425038
3963.42, 0.420217
3966.45, 0.415687
3969.49, 0.411795
3972.53, 0.408252
3975.58, 0.405000
3978.63, 0.402444
3981.68, 0.400818
3984.75, 0.400179
3987.81, 0.400818
3990.88, 0.402560
3993.95, 0.405232
3997.03, 0.408485
4000.12, 0.412260
4003.21, 0.416384
4006.3, 0.420856
4009.4, 0.425618
4012.5, 0.430439
4015.61, 0.434853
4018.72, 0.439093
4021.84, 0.443333
4024.96, 0.447515
4028.09, 0.451755
4031.22, 0.456169
4034.36, 0.460816
4037.5, 0.465462
4040.65, 0.469992
4043.8, 0.474465
4046.96, 0.478821
4050.12, 0.483235
4053.29, 0.487301
4056.46, 0.491192
4059.64, 0.494851
4062.82, 0.498336
4066.0, 0.501705
4069.19, 0.504957
4072.39, 0.507977
4075.59, 0.510765
4078.8, 0.513379
4082.01, 0.515760
4085.23, 0.517909
4088.45, 0.519826
4091.68, 0.521510
4094.91, 0.523137
4098.15, 0.524763
4101.39, 0.526331
4104.63, 0.527783
4107.89, 0.529177
4111.14, 0.530629
4114.41, 0.532139
4117.67, 0.533475
4120.95, 0.534637
4124.23, 0.535856
4127.51, 0.537134
4130.8, 0.538238
4134.09, 0.539225
4137.39, 0.540038
4140.7, 0.540793
4144.01, 0.541316
4147.32, 0.541897
4150.64, 0.542245
4153.97, 0.542420
4157.3, 0.542594
4160.64, 0.542710
4163.98, 0.542652
4167.33, 0.542594
4170.68, 0.542362
4174.04, 0.542071
4177.4, 0.541723
4180.77, 0.541374
4184.14, 0.540851
4187.52, 0.540329
4190.91, 0.539748
4194.3, 0.539051
4197.69, 0.538005
4201.1, 0.536786
4204.5, 0.535276
4207.92, 0.533475
4211.34, 0.531558
4214.76, 0.529642
4218.19, 0.527725
4221.62, 0.525925
4225.06, 0.524240
4228.51, 0.522962
4231.96, 0.521917
4235.42, 0.521162
4238.88, 0.520813
4242.35, 0.520988
4245.83, 0.521510
4249.31, 0.522440
4252.79, 0.523834
4256.28, 0.524647
4259.78, 0.523195
4263.29, 0.520755
4266.79, 0.519013
4270.31, 0.517851
4273.83, 0.516922
4277.35, 0.516283
4280.89, 0.515818
4284.42, 0.515412
4287.97, 0.514831
4291.52, 0.514541
4295.07, 0.514366
4298.63, 0.514250
4302.2, 0.514018
4305.78, 0.513960
4309.35, 0.513844
4312.94, 0.513728
4316.53, 0.513611
4320.13, 0.513495
4323.73, 0.513147
4327.34, 0.512740
4330.96, 0.512276
4334.58, 0.511753
4338.21, 0.511056
4341.84, 0.510243
4345.48, 0.509371
4349.12, 0.508500
4352.77, 0.507687
4356.43, 0.506816
4360.1, 0.505945
4363.76, 0.505306
4367.44, 0.504609
4371.12, 0.504028
4374.81, 0.503447
4378.51, 0.502925
4382.21, 0.502344
4385.92, 0.501705
4389.63, 0.501240
4393.35, 0.500834
4397.08, 0.500195
4400.81, 0.499556
4404.55, 0.499091
4408.29, 0.498568
4412.04, 0.497929
4415.8, 0.497407
4419.57, 0.496768
4423.34, 0.496129
4427.12, 0.495316
4430.9, 0.494561
4434.69, 0.493864
4438.49, 0.493051
4442.29, 0.492238
4446.1, 0.491366
4449.92, 0.490321
4453.74, 0.489275
4457.57, 0.488114
4461.41, 0.486952
4465.25, 0.485616
4469.1, 0.484280
4472.95, 0.482945
4476.82, 0.481609
4480.69, 0.480215
4484.56, 0.478879
4488.44, 0.477311
4492.33, 0.475743
4496.23, 0.474174
4500.13, 0.472664
4504.04, 0.471038
4507.96, 0.469296
4511.88, 0.467495
4515.81, 0.465520
4519.75, 0.463429
4523.69, 0.461222
4527.65, 0.458783
4531.6, 0.456343
4535.57, 0.453730
4539.54, 0.451058
4543.52, 0.448444
4547.5, 0.445947
4551.5, 0.443624
4555.5, 0.441707
4559.5, 0.440197
4563.52, 0.438977
4567.54, 0.437932
4571.56, 0.437293
4575.6, 0.436886
4579.64, 0.436422
4583.69, 0.435783
4587.75, 0.435202
4591.81, 0.434447
4595.88, 0.433517
4599.96, 0.432472
4604.04, 0.431310
4608.14, 0.430149
4612.24, 0.428929
4616.34, 0.427767
4620.46, 0.426548
4624.58, 0.425328
4628.71, 0.424108
4632.84, 0.422947
4636.99, 0.421785
4641.14, 0.420449
4645.3, 0.419113
4649.47, 0.417719
4653.64, 0.416325
4657.82, 0.414815
4662.01, 0.413247
4666.21, 0.411563
4670.41, 0.410053
4674.62, 0.408485
4678.84, 0.406916
4683.07, 0.405290
4687.3, 0.403664
4691.54, 0.401979
4695.79, 0.400469
4700.05, 0.398901
4704.31, 0.397449
4708.59, 0.395881
4712.87, 0.394313
4717.15, 0.392745
4721.45, 0.391351
4725.76, 0.389782
4730.07, 0.388272
4734.39, 0.386704
4738.72, 0.385194
4743.05, 0.383568
4747.39, 0.382058
4751.75, 0.380431
4756.1, 0.378747
4760.47, 0.377179
4764.85, 0.375843
4769.23, 0.374739
4773.62, 0.373578
4778.02, 0.372648
4782.43, 0.371952
4786.85, 0.371313
4791.27, 0.370674
4795.7, 0.370035
4800.14, 0.369396
4804.59, 0.368757
4809.05, 0.368176
4813.51, 0.367421
4817.99, 0.366898
4822.47, 0.366260
4826.96, 0.365679
4831.46, 0.365040
4835.96, 0.364459
4840.48, 0.363646
4845.0, 0.363007
4849.54, 0.362368
4854.08, 0.361497
4858.63, 0.360510
4863.18, 0.359522
4867.75, 0.358477
4872.33, 0.357431
4876.91, 0.356386
4881.5, 0.355282
4886.1, 0.354121
4890.71, 0.352901
4895.33, 0.351681
4899.96, 0.350462
4904.59, 0.349068
4909.24, 0.347732
4913.89, 0.346396
4918.55, 0.344944
4923.22, 0.343434
4927.9, 0.341982
4932.59, 0.340646
4937.29, 0.339310
4942.0, 0.337916
4946.71, 0.336638
4951.44, 0.335418
4956.17, 0.334257
4960.91, 0.333095
4965.67, 0.331934
4970.43, 0.330830
4975.2, 0.329668
4979.98, 0.328623
4984.76, 0.327519
4989.56, 0.326300
4994.37, 0.325080
4999.18, 0.323686
5004.01, 0.322292
5008.84, 0.320782
5013.69, 0.319156
5018.54, 0.317297
5023.4, 0.315845
5028.28, 0.314393
5033.16, 0.312767
5038.05, 0.311141
5042.95, 0.309456
5047.86, 0.307656
5052.78, 0.305913
5057.71, 0.303997
5062.65, 0.302254
5067.6, 0.300570
5072.56, 0.298885
5077.53, 0.297143
5082.5, 0.295343
5087.49, 0.293716
5092.49, 0.292148
5097.5, 0.290638
5102.51, 0.289360
5107.54, 0.288257
5112.58, 0.287443
5117.62, 0.286630
5122.68, 0.285933
5127.75, 0.285236
5132.82, 0.284714
5137.91, 0.284133
5143.01, 0.283552
5148.12, 0.282913
5153.23, 0.282623
5158.36, 0.282216
5163.5, 0.281635
5168.65, 0.281113
5173.81, 0.280706
5178.98, 0.280241
5184.15, 0.279719
5189.34, 0.279196
5194.54, 0.278499
5199.75, 0.277744
5204.98, 0.277105
5210.21, 0.276002
5215.45, 0.275072
5220.7, 0.274375
5225.96, 0.273156
5231.23, 0.271471
5236.52, 0.269729
5241.81, 0.267870
5247.12, 0.265953
5252.44, 0.263921
5257.76, 0.261714
5263.1, 0.259506
5268.45, 0.257357
5273.81, 0.255150
5279.18, 0.253059
5284.56, 0.250969
5289.95, 0.248645
5295.36, 0.246554
5300.77, 0.244522
5306.2, 0.242256
5311.63, 0.239817
5317.08, 0.237203
5322.54, 0.234706
5328.01, 0.232092
5333.49, 0.229420
5338.98, 0.226633
5344.49, 0.223845
5350.0, 0.220999
5355.53, 0.219024
5361.07, 0.217398
5366.62, 0.215713
5372.18, 0.214029
5377.75, 0.212577
5383.34, 0.211357
5388.93, 0.210196
5394.54, 0.209034
5400.16, 0.207930
5405.79, 0.206653
5411.44, 0.205317
5417.09, 0.203574
5422.76, 0.201774
5428.43, 0.201077
5434.12, 0.200089
5439.83, 0.198696
5445.54, 0.197534
5451.26, 0.196547
5457.0, 0.195385
5462.75, 0.194165
5468.52, 0.193584
5474.29, 0.193352
5480.08, 0.193178
5485.88, 0.193120
5491.69, 0.193004
5497.51, 0.192771
5503.35, 0.192365
5509.2, 0.191900
5515.06, 0.191377
5520.93, 0.190680
5526.82, 0.190216
5532.71, 0.189577
5538.63, 0.188531
5544.55, 0.186847
5550.49, 0.184524
5556.44, 0.182200
5562.4, 0.180807
5568.37, 0.179935
5574.36, 0.178716
5580.36, 0.178251
5586.37, 0.179587
5592.4, 0.180516
5598.44, 0.180226
5604.49, 0.178948
5610.56, 0.177147
5616.63, 0.174708
5622.73, 0.172269
5628.83, 0.169887
5634.95, 0.167680
5641.08, 0.165822
5647.23, 0.165473
5653.39, 0.165705
5659.56, 0.165880
5665.74, 0.165996
5671.94, 0.165764
5678.15, 0.165822
5684.38, 0.166170
5690.62, 0.166228
5696.87, 0.166519
5703.14, 0.166344
5709.42, 0.165531
5715.72, 0.165125
5722.03, 0.165008
5728.35, 0.164602
5734.69, 0.163847
5741.03, 0.162976
5747.4, 0.161872
5753.78, 0.161175
5760.17, 0.159665
5766.58, 0.157923
5773.0, 0.157981
5779.44, 0.157806
5785.88, 0.157109
5792.35, 0.156296
5798.83, 0.155367
5805.32, 0.154438
5811.83, 0.153218
5818.35, 0.151417
5824.89, 0.150256
5831.45, 0.149907
5838.01, 0.149675
5844.59, 0.149036
5851.19, 0.147875
5857.8, 0.146539
5864.43, 0.145319
5871.07, 0.144332
5877.73, 0.142531
5884.4, 0.141950
5891.09, 0.142183
5897.79, 0.141428
5904.5, 0.141602
5911.23, 0.141311
5917.98, 0.140382
5924.75, 0.139453
5931.53, 0.137768
5938.32, 0.136433
5945.13, 0.136665
5951.96, 0.136374
5958.8, 0.135736
5965.65, 0.134342
5972.53, 0.133587
5979.42, 0.133238
5986.32, 0.132251
5993.24, 0.131786
6000.18, 0.131960
6007.13, 0.131496
6014.1, 0.130624
6021.08, 0.130276
6028.09, 0.129753
6035.1, 0.128708
6042.14, 0.126617
6049.19, 0.124294
6056.25, 0.124294
6063.34, 0.123945
6070.44, 0.122435
6077.55, 0.121564
6084.69, 0.121331
6091.84, 0.120576
6099.0, 0.119531
6106.19, 0.117963
6113.39, 0.116336
6120.61, 0.116046
6127.84, 0.115872
6135.09, 0.114943
6142.36, 0.113955
6149.65, 0.113142
6156.95, 0.112097
6164.27, 0.111225
6171.61, 0.110586
6178.97, 0.109251
6186.34, 0.107857
6193.73, 0.107276
6201.14, 0.106521
6208.57, 0.105127
6216.01, 0.103791
6223.47, 0.102513
6230.95, 0.101177
6238.45, 0.0996090
6245.97, 0.0980990
6253.5, 0.0965310
6261.06, 0.0949630
6268.63, 0.0932780
6276.21, 0.0915940
6283.82, 0.0897930
6291.45, 0.0879930
6299.1, 0.0861920
6306.76, 0.0843920
6314.44, 0.0824750
6322.14, 0.0805000
6329.86, 0.0784680
6337.6, 0.0763190
6345.35, 0.0739370
6353.13, 0.0721950
6360.92, 0.0702780
6368.74, 0.0678970
6376.57, 0.0657480
6384.43, 0.0637150
6392.3, 0.0614500
6400.19, 0.0593010
6408.1, 0.0566290
6416.03, 0.0543060
6423.98, 0.0531440
6431.95, 0.0518080
6439.94, 0.0504140
6447.95, 0.0491370
6455.98, 0.0477430
6464.03, 0.0465230
6472.1, 0.0450710
6480.19, 0.0436770
6488.31, 0.0422830
6496.44, 0.0415860
6504.59, 0.0414120
6512.76, 0.0412960
6520.95, 0.0411210
6529.16, 0.0416440
6537.4, 0.0421670
6545.65, 0.0425730
6553.92, 0.0430960
6562.22, 0.0436770
6570.54, 0.0439670
6578.88, 0.0447220
6587.23, 0.0455360
6595.61, 0.0462330
6604.02, 0.0469880
6612.44, 0.0475680
6620.89, 0.0479170
6629.35, 0.0480910
6637.84, 0.0482070
6646.35, 0.0488460
6654.88, 0.0493110
6663.44, 0.0490790
6672.01, 0.0486140
6680.61, 0.0483230
6689.23, 0.0482070
6697.88, 0.0479170
6706.54, 0.0473360
6715.23, 0.0469880
6723.94, 0.0468130
6732.67, 0.0466390
6741.42, 0.0465230
6750.2, 0.0462910
6759.0, 0.0460000
6767.82, 0.0456520
6776.67, 0.0453030
6785.54, 0.0448390
6794.44, 0.0444320
6803.35, 0.0443160
6812.29, 0.0440250
6821.26, 0.0435030
6830.24, 0.0430960
6839.25, 0.0428060
6848.29, 0.0422830
6857.35, 0.0415860
6866.43, 0.0411210
6875.54, 0.0411800
6884.67, 0.0410050
6893.82, 0.0405990
6903.0, 0.0401340
6912.2, 0.0397860
6921.43, 0.0393210
6930.69, 0.0388560
6939.96, 0.0383340
6949.27, 0.0374620
6958.59, 0.0365910
6967.95, 0.0361850
6977.33, 0.0360100
6986.73, 0.0358360
6996.16, 0.0358940
7005.61, 0.0362430
7015.09, 0.0367070
7024.6, 0.0374040
7034.13, 0.0381010
7043.69, 0.0387400
7053.27, 0.0395530
7062.88, 0.0403660
7072.52, 0.0412960
7082.18, 0.0422250
7091.87, 0.0430380
7101.58, 0.0439090
7111.32, 0.0445480
7121.09, 0.0451290
7130.88, 0.0459420
7140.71, 0.0468710
7150.56, 0.0479170
7160.43, 0.0490200
7170.33, 0.0501240
7180.27, 0.0514600
7190.23, 0.0526220
7200.21, 0.0534930
7210.23, 0.0544800
7220.27, 0.0556420
7230.34, 0.0567450
7240.44, 0.0578490
7250.56, 0.0590100
7260.72, 0.0601720
7270.9, 0.0614500
7281.12, 0.0627860
7291.36, 0.0641800
7301.63, 0.0654570
7311.93, 0.0666190
7322.25, 0.0675480
7332.61, 0.0681870
7343.0, 0.0687680
7353.41, 0.0693490
7363.86, 0.0697550
7374.33, 0.0698720
7384.83, 0.0698720
7395.37, 0.0697550
7405.93, 0.0695810
7416.53, 0.0694650
7427.15, 0.0692910
7437.81, 0.0689420
7448.5, 0.0684780
7459.22, 0.0681870
7469.96, 0.0678390
7480.74, 0.0672580
7491.55, 0.0666190
7502.39, 0.0659220
7513.27, 0.0651670
7524.17, 0.0643540
7535.11, 0.0633670
7546.08, 0.0623790
7557.08, 0.0611590
7568.11, 0.0601140
7579.17, 0.0589520
7590.27, 0.0577330
7601.4, 0.0564550
7612.56, 0.0551770
7623.76, 0.0540740
7634.98, 0.0529700
7646.24, 0.0518080
7657.54, 0.0504720
7668.87, 0.0491950
7680.23, 0.0480330
7691.62, 0.0469300
7703.05, 0.0457680
7714.51, 0.0446060
7726.01, 0.0435610
7737.54, 0.0424570
7749.11, 0.0412960
7760.71, 0.0401920
7772.35, 0.0390310
7784.02, 0.0379270
7795.72, 0.0367650
7807.46, 0.0357200
7819.23, 0.0345580
7831.04, 0.0332800
7842.89, 0.0321190
7854.77, 0.0310150
7866.69, 0.0299120
7878.65, 0.0288080
7890.64, 0.0275890
7902.67, 0.0264850
7914.74, 0.0254980
7926.84, 0.0245100
7938.98, 0.0236970
7951.16, 0.0226520
7963.37, 0.0216060
7975.62, 0.0207930
7987.91, 0.0198640
8000.24, 0.0189340
8012.6, 0.0181790
8025.01, 0.0175400
8037.45, 0.0169600
8049.93, 0.0163790
8062.45, 0.0157980
8075.01, 0.0153330
8087.61, 0.0150430
8100.24, 0.0148690
8112.91, 0.0147530
8125.63, 0.0148110
8138.39, 0.0150430
8151.18, 0.0156240
8164.02, 0.0164370
8176.9, 0.0174240
8189.81, 0.0189930
8202.77, 0.0210830
8215.77, 0.0234650
8228.82, 0.0264850
8241.9, 0.0300860
8255.02, 0.0336290
8268.19, 0.0371720
8281.39, 0.0405410
8294.65, 0.0436190
8307.94, 0.0460580
8321.28, 0.0481490
8334.66, 0.0499500
8348.08, 0.0512860
8361.54, 0.0521570
8375.05, 0.0526220
8388.6, 0.0527960
8402.2, 0.0529120
8415.84, 0.0527380
8429.52, 0.0523310
8443.25, 0.0521570
8457.02, 0.0520410
8470.84, 0.0519250
8484.7, 0.0522150
8498.61, 0.0530280
8512.57, 0.0541320
8526.57, 0.0554090
8540.62, 0.0565710
8554.71, 0.0576750
8568.85, 0.0585460
8583.04, 0.0590690
8597.27, 0.0593010
8611.55, 0.0591270
8625.88, 0.0586620
8640.26, 0.0583130
8654.68, 0.0581390
8669.16, 0.0580230
8683.68, 0.0581970
8698.25, 0.0588940
8712.87, 0.0599980
8727.53, 0.0615080
8742.25, 0.0635990
8757.02, 0.0659220
8771.83, 0.0684200
8786.7, 0.0708590
8801.62, 0.0732980
8816.59, 0.0759700
8831.61, 0.0791650
8846.68, 0.0825910
8861.8, 0.0860760
8876.97, 0.0896190
8892.2, 0.0929880
8907.48, 0.0959500
8922.81, 0.0986220
8938.2, 0.101003
8953.63, 0.103442
8969.13, 0.105417
8984.67, 0.107160
9000.27, 0.108902
9015.92, 0.110412
9031.63, 0.111806
9047.39, 0.113142
9063.21, 0.114246
9079.08, 0.115175
9095.01, 0.116162
9111.0, 0.117092
9127.04, 0.117789
9143.13, 0.118427
9159.28, 0.119182
9175.49, 0.119821
9191.76, 0.120402
9208.09, 0.120867
9224.47, 0.120925
9240.92, 0.120576
9257.42, 0.120170
9273.98, 0.119879
9290.6, 0.119531
9307.28, 0.119008
9324.02, 0.117905
9340.82, 0.116627
9357.68, 0.115291
9374.6, 0.114362
9391.58, 0.113665
9408.62, 0.113258
9425.73, 0.113084
9442.9, 0.113374
9460.13, 0.114594
9477.42, 0.116336
9494.78, 0.118137
9512.2, 0.120170
9529.69, 0.122145
9547.24, 0.123945
9564.86, 0.126210
9582.54, 0.128243
9600.28, 0.129347
9618.1, 0.129869
9635.97, 0.130160
9653.92, 0.130160
9671.93, 0.129695
9690.01, 0.128998
9708.16, 0.127953
9726.37, 0.126965
9744.65, 0.126094
9763.0, 0.125049
9781.43, 0.124119
9799.92, 0.123422
9818.48, 0.122725
9837.1, 0.122377
9855.8, 0.122377
9874.58, 0.122725
9893.42, 0.122958
9912.34, 0.122958
9931.33, 0.123306
9950.39, 0.123655
9969.52, 0.123655
9988.74, 0.123364
10008.0, 0.122900
10027.4, 0.122203
10046.8, 0.121390
10066.3, 0.120286
10085.9, 0.118660
10105.6, 0.116859
10125.3, 0.115117
10145.1, 0.113142
10165.0, 0.110935
10185.0, 0.109193
10205.0, 0.107334
10225.2, 0.105475
10245.4, 0.104081
10265.7, 0.102862
10286.0, 0.101758
10306.5, 0.100597
10327.0, 0.0991440
10347.6, 0.0979250
10368.3, 0.0968210
10389.1, 0.0956600
10409.9, 0.0944400
10430.9, 0.0932200
10451.9, 0.0923490
10473.0, 0.0915360
10494.2, 0.0905480
10515.5, 0.0900840
10536.9, 0.0896770
10558.4, 0.0889800
10579.9, 0.0888060
10601.5, 0.0888640
10623.3, 0.0888640
10645.1, 0.0887480
10667.0, 0.0885740
10689.0, 0.0885740
10711.1, 0.0883410
10733.2, 0.0881670
10755.5, 0.0879930
10777.9, 0.0875860
10800.3, 0.0871220
10822.9, 0.0864830
10845.5, 0.0862500
10868.2, 0.0859020
10891.1, 0.0856120
10914.0, 0.0853790
10937.0, 0.0850890
10960.2, 0.0846820
10983.4, 0.0843920
11006.7, 0.0842180
11030.1, 0.0841600
11053.6, 0.0842760
11077.3, 0.0842180
11101.0, 0.0841600
11124.8, 0.0837530
11148.7, 0.0832300
11172.7, 0.0827080
11196.9, 0.0818940
11221.1, 0.0809070
11245.4, 0.0798030
11269.9, 0.0787000
11294.4, 0.0777130
11319.1, 0.0766670
11343.9, 0.0756800
11368.8, 0.0749830
11393.7, 0.0741120
11418.8, 0.0734150
11444.0, 0.0732980
11469.4, 0.0732980
11494.8, 0.0736470
11520.3, 0.0742860
11546.0, 0.0747500
11571.8, 0.0750990
11597.7, 0.0759120
11623.7, 0.0767830
11649.8, 0.0774220
11676.0, 0.0777130
11702.4, 0.0770740
11728.9, 0.0769570
11755.5, 0.0789900
11782.2, 0.0825330
11809.0, 0.0857280
11836.0, 0.0873540
11863.0, 0.0879350
11890.3, 0.0882250
11917.6, 0.0880510
11945.0, 0.0874700
11972.6, 0.0865410
12000.4, 0.0853210
12028.2, 0.0842180
12056.2, 0.0830560
12084.3, 0.0823010
12112.5, 0.0817780
12140.9, 0.0813720
12169.4, 0.0810230
12198.0, 0.0806170
12226.8, 0.0803840
12255.7, 0.0802100
12284.7, 0.0803260
12313.9, 0.0804420
12343.2, 0.0803260
12372.7, 0.0801520
12402.3, 0.0799200
12432.0, 0.0798030
12461.9, 0.0797450
12491.9, 0.0796290
12522.1, 0.0792810
12552.4, 0.0787000
12582.9, 0.0777130
12613.5, 0.0765510
12644.3, 0.0749250
12675.2, 0.0728920
12706.3, 0.0704520
12737.5, 0.0681290
12768.9, 0.0659800
12800.4, 0.0639470
12832.1, 0.0623210
12863.9, 0.0611590
12895.9, 0.0601720
12928.1, 0.0594750
12960.4, 0.0595330
12992.9, 0.0595330
13025.5, 0.0595330
13058.3, 0.0596490
13091.3, 0.0593010
13124.4, 0.0585460
13157.8, 0.0577330
13191.2, 0.0566870
13224.9, 0.0551770
13258.7, 0.0533770
13292.7, 0.0520410
13326.9, 0.0509950
13361.2, 0.0498920
13395.7, 0.0491370
13430.4, 0.0489620
13465.3, 0.0486720
13500.4, 0.0484400
13535.7, 0.0483820
13571.1, 0.0483820
13606.7, 0.0480910
13642.5, 0.0478590
13678.5, 0.0476850
13714.7, 0.0475680
13751.1, 0.0472780
13787.6, 0.0468130
13824.4, 0.0466970
13861.4, 0.0463490
13898.5, 0.0456520
13935.9, 0.0454190
13973.5, 0.0449550
14011.2, 0.0442580
14049.2, 0.0435030
14087.4, 0.0432700
14125.8, 0.0433870
14164.3, 0.0434450
14203.2, 0.0436770
14242.2, 0.0438510
14281.4, 0.0443160
14320.9, 0.0447810
14360.5, 0.0453030
14400.4, 0.0457100
14440.5, 0.0456520
14480.9, 0.0457100
14521.4, 0.0458260
14562.2, 0.0457680
14603.3, 0.0454780
14644.5, 0.0453030
14686.0, 0.0451290
14727.7, 0.0447220
14769.7, 0.0442000
14811.9, 0.0439090
14854.3, 0.0435610
14897.0, 0.0428640
14939.9, 0.0419350
14983.1, 0.0411210
15026.5, 0.0410630
15070.2, 0.0405990
15114.2, 0.0395530
15158.3, 0.0385080
15202.8, 0.0374040
15247.5, 0.0363590
15292.5, 0.0349070
15337.7, 0.0334550
15383.2, 0.0322930
15429.0, 0.0310730
15475.1, 0.0302600
15521.4, 0.0296790
15568.0, 0.0291570
15614.9, 0.0288660
15662.1, 0.0291570
15709.6, 0.0296210
15757.3, 0.0299120
15805.4, 0.0312480
15853.7, 0.0334550
15902.3, 0.0363590
15951.2, 0.0405410
16000.5, 0.0460580
16050.0, 0.0530280
16099.8, 0.0606370
16150.0, 0.0682450
16200.5, 0.0750410
16251.3, 0.0806170
16302.4, 0.0845080
16353.8, 0.0860760
16405.5, 0.0859020
16457.6, 0.0847400
16510.0, 0.0821850
16562.8, 0.0787580
16615.9, 0.0750990
16669.3, 0.0719630
16723.1, 0.0701040
16777.2, 0.0684200
16831.7, 0.0660960
16886.5, 0.0637150
16941.7, 0.0626700
16997.2, 0.0615660
17053.1, 0.0603460
17109.4, 0.0593010
17166.1, 0.0593590
17223.1, 0.0604620
17280.5, 0.0611010
17338.3, 0.0612760
17396.5, 0.0626700
17455.1, 0.0642380
17514.0, 0.0655740
17573.4, 0.0676650
17633.2, 0.0705690
17693.4, 0.0742860
17754.0, 0.0788740
17815.0, 0.0854950
17876.4, 0.0939170
17938.3, 0.102397
18000.5, 0.109831
18063.3, 0.116046
18126.4, 0.121157
18190.0, 0.124933
18254.1, 0.126907
18318.6, 0.127895
18383.5, 0.127314
18449.0, 0.126094
18514.9, 0.124119
18581.2, 0.120634
18648.0, 0.116859
18715.4, 0.112968
18783.2, 0.108670
18851.5, 0.105011
18920.3, 0.102281
18989.6, 0.0986220
19059.4, 0.0946720
19129.7, 0.0914200
19200.6, 0.0886320
19272.0, 0.0850890
19343.9, 0.0826490
19416.3, 0.0795710
19489.3, 0.0762020
19562.8, 0.0741700
19637.0, 0.0731240
19711.6, 0.0714980
19786.8, 0.0688840
19862.6, 0.0675480
19939.0, 0.0681290
20016.0, 0.0683610
20093.6, 0.0695230
20171.8, 0.0718460
20250.6, 0.0733560
20330.0, 0.0731820
20410.0, 0.0744020
20490.7, 0.0763190
20572.0, 0.0782350
20654.0, 0.0818360
20736.6, 0.0860180
20819.9, 0.0907810
20903.8, 0.0968790
20988.5, 0.102107
21073.8, 0.107102
21159.8, 0.112561
21246.5, 0.115640
21334.0, 0.115814
21422.1, 0.118485
21511.0, 0.120809
21600.7, 0.120576
21691.0, 0.118485
21782.1, 0.116336
21874.0, 0.113374
21966.7, 0.110645
22060.2, 0.108263
22154.5, 0.104372
22249.6, 0.101816
22345.5, 0.100190
22442.2, 0.0985640
22539.8, 0.0970540
22638.2, 0.0956600
22737.5, 0.0976920
22837.7, 0.0997250
22938.7, 0.100597
23040.7, 0.102223
23143.5, 0.105243
23247.3, 0.109425
23352.1, 0.113374
23457.7, 0.114478
23564.4, 0.116395
23672.0, 0.119182
23780.5, 0.120228
23890.1, 0.121448
24000.7, 0.121970
24112.3, 0.121680
24225.0, 0.121099
24338.7, 0.119996
24453.5, 0.120344
24569.4, 0.115698
24686.4, 0.112213
24804.5, 0.113955
24923.8, 0.115872
