Database of Origin, USGS Spectral Database
Sample Description, See USGS database for additional info
Date Added,2016-08-03 21:24:16.916690

Data ID,USGS_cli08          
Sample ID, clinochlore_gds159.5400
Mineral Name, clinochlore
Material Class,Phyllosilicate

Wavelength
1592.67, 0.500499
1593.16, 0.500627
1593.65, 0.501389
1594.14, 0.502088
1594.63, 0.501961
1595.12, 0.501897
1595.61, 0.502405
1596.11, 0.503676
1596.6, 0.503867
1597.09, 0.504121
1597.58, 0.504947
1598.08, 0.505773
1598.57, 0.505709
1599.06, 0.506471
1599.55, 0.506916
1600.05, 0.506980
1600.54, 0.507170
1601.04, 0.508377
1601.53, 0.508822
1602.03, 0.509013
1602.52, 0.509394
1603.02, 0.510029
1603.51, 0.510410
1604.01, 0.510665
1604.5, 0.510792
1605.0, 0.511681
1605.5, 0.512698
1606.0, 0.512825
1606.49, 0.512571
1606.99, 0.513396
1607.49, 0.514032
1607.99, 0.514476
1608.49, 0.514603
1608.99, 0.515429
1609.49, 0.515493
1609.99, 0.515684
1610.49, 0.516192
1610.99, 0.517145
1611.49, 0.517526
1611.99, 0.518161
1612.49, 0.518415
1612.99, 0.518352
1613.49, 0.518542
1614.0, 0.518542
1614.5, 0.519432
1615.0, 0.520575
1615.51, 0.520512
1616.01, 0.520448
1616.51, 0.521084
1617.02, 0.522037
1617.52, 0.521846
1618.03, 0.522481
1618.53, 0.523688
1619.04, 0.524324
1619.54, 0.523816
1620.05, 0.524387
1620.55, 0.525023
1621.06, 0.525086
1621.57, 0.525213
1622.08, 0.525404
1622.58, 0.525658
1623.09, 0.526929
1623.6, 0.527246
1624.11, 0.526738
1624.62, 0.526801
1625.13, 0.527627
1625.64, 0.528009
1626.15, 0.528644
1626.66, 0.528962
1627.17, 0.529597
1627.68, 0.529533
1628.19, 0.529787
1628.7, 0.530486
1629.21, 0.531122
1629.72, 0.530931
1630.24, 0.531122
1630.75, 0.532202
1631.26, 0.532646
1631.78, 0.532710
1632.29, 0.532964
1632.8, 0.533282
1633.32, 0.533980
1633.83, 0.534171
1634.35, 0.534489
1634.86, 0.534806
1635.38, 0.535061
1635.9, 0.535188
1636.41, 0.535378
1636.93, 0.535696
1637.45, 0.536077
1637.96, 0.536331
1638.48, 0.536776
1639.0, 0.536903
1639.52, 0.537221
1640.04, 0.537157
1640.56, 0.537983
1641.08, 0.538364
1641.59, 0.538618
1642.11, 0.538999
1642.63, 0.539254
1643.16, 0.539508
1643.68, 0.539889
1644.2, 0.539762
1644.72, 0.540207
1645.24, 0.540461
1645.76, 0.540905
1646.29, 0.541414
1646.81, 0.542303
1647.33, 0.542430
1647.86, 0.542621
1648.38, 0.542303
1648.9, 0.542049
1649.43, 0.542367
1649.95, 0.543129
1650.48, 0.543447
1651.0, 0.543828
1651.53, 0.544336
1652.06, 0.544781
1652.58, 0.544971
1653.11, 0.545353
1653.64, 0.545098
1654.17, 0.545035
1654.69, 0.545734
1655.22, 0.546179
1655.75, 0.546179
1656.28, 0.546560
1656.81, 0.546687
1657.34, 0.547449
1657.87, 0.547703
1658.4, 0.547767
1658.93, 0.547767
1659.46, 0.547830
1659.99, 0.548084
1660.52, 0.548910
1661.05, 0.549101
1661.59, 0.549419
1662.12, 0.549546
1662.65, 0.549736
1663.19, 0.549927
1663.72, 0.550880
1664.26, 0.551261
1664.79, 0.551198
1665.32, 0.551515
1665.86, 0.551896
1666.39, 0.551769
1666.93, 0.552087
1667.47, 0.552214
1668.0, 0.552405
1668.54, 0.552532
1669.08, 0.553040
1669.61, 0.553294
1670.15, 0.553548
1670.69, 0.553294
1671.23, 0.553612
1671.77, 0.554247
1672.31, 0.554692
1672.85, 0.555327
1673.39, 0.555454
1673.93, 0.555263
1674.47, 0.555708
1675.01, 0.555962
1675.55, 0.555962
1676.09, 0.555835
1676.64, 0.556280
1677.18, 0.556788
1677.72, 0.557360
1678.26, 0.557106
1678.81, 0.557424
1679.35, 0.557741
1679.89, 0.557995
1680.44, 0.558059
1680.98, 0.558186
1681.53, 0.558694
1682.07, 0.558821
1682.62, 0.558948
1683.17, 0.559647
1683.71, 0.559520
1684.26, 0.559266
1684.81, 0.559393
1685.36, 0.559711
1685.9, 0.560028
1686.45, 0.560537
1687.0, 0.560409
1687.55, 0.560537
1688.1, 0.560600
1688.65, 0.560791
1689.2, 0.560854
1689.75, 0.561299
1690.3, 0.561426
1690.85, 0.561744
1691.41, 0.561680
1691.96, 0.562061
1692.51, 0.562188
1693.06, 0.562125
1693.61, 0.562252
1694.17, 0.562951
1694.72, 0.562951
1695.28, 0.562951
1695.83, 0.563396
1696.39, 0.563777
1696.94, 0.563840
1697.5, 0.563840
1698.05, 0.564031
1698.61, 0.564412
1699.17, 0.564031
1699.72, 0.564031
1700.28, 0.564348
1700.84, 0.564539
1701.4, 0.564412
1701.95, 0.564539
1702.51, 0.564666
1703.07, 0.564920
1703.63, 0.565174
1704.19, 0.565683
1704.75, 0.565619
1705.31, 0.565746
1705.88, 0.565619
1706.44, 0.565619
1707.0, 0.566064
1707.56, 0.566127
1708.12, 0.565937
1708.69, 0.566000
1709.25, 0.566318
1709.81, 0.566381
1710.38, 0.566381
1710.94, 0.566636
1711.51, 0.566509
1712.07, 0.566953
1712.64, 0.567144
1713.2, 0.566953
1713.77, 0.566699
1714.34, 0.566953
1714.9, 0.567271
1715.47, 0.567398
1716.04, 0.567525
1716.61, 0.567652
1717.18, 0.567461
1717.74, 0.567461
1718.31, 0.567652
1718.88, 0.567970
1719.45, 0.568160
1720.02, 0.568160
1720.59, 0.567906
1721.17, 0.568097
1721.74, 0.568669
1722.31, 0.568923
1722.88, 0.568605
1723.45, 0.568669
1724.03, 0.568669
1724.6, 0.568859
1725.18, 0.568542
1725.75, 0.568542
1726.33, 0.568986
1726.9, 0.569495
1727.48, 0.569431
1728.05, 0.569431
1728.63, 0.569431
1729.2, 0.569367
1729.78, 0.569495
1730.36, 0.569876
1730.94, 0.569622
1731.51, 0.569431
1732.09, 0.569431
1732.67, 0.569812
1733.25, 0.569876
1733.83, 0.570193
1734.41, 0.570257
1734.99, 0.570257
1735.57, 0.570193
1736.15, 0.570575
1736.73, 0.570765
1737.32, 0.570638
1737.9, 0.570447
1738.48, 0.570511
1739.07, 0.570638
1739.65, 0.571083
1740.23, 0.571019
1740.82, 0.571146
1741.4, 0.571146
1741.99, 0.571273
1742.57, 0.571273
1743.16, 0.571528
1743.74, 0.571337
1744.33, 0.571464
1744.92, 0.571718
1745.51, 0.571782
1746.09, 0.571718
1746.68, 0.571591
1747.27, 0.571718
1747.86, 0.572036
1748.45, 0.572036
1749.04, 0.572099
1749.63, 0.572099
1750.22, 0.572480
1750.81, 0.572544
1751.4, 0.572480
1751.99, 0.572417
1752.59, 0.572480
1753.18, 0.572480
1753.77, 0.572735
1754.37, 0.572544
1754.96, 0.572480
1755.56, 0.572480
1756.15, 0.572735
1756.74, 0.572671
1757.34, 0.572608
1757.94, 0.572671
1758.53, 0.573116
1759.13, 0.572862
1759.73, 0.572671
1760.32, 0.572735
1760.92, 0.572608
1761.52, 0.572480
1762.12, 0.572925
1762.72, 0.572925
1763.32, 0.572735
1763.92, 0.572544
1764.52, 0.572735
1765.12, 0.572862
1765.72, 0.573052
1766.32, 0.572862
1766.92, 0.572862
1767.53, 0.572925
1768.13, 0.573179
1768.73, 0.572989
1769.34, 0.572608
1769.94, 0.572608
1770.55, 0.572862
1771.15, 0.572735
1771.76, 0.572862
1772.36, 0.572798
1772.97, 0.572798
1773.57, 0.572925
1774.18, 0.572925
1774.79, 0.572735
1775.4, 0.572671
1776.0, 0.572417
1776.61, 0.572480
1777.22, 0.572417
1777.83, 0.572608
1778.44, 0.572290
1779.05, 0.572226
1779.66, 0.572036
1780.27, 0.572226
1780.88, 0.572226
1781.5, 0.572290
1782.11, 0.572544
1782.72, 0.572608
1783.33, 0.572036
1783.95, 0.571337
1784.56, 0.571019
1785.18, 0.571146
1785.79, 0.571210
1786.41, 0.571146
1787.02, 0.571019
1787.64, 0.571273
1788.26, 0.571400
1788.87, 0.571718
1789.49, 0.571337
1790.11, 0.570829
1790.73, 0.570130
1791.35, 0.570384
1791.96, 0.570638
1792.58, 0.570257
1793.21, 0.569812
1793.83, 0.570066
1794.45, 0.570003
1795.07, 0.570003
1795.69, 0.569685
1796.31, 0.569622
1796.93, 0.569495
1797.56, 0.569367
1798.18, 0.569240
1798.8, 0.569177
1799.43, 0.568605
1800.05, 0.568287
1800.68, 0.568224
1801.3, 0.568415
1801.93, 0.567779
1802.56, 0.567589
1803.18, 0.567461
1803.81, 0.567398
1804.44, 0.566826
1805.07, 0.566572
1805.7, 0.566445
1806.33, 0.566572
1806.95, 0.566445
1807.58, 0.566381
1808.22, 0.565937
1808.85, 0.565810
1809.48, 0.565810
1810.11, 0.565174
1810.74, 0.564730
1811.38, 0.564857
1812.01, 0.564920
1812.64, 0.564603
1813.28, 0.564348
1813.91, 0.564476
1814.55, 0.564031
1815.18, 0.563586
1815.82, 0.563396
1816.45, 0.563650
1817.09, 0.563586
1817.73, 0.563713
1818.36, 0.563396
1819.0, 0.563396
1819.64, 0.562824
1820.28, 0.561934
1820.92, 0.561807
1821.56, 0.561744
1822.2, 0.561744
1822.84, 0.561998
1823.48, 0.562061
1824.12, 0.561680
1824.76, 0.561299
1825.41, 0.560791
1826.05, 0.559838
1826.69, 0.560092
1827.34, 0.560346
1827.98, 0.559901
1828.63, 0.559329
1829.27, 0.559393
1829.92, 0.559075
1830.56, 0.558504
1831.21, 0.557932
1831.86, 0.557805
1832.5, 0.557741
1833.15, 0.557741
1833.8, 0.557233
1834.45, 0.556089
1835.1, 0.555772
1835.75, 0.555518
1836.4, 0.555009
1837.05, 0.554628
1837.7, 0.554247
1838.35, 0.554882
1839.01, 0.554183
1839.66, 0.553040
1840.31, 0.553103
1840.96, 0.552595
1841.62, 0.550943
1842.27, 0.551134
1842.93, 0.551515
1843.58, 0.551325
1844.24, 0.551007
1844.9, 0.551070
1845.55, 0.550626
1846.21, 0.549355
1846.87, 0.547957
1847.53, 0.547830
1848.18, 0.547576
1848.84, 0.548148
1849.5, 0.548211
1850.16, 0.547640
1850.82, 0.547259
1851.48, 0.547195
1852.14, 0.546179
1852.81, 0.545162
1853.47, 0.544018
1854.13, 0.543637
1854.8, 0.544082
1855.46, 0.544018
1856.12, 0.542811
1856.79, 0.542176
1857.45, 0.542303
1858.12, 0.542240
1858.79, 0.541287
1859.45, 0.539952
1860.12, 0.539698
1860.79, 0.540143
1861.46, 0.540016
1862.12, 0.539698
1862.79, 0.539317
1863.46, 0.538682
1864.13, 0.537665
1864.8, 0.537221
1865.48, 0.537094
1866.15, 0.536839
1866.82, 0.535378
1867.49, 0.533853
1868.16, 0.533853
1868.84, 0.534235
1869.51, 0.533599
1870.19, 0.532138
1870.86, 0.530613
1871.54, 0.531058
1872.21, 0.530359
1872.89, 0.528898
1873.56, 0.528834
1874.24, 0.529279
1874.92, 0.528771
1875.6, 0.528263
1876.28, 0.527437
1876.96, 0.526484
1877.64, 0.526484
1878.32, 0.526547
1879.0, 0.526293
1879.68, 0.526293
1880.36, 0.526039
1881.04, 0.525849
1881.73, 0.525721
1882.41, 0.525467
1883.09, 0.525023
1883.78, 0.524324
1884.46, 0.524514
1885.15, 0.524959
1885.83, 0.524832
1886.52, 0.524705
1887.21, 0.524578
1887.89, 0.524324
1888.58, 0.523625
1889.27, 0.522608
1889.96, 0.521465
1890.65, 0.521655
1891.34, 0.521084
1892.03, 0.520321
1892.72, 0.519750
1893.41, 0.518924
1894.1, 0.518225
1894.79, 0.517716
1895.49, 0.517145
1896.18, 0.516573
1896.87, 0.515811
1897.57, 0.515112
1898.26, 0.514540
1898.96, 0.513587
1899.65, 0.512571
1900.35, 0.512825
1901.05, 0.513206
1901.74, 0.513269
1902.44, 0.512698
1903.14, 0.512698
1903.84, 0.513079
1904.54, 0.512634
1905.24, 0.511808
1905.94, 0.512253
1906.64, 0.512507
1907.34, 0.513206
1908.04, 0.513523
1908.75, 0.513714
1909.45, 0.513841
1910.15, 0.514095
1910.86, 0.513841
1911.56, 0.514222
1912.27, 0.514731
1912.97, 0.514349
1913.68, 0.513968
1914.39, 0.514794
1915.09, 0.515302
1915.8, 0.515684
1916.51, 0.515874
1917.22, 0.516446
1917.93, 0.516827
1918.64, 0.516954
1919.35, 0.516446
1920.06, 0.515874
1920.77, 0.516446
1921.48, 0.517844
1922.19, 0.518161
1922.91, 0.518225
1923.62, 0.517907
1924.33, 0.518161
1925.05, 0.518606
1925.76, 0.518860
1926.48, 0.518797
1927.19, 0.518797
1927.91, 0.518669
1928.63, 0.518733
1929.35, 0.519051
1930.07, 0.519368
1930.78, 0.519495
1931.5, 0.519686
1932.22, 0.519559
1932.94, 0.519368
1933.66, 0.519114
1934.39, 0.519305
1935.11, 0.519368
1935.83, 0.519051
1936.55, 0.518733
1937.28, 0.518606
1938.0, 0.518225
1938.73, 0.518161
1939.45, 0.517907
1940.18, 0.517716
1940.9, 0.517589
1941.63, 0.517399
1942.36, 0.516891
1943.09, 0.516636
1943.81, 0.516319
1944.54, 0.515684
1945.27, 0.515366
1946.0, 0.515302
1946.73, 0.515048
1947.47, 0.514858
1948.2, 0.514095
1948.93, 0.513778
1949.66, 0.513587
1950.4, 0.513396
1951.13, 0.513015
1951.86, 0.512571
1952.6, 0.511935
1953.34, 0.511617
1954.07, 0.511363
1954.81, 0.511427
1955.55, 0.511300
1956.29, 0.511046
1957.02, 0.510792
1957.76, 0.510792
1958.5, 0.510156
1959.24, 0.509902
1959.98, 0.509775
1960.72, 0.509839
1961.47, 0.509648
1962.21, 0.509267
1962.95, 0.508822
1963.7, 0.508568
1964.44, 0.508377
1965.18, 0.508250
1965.93, 0.508187
1966.67, 0.507933
1967.42, 0.507297
1968.17, 0.506980
1968.92, 0.506535
1969.66, 0.506217
1970.41, 0.505836
1971.16, 0.505773
1971.91, 0.505582
1972.66, 0.505137
1973.41, 0.504566
1974.16, 0.504311
1974.92, 0.504184
1975.67, 0.504057
1976.42, 0.503613
1977.18, 0.503231
1977.93, 0.502850
1978.69, 0.502596
1979.44, 0.502215
1980.2, 0.502024
1980.95, 0.501770
1981.71, 0.501707
1982.47, 0.501643
1983.23, 0.501580
1983.99, 0.501516
1984.74, 0.501453
1985.51, 0.501453
1986.27, 0.501389
1987.03, 0.501262
1987.79, 0.501580
1988.55, 0.501389
1989.32, 0.501389
1990.08, 0.501516
1990.84, 0.501770
1991.61, 0.501770
1992.37, 0.502024
1993.14, 0.502088
1993.9, 0.502342
1994.67, 0.502596
1995.44, 0.503041
1996.21, 0.503231
1996.98, 0.503295
1997.75, 0.503422
1998.52, 0.503867
1999.29, 0.504057
2000.06, 0.504311
2000.83, 0.504375
2001.6, 0.504820
2002.38, 0.505264
2003.15, 0.505582
2003.93, 0.505963
2004.7, 0.506408
2005.48, 0.506599
2006.25, 0.507043
2007.03, 0.507551
2007.81, 0.508060
2008.58, 0.508568
2009.36, 0.508949
2010.14, 0.509330
2010.92, 0.510029
2011.7, 0.510792
2012.48, 0.511363
2013.26, 0.511681
2014.05, 0.512253
2014.83, 0.512952
2015.61, 0.513714
2016.4, 0.514349
2017.18, 0.515175
2017.97, 0.515684
2018.75, 0.516446
2019.54, 0.517145
2020.32, 0.517971
2021.11, 0.518542
2021.9, 0.519432
2022.69, 0.520131
2023.48, 0.520830
2024.27, 0.521465
2025.06, 0.522037
2025.85, 0.522735
2026.64, 0.523688
2027.44, 0.524387
2028.23, 0.525086
2029.02, 0.525785
2029.82, 0.526738
2030.61, 0.527310
2031.41, 0.528072
2032.2, 0.528771
2033.0, 0.529597
2033.8, 0.530423
2034.6, 0.531185
2035.4, 0.531630
2036.2, 0.532392
2037.0, 0.533155
2037.8, 0.533917
2038.6, 0.534171
2039.4, 0.534743
2040.2, 0.535315
2041.01, 0.536013
2041.81, 0.536712
2042.61, 0.537157
2043.42, 0.537602
2044.22, 0.538364
2045.03, 0.538999
2045.84, 0.539698
2046.65, 0.540207
2047.46, 0.540778
2048.26, 0.541032
2049.07, 0.541604
2049.88, 0.542176
2050.69, 0.543002
2051.51, 0.543510
2052.32, 0.543891
2053.13, 0.544082
2053.94, 0.544590
2054.76, 0.544844
2055.57, 0.545226
2056.39, 0.545607
2057.2, 0.546115
2058.02, 0.546560
2058.84, 0.547195
2059.66, 0.547576
2060.48, 0.547894
2061.29, 0.548148
2062.11, 0.548402
2062.94, 0.548529
2063.76, 0.548847
2064.58, 0.549037
2065.4, 0.549228
2066.22, 0.549355
2067.05, 0.549609
2067.87, 0.549863
2068.7, 0.550372
2069.52, 0.550499
2070.35, 0.550626
2071.18, 0.550562
2072.0, 0.550562
2072.83, 0.550499
2073.66, 0.550753
2074.49, 0.550943
2075.32, 0.551070
2076.15, 0.551070
2076.98, 0.551261
2077.82, 0.551388
2078.65, 0.551642
2079.48, 0.551960
2080.32, 0.552023
2081.15, 0.551833
2081.99, 0.551769
2082.83, 0.551642
2083.66, 0.551515
2084.5, 0.551325
2085.34, 0.551261
2086.18, 0.551325
2087.02, 0.551261
2087.86, 0.550943
2088.7, 0.550689
2089.54, 0.550372
2090.39, 0.549800
2091.23, 0.549101
2092.07, 0.548402
2092.92, 0.547640
2093.76, 0.546941
2094.61, 0.546242
2095.45, 0.545797
2096.3, 0.545035
2097.15, 0.544590
2098.0, 0.544082
2098.85, 0.543828
2099.7, 0.543574
2100.55, 0.543193
2101.4, 0.542748
2102.25, 0.542494
2103.1, 0.542112
2103.96, 0.541922
2104.81, 0.541795
2105.67, 0.541731
2106.52, 0.541477
2107.38, 0.541350
2108.24, 0.541032
2109.09, 0.541032
2109.95, 0.540842
2110.81, 0.540842
2111.67, 0.540842
2112.53, 0.540715
2113.39, 0.540397
2114.25, 0.540524
2115.12, 0.540715
2115.98, 0.540842
2116.84, 0.540588
2117.71, 0.540778
2118.58, 0.540588
2119.44, 0.540588
2120.31, 0.540842
2121.18, 0.540905
2122.04, 0.540715
2122.91, 0.540715
2123.78, 0.540651
2124.65, 0.540651
2125.52, 0.540715
2126.4, 0.540905
2127.27, 0.541032
2128.14, 0.540969
2129.02, 0.540842
2129.89, 0.541032
2130.77, 0.541160
2131.64, 0.541350
2132.52, 0.541477
2133.4, 0.541604
2134.27, 0.541541
2135.15, 0.541668
2136.03, 0.541668
2136.91, 0.541795
2137.79, 0.541985
2138.68, 0.542112
2139.56, 0.541985
2140.44, 0.542112
2141.33, 0.542049
2142.21, 0.542176
2143.1, 0.542049
2143.99, 0.542112
2144.87, 0.542049
2145.76, 0.542112
2146.65, 0.542112
2147.54, 0.541985
2148.43, 0.541604
2149.32, 0.541541
2150.21, 0.541414
2151.1, 0.541541
2151.99, 0.541477
2152.89, 0.541223
2153.78, 0.541096
2154.68, 0.540969
2155.57, 0.540588
2156.47, 0.540334
2157.37, 0.540080
2158.27, 0.539889
2159.16, 0.539571
2160.06, 0.539444
2160.96, 0.538936
2161.86, 0.538745
2162.77, 0.538428
2163.67, 0.538110
2164.57, 0.537602
2165.48, 0.537094
2166.38, 0.536712
2167.29, 0.536268
2168.2, 0.535696
2169.1, 0.535378
2170.01, 0.534870
2170.92, 0.534425
2171.83, 0.533917
2172.74, 0.533472
2173.65, 0.532900
2174.56, 0.532329
2175.47, 0.531693
2176.39, 0.530995
2177.3, 0.530296
2178.22, 0.529406
2179.13, 0.528517
2180.05, 0.528072
2180.96, 0.527500
2181.88, 0.526865
2182.8, 0.526039
2183.72, 0.525404
2184.64, 0.524641
2185.56, 0.523943
2186.48, 0.523117
2187.41, 0.522418
2188.33, 0.521338
2189.25, 0.520575
2190.18, 0.519813
2191.1, 0.518924
2192.03, 0.518098
2192.96, 0.517462
2193.89, 0.516573
2194.82, 0.515811
2195.74, 0.515048
2196.68, 0.514349
2197.61, 0.513587
2198.54, 0.512825
2199.47, 0.511999
2200.4, 0.511300
2201.34, 0.510410
2202.28, 0.509521
2203.21, 0.508759
2204.15, 0.507996
2205.08, 0.506916
2206.02, 0.505836
2206.96, 0.504947
2207.9, 0.504248
2208.84, 0.503168
2209.78, 0.502278
2210.73, 0.501135
2211.67, 0.500118
2212.61, 0.498911
2213.56, 0.497704
2214.5, 0.496561
2215.45, 0.495290
2216.4, 0.493702
2217.35, 0.492558
2218.3, 0.490970
2219.24, 0.489509
2220.2, 0.487666
2221.15, 0.486205
2222.1, 0.484426
2223.05, 0.482393
2224.0, 0.480424
2224.96, 0.478200
2225.91, 0.475722
2226.87, 0.473562
2227.83, 0.471212
2228.79, 0.468924
2229.74, 0.466256
2230.7, 0.463524
2231.66, 0.460856
2232.63, 0.458315
2233.59, 0.455646
2234.55, 0.452915
2235.51, 0.450246
2236.48, 0.447514
2237.44, 0.444656
2238.41, 0.442432
2239.38, 0.440208
2240.34, 0.437985
2241.31, 0.435888
2242.28, 0.434046
2243.25, 0.432585
2244.22, 0.431441
2245.19, 0.430679
2246.17, 0.430107
2247.14, 0.429789
2248.12, 0.429980
2249.09, 0.430170
2250.07, 0.430806
2251.04, 0.431505
2252.02, 0.432585
2253.0, 0.433728
2253.98, 0.434808
2254.96, 0.435888
2255.94, 0.436841
2256.92, 0.437731
2257.91, 0.438620
2258.89, 0.439192
2259.88, 0.439891
2260.86, 0.440335
2261.85, 0.440844
2262.83, 0.441415
2263.82, 0.441733
2264.81, 0.441606
2265.8, 0.441797
2266.79, 0.442051
2267.78, 0.442107
2268.78, 0.441938
2269.77, 0.441938
2270.76, 0.442051
2271.76, 0.441769
2272.75, 0.441261
2273.75, 0.440809
2274.75, 0.440302
2275.75, 0.439512
2276.75, 0.438440
2277.75, 0.437706
2278.75, 0.436070
2279.75, 0.434039
2280.75, 0.431839
2281.76, 0.429638
2282.76, 0.427438
2283.77, 0.425181
2284.77, 0.422417
2285.78, 0.419652
2286.79, 0.416887
2287.8, 0.414574
2288.81, 0.412261
2289.82, 0.410004
2290.83, 0.408424
2291.84, 0.407070
2292.86, 0.406168
2293.87, 0.405547
2294.89, 0.405152
2295.91, 0.404701
2296.92, 0.404136
2297.94, 0.404249
2298.96, 0.404362
2299.98, 0.404531
2301.0, 0.404249
2302.02, 0.404024
2303.04, 0.403911
2304.07, 0.403629
2305.09, 0.403177
2306.12, 0.401992
2307.15, 0.400243
2308.17, 0.398607
2309.2, 0.396633
2310.23, 0.394827
2311.26, 0.393022
2312.29, 0.391160
2313.32, 0.389242
2314.35, 0.388000
2315.39, 0.387041
2316.42, 0.386364
2317.46, 0.385856
2318.5, 0.385574
2319.53, 0.385123
2320.57, 0.384728
2321.61, 0.384220
2322.65, 0.383769
2323.69, 0.383374
2324.73, 0.383205
2325.78, 0.382697
2326.82, 0.382302
2327.86, 0.382415
2328.91, 0.382866
2329.96, 0.383261
2331.01, 0.384107
2332.05, 0.384954
2333.1, 0.386026
2334.15, 0.387154
2335.21, 0.388565
2336.26, 0.389693
2337.31, 0.390765
2338.36, 0.391724
2339.42, 0.392796
2340.48, 0.393642
2341.53, 0.394771
2342.59, 0.396012
2343.65, 0.397366
2344.71, 0.398494
2345.77, 0.399566
2346.83, 0.400751
2347.9, 0.401880
2348.96, 0.402782
2350.02, 0.403403
2351.09, 0.404080
2352.16, 0.404701
2353.23, 0.405378
2354.29, 0.405885
2355.36, 0.406788
2356.43, 0.408086
2357.51, 0.409045
2358.58, 0.409835
2359.65, 0.410907
2360.73, 0.412317
2361.8, 0.413784
2362.88, 0.415138
2363.96, 0.416323
2365.03, 0.417452
2366.11, 0.418580
2367.19, 0.419426
2368.27, 0.419878
2369.36, 0.420611
2370.44, 0.421345
2371.53, 0.421739
2372.61, 0.421909
2373.7, 0.422417
2374.78, 0.422811
2375.87, 0.422924
2376.96, 0.422699
2378.05, 0.422586
2379.14, 0.422247
2380.24, 0.421909
2381.33, 0.421909
2382.42, 0.421570
2383.52, 0.421175
2384.61, 0.420667
2385.71, 0.420498
2386.81, 0.420216
2387.91, 0.419990
2389.01, 0.419990
2390.11, 0.419765
2391.22, 0.419934
2392.32, 0.420216
2393.42, 0.420442
2394.53, 0.420780
2395.64, 0.421514
2396.74, 0.422473
2397.85, 0.423150
2398.96, 0.423940
2400.07, 0.425181
2401.18, 0.426479
2402.3, 0.427720
2403.41, 0.428848
2404.52, 0.430090
2405.64, 0.431274
2406.76, 0.432234
2407.88, 0.432911
2408.99, 0.433644
2410.11, 0.434265
2411.23, 0.434547
2412.36, 0.434547
2413.48, 0.434434
2414.6, 0.434321
2415.73, 0.433926
2416.85, 0.433249
2417.98, 0.432572
2419.11, 0.431726
2420.24, 0.430597
2421.37, 0.429413
2422.5, 0.428453
2423.64, 0.427381
2424.77, 0.426592
2425.9, 0.425858
2427.04, 0.425238
2428.18, 0.424448
2429.31, 0.423714
2430.45, 0.422868
2431.59, 0.422360
2432.73, 0.421627
2433.88, 0.421006
2435.02, 0.420555
2436.16, 0.420273
2437.31, 0.419821
2438.45, 0.419201
2439.6, 0.418693
2440.75, 0.418298
2441.9, 0.417621
2443.05, 0.416774
2444.2, 0.415928
2445.35, 0.415026
2446.51, 0.414348
2447.67, 0.413446
2448.82, 0.412430
2449.98, 0.411471
2451.14, 0.410286
2452.3, 0.409496
2453.46, 0.408650
2454.62, 0.407634
2455.78, 0.406450
2456.94, 0.405773
2458.11, 0.405208
2459.28, 0.404362
2460.44, 0.403290
2461.61, 0.402557
2462.78, 0.402105
2463.95, 0.401654
2465.12, 0.401259
2466.3, 0.401033
2467.47, 0.400638
2468.65, 0.400356
2469.82, 0.400018
2471.0, 0.399961
2472.18, 0.400187
2473.36, 0.400695
2474.54, 0.400977
2475.72, 0.400977
2476.9, 0.400751
2478.08, 0.401033
2479.27, 0.401315
2480.46, 0.401598
2481.64, 0.401710
2482.83, 0.401992
2484.02, 0.401823
2485.21, 0.401654
2486.4, 0.401823
2487.6, 0.401880
2488.79, 0.401710
2489.99, 0.401992
2491.18, 0.401936
2492.38, 0.401541
2493.58, 0.401259
2494.78, 0.401090
2495.98, 0.401033
2497.18, 0.400977
2498.39, 0.400864
2499.59, 0.400808
2500.8, 0.400413
2502.01, 0.400187
2503.21, 0.400187
2504.42, 0.400413
2505.63, 0.400300
2506.84, 0.400356
2508.06, 0.400413
2509.27, 0.400469
2510.49, 0.400131
2511.7, 0.399905
2512.92, 0.399736
2514.14, 0.399566
2515.36, 0.399228
2516.58, 0.399115
2517.8, 0.399284
2519.03, 0.399002
2520.25, 0.398777
2521.48, 0.398946
2522.7, 0.398946
2523.93, 0.398833
2525.16, 0.398833
2526.39, 0.398946
2527.62, 0.399002
2528.86, 0.399397
2530.09, 0.399228
2531.33, 0.398551
2532.56, 0.398156
2533.8, 0.398664
2535.04, 0.398382
2536.28, 0.398043
2537.52, 0.398551
2538.76, 0.398889
2540.01, 0.398833
2541.25, 0.398382
2542.5, 0.397310
2543.75, 0.397535
2544.99, 0.398156
2546.24, 0.398043
2547.49, 0.396915
2548.75, 0.396915
2550.0, 0.396350
2551.26, 0.395391
2552.51, 0.394714
2553.77, 0.395617
2555.03, 0.396463
2556.29, 0.396463
2557.55, 0.396350
2558.81, 0.395730
2560.08, 0.393078
2561.34, 0.390765
2562.61, 0.390765
2563.88, 0.391273
2565.14, 0.393304
2566.41, 0.395504
2567.68, 0.394714
2568.96, 0.392345
2570.23, 0.392965
2571.51, 0.394489
2572.78, 0.391216
2574.06, 0.392006
2575.34, 0.393868
2576.62, 0.393135
2577.9, 0.394996
2579.18, 0.396407
2580.47, 0.394940
2581.75, 0.394884
2583.04, 0.391893
2584.32, 0.392119
2585.61, 0.395448
2586.9, 0.394601
2588.2, 0.395448
2589.49, 0.397479
2590.78, 0.399002
2592.08, 0.397705
2593.37, 0.389129
2594.67, 0.381851
2595.97, 0.389298
2597.27, 0.397874
2598.57, 0.401146
2599.88, 0.401203
2601.18, 0.400018
2602.49, 0.399228
2603.79, 0.397027
2605.1, 0.393868
2606.41, 0.396294
2607.72, 0.399848
2609.03, 0.400921
2610.35, 0.402500
2611.66, 0.403967
2612.98, 0.403685
2614.3, 0.403741
2615.62, 0.400018
2616.94, 0.397817
2618.26, 0.401090
2619.58, 0.398833
2620.91, 0.399679
2622.23, 0.405096
2623.56, 0.406450
2624.89, 0.404531
2626.22, 0.400300
2627.55, 0.402105
2628.88, 0.400921
2630.21, 0.396407
2631.55, 0.400187
2632.89, 0.402670
2634.22, 0.402782
2635.56, 0.404418
2636.9, 0.404644
2638.25, 0.404249
2639.59, 0.403403
2640.93, 0.402387
2642.28, 0.401485
2643.63, 0.401203
2644.98, 0.399228
2646.33, 0.398777
2647.68, 0.399510
2649.03, 0.399228
2650.39, 0.397761
2651.74, 0.394940
2653.1, 0.394658
2654.46, 0.394996
2655.82, 0.394489
2657.18, 0.395279
2658.54, 0.393078
2659.9, 0.391329
2661.27, 0.391047
2662.64, 0.389919
2664.01, 0.383205
2665.38, 0.377111
2666.74, 0.376491
2668.12, 0.379086
2669.49, 0.372541
2670.87, 0.369946
2672.24, 0.376547
2673.62, 0.376434
2675.0, 0.371300
2676.38, 0.365263
2677.76, 0.362950
2679.15, 0.360749
2680.54, 0.360975
2681.92, 0.357985
2683.31, 0.352625
2684.7, 0.348055
2686.09, 0.343541
2687.48, 0.338802
2688.88, 0.333555
2690.27, 0.327462
2691.67, 0.319506
2693.07, 0.308279
2694.47, 0.299026
2695.87, 0.291127
2697.27, 0.281874
2698.67, 0.270083
2700.08, 0.255695
2701.49, 0.239841
2702.9, 0.223480
2704.31, 0.204297
2705.72, 0.183139
2707.13, 0.161248
2708.54, 0.139922
2709.96, 0.121585
2711.38, 0.108721
2712.8, 0.101105
2714.22, 0.0957450
2715.64, 0.0915700
2717.06, 0.0878460
2718.49, 0.0834450
2719.91, 0.0799470
2721.34, 0.0810190
2722.77, 0.0828810
2724.2, 0.0831070
2725.63, 0.0842910
2727.07, 0.0852510
2728.5, 0.0853070
2729.94, 0.0846860
2731.38, 0.0842350
2732.82, 0.0834450
2734.26, 0.0821480
2735.7, 0.0811320
2737.15, 0.0800600
2738.59, 0.0779720
2740.04, 0.0766180
2741.49, 0.0763360
2742.94, 0.0763360
2744.39, 0.0758850
2745.84, 0.0752080
2747.3, 0.0743050
2748.76, 0.0734020
2750.21, 0.0723870
2751.67, 0.0715970
2753.14, 0.0705250
2754.6, 0.0687200
2756.06, 0.0677600
2757.53, 0.0678170
2759.0, 0.0671960
2760.46, 0.0662370
2761.94, 0.0645440
2763.41, 0.0634160
2764.88, 0.0625700
2766.36, 0.0614980
2767.83, 0.0604820
2769.31, 0.0594670
2770.79, 0.0581130
2772.27, 0.0573790
2773.76, 0.0565890
2775.24, 0.0556300
2776.73, 0.0545580
2778.22, 0.0536550
2779.71, 0.0528660
2781.2, 0.0521880
2782.69, 0.0514550
2784.18, 0.0508910
2785.68, 0.0501010
2787.18, 0.0495930
2788.68, 0.0493670
2790.18, 0.0492550
2791.68, 0.0490290
2793.19, 0.0490290
2794.69, 0.0489160
2796.2, 0.0489730
2797.71, 0.0489160
2799.22, 0.0489160
2800.73, 0.0488600
2802.24, 0.0487470
2803.76, 0.0488030
2805.28, 0.0491420
2806.8, 0.0494800
2808.32, 0.0499320
2809.84, 0.0502140
2811.36, 0.0505520
2812.89, 0.0508910
2814.42, 0.0513420
2815.94, 0.0519060
2817.48, 0.0524710
2819.01, 0.0528660
2820.54, 0.0534300
2822.08, 0.0538810
2823.61, 0.0546710
2825.15, 0.0554610
2826.69, 0.0561940
2828.23, 0.0565330
2829.78, 0.0570410
2831.32, 0.0575480
2832.87, 0.0581130
2834.42, 0.0586200
2835.97, 0.0591850
2837.52, 0.0595800
2839.08, 0.0602000
2840.63, 0.0608210
2842.19, 0.0613850
2843.75, 0.0619490
2845.31, 0.0623440
2846.87, 0.0625130
2848.44, 0.0628520
2850.0, 0.0633030
2851.57, 0.0634720
2853.14, 0.0634160
2854.71, 0.0637550
2856.28, 0.0639800
2857.86, 0.0643190
2859.43, 0.0644320
2861.01, 0.0645440
2862.59, 0.0647700
2864.17, 0.0648270
2865.76, 0.0647140
2867.34, 0.0646570
2868.93, 0.0646570
2870.52, 0.0645440
2872.11, 0.0643190
2873.7, 0.0639240
2875.29, 0.0635850
2876.89, 0.0633600
2878.49, 0.0629080
2880.08, 0.0625700
2881.69, 0.0622310
2883.29, 0.0618360
2884.89, 0.0614410
2886.5, 0.0611030
2888.11, 0.0607640
2889.72, 0.0603690
2891.33, 0.0599180
2892.94, 0.0594670
2894.56, 0.0589020
2896.17, 0.0585640
2897.79, 0.0582820
2899.42, 0.0580000
2901.04, 0.0577180
2902.66, 0.0573790
2904.29, 0.0571530
2905.92, 0.0570410
2907.55, 0.0569280
2909.18, 0.0568150
2910.81, 0.0565330
2912.45, 0.0564760
2914.08, 0.0565330
2915.72, 0.0564760
2917.36, 0.0564200
2919.01, 0.0564760
2920.65, 0.0564760
2922.3, 0.0565330
2923.94, 0.0567020
2925.59, 0.0570410
2927.25, 0.0572660
2928.9, 0.0575480
2930.56, 0.0577180
2932.21, 0.0580560
2933.87, 0.0585080
2935.53, 0.0588460
2937.2, 0.0590720
2938.86, 0.0594100
2940.53, 0.0599740
2942.2, 0.0607080
2943.87, 0.0612720
2945.54, 0.0617800
2947.22, 0.0621180
2948.89, 0.0625700
2950.57, 0.0631340
2952.25, 0.0639240
2953.93, 0.0646010
2955.62, 0.0650520
2957.3, 0.0656730
2958.99, 0.0664060
2960.68, 0.0671400
2962.37, 0.0678170
2964.07, 0.0683250
2965.76, 0.0690020
2967.46, 0.0697920
2969.16, 0.0706380
2970.86, 0.0712580
2972.56, 0.0719350
2974.27, 0.0726690
2975.98, 0.0735720
2977.69, 0.0744740
2979.4, 0.0754340
2981.11, 0.0762230
2982.83, 0.0771260
2984.54, 0.0780850
2986.26, 0.0790440
2987.98, 0.0800600
2989.71, 0.0811320
2991.43, 0.0822040
2993.16, 0.0832190
2994.89, 0.0841790
2996.62, 0.0851940
2998.35, 0.0863790
3000.09, 0.0876200
3001.83, 0.0888050
3003.57, 0.0899330
3005.31, 0.0910620
3007.05, 0.0924160
3008.79, 0.0936570
3010.54, 0.0948420
3012.29, 0.0961400
3014.04, 0.0973810
3015.8, 0.0985090
3017.55, 0.0999200
3019.31, 0.101274
3021.07, 0.102628
3022.83, 0.104095
3024.59, 0.105393
3026.36, 0.106634
3028.13, 0.107931
3029.9, 0.109286
3031.67, 0.110640
3033.44, 0.111937
3035.22, 0.113291
3037.0, 0.114589
3038.78, 0.116056
3040.56, 0.117410
3042.34, 0.118821
3044.13, 0.120231
3045.92, 0.121754
3047.71, 0.123165
3049.5, 0.124801
3051.3, 0.126381
3053.09, 0.127904
3054.89, 0.129315
3056.69, 0.130894
3058.5, 0.132587
3060.3, 0.134223
3062.11, 0.135690
3063.92, 0.137383
3065.73, 0.139075
3067.55, 0.140711
3069.36, 0.142630
3071.18, 0.144492
3073.0, 0.146184
3074.82, 0.147933
3076.65, 0.149682
3078.48, 0.151431
3080.31, 0.153237
3082.14, 0.154986
3083.97, 0.156735
3085.8, 0.158597
3087.64, 0.160458
3089.48, 0.162320
3091.33, 0.164239
3093.17, 0.166213
3095.02, 0.168075
3096.87, 0.169881
3098.72, 0.171686
3100.57, 0.173548
3102.43, 0.175353
3104.28, 0.177384
3106.14, 0.179190
3108.01, 0.181052
3109.87, 0.182744
3111.74, 0.184550
3113.61, 0.186242
3115.48, 0.187991
3117.35, 0.189797
3119.23, 0.191433
3121.1, 0.193013
3122.98, 0.194593
3124.87, 0.196116
3126.75, 0.197921
3128.64, 0.199614
3130.53, 0.201307
3132.42, 0.202773
3134.31, 0.204353
3136.21, 0.205933
3138.11, 0.207400
3140.01, 0.209036
3141.91, 0.210672
3143.82, 0.212083
3145.73, 0.213493
3147.64, 0.214904
3149.55, 0.216540
3151.46, 0.218007
3153.38, 0.219417
3155.3, 0.220771
3157.22, 0.222182
3159.14, 0.223536
3161.07, 0.225059
3163.0, 0.226639
3164.93, 0.228050
3166.86, 0.229291
3168.8, 0.230645
3170.74, 0.232055
3172.68, 0.233579
3174.62, 0.234933
3176.56, 0.236287
3178.51, 0.237415
3180.46, 0.238826
3182.42, 0.240293
3184.37, 0.241760
3186.33, 0.242944
3188.29, 0.244186
3190.25, 0.245371
3192.21, 0.246668
3194.18, 0.248022
3196.15, 0.249151
3198.12, 0.250336
3200.09, 0.251577
3202.07, 0.252705
3204.05, 0.253834
3206.03, 0.255131
3208.02, 0.256316
3210.0, 0.257501
3211.99, 0.258686
3213.98, 0.259814
3215.98, 0.260830
3217.97, 0.261789
3219.97, 0.262804
3221.97, 0.263820
3223.98, 0.264892
3225.98, 0.265964
3227.99, 0.266979
3230.0, 0.267826
3232.02, 0.268785
3234.03, 0.269744
3236.05, 0.270590
3238.07, 0.271493
3240.1, 0.272396
3242.12, 0.273186
3244.15, 0.273863
3246.18, 0.274596
3248.22, 0.275499
3250.25, 0.276345
3252.29, 0.277079
3254.33, 0.277756
3256.38, 0.278546
3258.43, 0.279166
3260.47, 0.279730
3262.53, 0.280407
3264.58, 0.281141
3266.64, 0.281761
3268.7, 0.282439
3270.76, 0.283003
3272.82, 0.283680
3274.89, 0.284413
3276.96, 0.285090
3279.04, 0.285767
3281.11, 0.286614
3283.19, 0.287291
3285.27, 0.287911
3287.35, 0.288645
3289.44, 0.289435
3291.53, 0.290281
3293.62, 0.291127
3295.71, 0.291691
3297.81, 0.292312
3299.91, 0.293158
3302.01, 0.293835
3304.11, 0.294456
3306.22, 0.295246
3308.33, 0.295866
3310.44, 0.296543
3312.56, 0.297221
3314.68, 0.297785
3316.8, 0.298293
3318.92, 0.298800
3321.05, 0.299365
3323.18, 0.300098
3325.31, 0.300775
3327.44, 0.301339
3329.58, 0.301960
3331.72, 0.302637
3333.86, 0.303314
3336.01, 0.303991
3338.16, 0.304555
3340.31, 0.305232
3342.46, 0.305966
3344.61, 0.306643
3346.77, 0.307150
3348.94, 0.307658
3351.1, 0.308222
3353.27, 0.308730
3355.44, 0.309125
3357.61, 0.309633
3359.79, 0.309915
3361.97, 0.310366
3364.15, 0.310818
3366.33, 0.311213
3368.52, 0.311664
3370.71, 0.312059
3372.9, 0.312567
3375.1, 0.313018
3377.3, 0.313357
3379.5, 0.313808
3381.71, 0.314316
3383.91, 0.314936
3386.12, 0.315501
3388.34, 0.316178
3390.55, 0.316911
3392.77, 0.317588
3394.99, 0.318040
3397.22, 0.318434
3399.45, 0.318717
3401.68, 0.318829
3403.91, 0.318942
3406.15, 0.318999
3408.39, 0.318942
3410.63, 0.319055
3412.87, 0.319281
3415.12, 0.319619
3417.37, 0.320127
3419.63, 0.320973
3421.88, 0.322045
3424.14, 0.323399
3426.41, 0.324753
3428.67, 0.325995
3430.94, 0.327236
3433.21, 0.328477
3435.49, 0.329606
3437.77, 0.330508
3440.05, 0.331355
3442.33, 0.332145
3444.62, 0.332991
3446.91, 0.333894
3449.2, 0.334627
3451.5, 0.335417
3453.8, 0.336150
3456.1, 0.336827
3458.41, 0.337561
3460.72, 0.338351
3463.03, 0.338971
3465.34, 0.339423
3467.66, 0.339930
3469.98, 0.340495
3472.31, 0.340946
3474.63, 0.341172
3476.96, 0.341397
3479.3, 0.341905
3481.64, 0.342244
3483.97, 0.342695
3486.32, 0.343203
3488.66, 0.343541
3491.01, 0.343711
3493.36, 0.343880
3495.72, 0.343936
3498.08, 0.344049
3500.44, 0.344275
3502.81, 0.344670
3505.18, 0.345290
3507.55, 0.346306
3509.92, 0.347434
3512.3, 0.348563
3514.68, 0.349578
3517.06, 0.350650
3519.45, 0.351722
3521.84, 0.352738
3524.24, 0.353641
3526.64, 0.354374
3529.04, 0.354995
3531.44, 0.355728
3533.85, 0.356518
3536.26, 0.357251
3538.67, 0.357872
3541.09, 0.358549
3543.51, 0.359057
3545.93, 0.359508
3548.36, 0.359960
3550.79, 0.360580
3553.22, 0.361201
3555.66, 0.361709
3558.1, 0.362104
3560.54, 0.362498
3562.99, 0.363006
3565.44, 0.363458
3567.9, 0.363853
3570.35, 0.364360
3572.81, 0.364699
3575.28, 0.365094
3577.75, 0.365658
3580.22, 0.366222
3582.69, 0.366730
3585.17, 0.367294
3587.65, 0.367858
3590.14, 0.368366
3592.62, 0.368874
3595.11, 0.369607
3597.61, 0.370172
3600.11, 0.370736
3602.61, 0.371074
3605.11, 0.371526
3607.62, 0.372033
3610.14, 0.372541
3612.65, 0.372936
3615.17, 0.373388
3617.69, 0.373839
3620.22, 0.374290
3622.75, 0.374629
3625.28, 0.374854
3627.82, 0.375137
3630.36, 0.375588
3632.9, 0.376096
3635.45, 0.376434
3638.0, 0.376773
3640.56, 0.377055
3643.12, 0.377450
3645.68, 0.377788
3648.24, 0.378127
3650.81, 0.378578
3653.39, 0.378747
3655.96, 0.379086
3658.54, 0.379481
3661.13, 0.379763
3663.71, 0.380102
3666.3, 0.380496
3668.9, 0.380666
3671.5, 0.380948
3674.1, 0.381230
3676.7, 0.381512
3679.31, 0.381625
3681.93, 0.381681
3684.54, 0.381907
3687.17, 0.382245
3689.79, 0.382528
3692.42, 0.382923
3695.05, 0.383317
3697.69, 0.383656
3700.32, 0.383882
3702.97, 0.384164
3705.61, 0.384559
3708.27, 0.384841
3710.92, 0.385179
3713.58, 0.385574
3716.24, 0.385913
3718.91, 0.386195
3721.58, 0.386251
3724.25, 0.386646
3726.93, 0.387098
3729.61, 0.387380
3732.29, 0.387605
3734.98, 0.387831
3737.67, 0.388057
3740.37, 0.388282
3743.07, 0.388621
3745.78, 0.388847
3748.49, 0.389016
3751.2, 0.389185
3753.91, 0.389411
3756.63, 0.389693
3759.36, 0.389862
3762.09, 0.390088
3764.82, 0.390257
3767.55, 0.390483
3770.29, 0.390539
3773.04, 0.390596
3775.78, 0.390652
3778.54, 0.390765
3781.29, 0.390934
3784.05, 0.391160
3786.82, 0.391386
3789.59, 0.391555
3792.36, 0.391611
3795.13, 0.391780
3797.92, 0.391950
3800.7, 0.392063
3803.49, 0.392119
3806.28, 0.392288
3809.08, 0.392457
3811.88, 0.392570
3814.68, 0.392627
3817.49, 0.392796
3820.31, 0.392965
3823.12, 0.393078
3825.94, 0.393191
3828.77, 0.393247
3831.6, 0.393360
3834.43, 0.393473
3837.27, 0.393529
3840.11, 0.393699
3842.96, 0.393755
3845.81, 0.393868
3848.67, 0.394037
3851.53, 0.394150
3854.39, 0.394263
3857.26, 0.394376
3860.13, 0.394432
3863.01, 0.394489
3865.89, 0.394432
3868.77, 0.394545
3871.66, 0.394432
3874.55, 0.394376
3877.45, 0.394319
3880.35, 0.394432
3883.26, 0.394376
3886.17, 0.394376
3889.09, 0.394319
3892.01, 0.394263
3894.93, 0.394150
3897.86, 0.394150
3900.79, 0.394094
3903.73, 0.394094
3906.67, 0.393981
3909.62, 0.393812
3912.57, 0.393642
3915.52, 0.393586
3918.48, 0.393529
3921.45, 0.393473
3924.42, 0.393304
3927.39, 0.393304
3930.37, 0.393304
3933.35, 0.393247
3936.34, 0.393191
3939.33, 0.393135
3942.32, 0.393135
3945.32, 0.393135
3948.33, 0.393022
3951.34, 0.393078
3954.35, 0.393022
3957.37, 0.392909
3960.39, 0.392965
3963.42, 0.393022
3966.45, 0.393078
3969.49, 0.393135
3972.53, 0.393078
3975.58, 0.393078
3978.63, 0.393135
3981.68, 0.393247
3984.75, 0.393247
3987.81, 0.393247
3990.88, 0.393191
3993.95, 0.393191
3997.03, 0.393191
4000.12, 0.393191
4003.21, 0.393191
4006.3, 0.393191
4009.4, 0.393247
4012.5, 0.393078
4015.61, 0.392909
4018.72, 0.392909
4021.84, 0.392852
4024.96, 0.392796
4028.09, 0.392627
4031.22, 0.392514
4034.36, 0.392401
4037.5, 0.392288
4040.65, 0.392063
4043.8, 0.391950
4046.96, 0.391724
4050.12, 0.391611
4053.29, 0.391498
4056.46, 0.391329
4059.64, 0.391047
4062.82, 0.390878
4066.0, 0.390596
4069.19, 0.390314
4072.39, 0.390088
4075.59, 0.389806
4078.8, 0.389524
4082.01, 0.389242
4085.23, 0.389016
4088.45, 0.388790
4091.68, 0.388565
4094.91, 0.388339
4098.15, 0.388057
4101.39, 0.387831
4104.63, 0.387662
4107.89, 0.387380
4111.14, 0.387041
4114.41, 0.386759
4117.67, 0.386590
4120.95, 0.386364
4124.23, 0.386082
4127.51, 0.385913
4130.8, 0.385744
4134.09, 0.385461
4137.39, 0.385066
4140.7, 0.384728
4144.01, 0.384502
4147.32, 0.384277
4150.64, 0.383938
4153.97, 0.383656
4157.3, 0.383317
4160.64, 0.382979
4163.98, 0.382640
4167.33, 0.382415
4170.68, 0.382133
4174.04, 0.381794
4177.4, 0.381456
4180.77, 0.381117
4184.14, 0.380835
4187.52, 0.380440
4190.91, 0.380102
4194.3, 0.379876
4197.69, 0.379481
4201.1, 0.378973
4204.5, 0.378522
4207.92, 0.378127
4211.34, 0.377619
4214.76, 0.377055
4218.19, 0.376321
4221.62, 0.375701
4225.06, 0.375137
4228.51, 0.374685
4231.96, 0.374177
4235.42, 0.373839
4238.88, 0.373557
4242.35, 0.373444
4245.83, 0.373275
4249.31, 0.373275
4252.79, 0.373275
4256.28, 0.373105
4259.78, 0.372541
4263.29, 0.371808
4266.79, 0.371187
4270.31, 0.370736
4273.83, 0.370397
4277.35, 0.370059
4280.89, 0.369720
4284.42, 0.369382
4287.97, 0.369156
4291.52, 0.368930
4295.07, 0.368705
4298.63, 0.368423
4302.2, 0.368084
4305.78, 0.367689
4309.35, 0.367463
4312.94, 0.367294
4316.53, 0.367068
4320.13, 0.366730
4323.73, 0.366279
4327.34, 0.365884
4330.96, 0.365602
4334.58, 0.365207
4338.21, 0.364868
4341.84, 0.364530
4345.48, 0.364135
4349.12, 0.363740
4352.77, 0.363401
4356.43, 0.363063
4360.1, 0.362555
4363.76, 0.362104
4367.44, 0.361652
4371.12, 0.361257
4374.81, 0.360806
4378.51, 0.360411
4382.21, 0.360016
4385.92, 0.359508
4389.63, 0.359000
4393.35, 0.358606
4397.08, 0.358154
4400.81, 0.357759
4404.55, 0.357195
4408.29, 0.356631
4412.04, 0.356067
4415.8, 0.355559
4419.57, 0.355051
4423.34, 0.354543
4427.12, 0.353923
4430.9, 0.353471
4434.69, 0.352964
4438.49, 0.352399
4442.29, 0.351666
4446.1, 0.351102
4449.92, 0.350481
4453.74, 0.349804
4457.57, 0.349127
4461.41, 0.348619
4465.25, 0.347942
4469.1, 0.347378
4472.95, 0.346757
4476.82, 0.346080
4480.69, 0.345178
4484.56, 0.344388
4488.44, 0.343767
4492.33, 0.343090
4496.23, 0.342357
4500.13, 0.341623
4504.04, 0.340833
4507.96, 0.340043
4511.88, 0.339253
4515.81, 0.338407
4519.75, 0.337561
4523.69, 0.336658
4527.65, 0.335699
4531.6, 0.334627
4535.57, 0.333555
4539.54, 0.332370
4543.52, 0.331242
4547.5, 0.330001
4551.5, 0.328646
4555.5, 0.327292
4559.5, 0.325769
4563.52, 0.324246
4567.54, 0.322722
4571.56, 0.321143
4575.6, 0.319563
4579.64, 0.318040
4583.69, 0.316516
4587.75, 0.314993
4591.81, 0.313526
4595.88, 0.312172
4599.96, 0.310987
4604.04, 0.309915
4608.14, 0.309012
4612.24, 0.308053
4616.34, 0.307038
4620.46, 0.306022
4624.58, 0.304950
4628.71, 0.303935
4632.84, 0.302863
4636.99, 0.301791
4641.14, 0.300493
4645.3, 0.299252
4649.47, 0.297898
4653.64, 0.296543
4657.82, 0.295133
4662.01, 0.293779
4666.21, 0.292425
4670.41, 0.291127
4674.62, 0.289717
4678.84, 0.288306
4683.07, 0.286839
4687.3, 0.285372
4691.54, 0.284018
4695.79, 0.282664
4700.05, 0.281197
4704.31, 0.279730
4708.59, 0.278320
4712.87, 0.276909
4717.15, 0.275555
4721.45, 0.274145
4725.76, 0.272791
4730.07, 0.271493
4734.39, 0.270139
4738.72, 0.268954
4743.05, 0.267713
4747.39, 0.266415
4751.75, 0.265400
4756.1, 0.264384
4760.47, 0.263256
4764.85, 0.262297
4769.23, 0.261281
4773.62, 0.260265
4778.02, 0.259250
4782.43, 0.258291
4786.85, 0.257275
4791.27, 0.256316
4795.7, 0.255300
4800.14, 0.254341
4804.59, 0.253326
4809.05, 0.252254
4813.51, 0.251182
4817.99, 0.249997
4822.47, 0.248925
4826.96, 0.247853
4831.46, 0.246668
4835.96, 0.245483
4840.48, 0.244129
4845.0, 0.242944
4849.54, 0.241816
4854.08, 0.240631
4858.63, 0.239277
4863.18, 0.237980
4867.75, 0.236795
4872.33, 0.235441
4876.91, 0.234030
4881.5, 0.232732
4886.1, 0.231491
4890.71, 0.230250
4895.33, 0.228840
4899.96, 0.227485
4904.59, 0.226188
4909.24, 0.224947
4913.89, 0.223705
4918.55, 0.222520
4923.22, 0.221279
4927.9, 0.220094
4932.59, 0.218966
4937.29, 0.217781
4942.0, 0.216709
4946.71, 0.215750
4951.44, 0.214734
4956.17, 0.213775
4960.91, 0.212985
4965.67, 0.212365
4970.43, 0.211744
4975.2, 0.211180
4979.98, 0.210616
4984.76, 0.210164
4989.56, 0.209657
4994.37, 0.209205
4999.18, 0.208867
5004.01, 0.208528
5008.84, 0.208246
5013.69, 0.207851
5018.54, 0.207287
5023.4, 0.207118
5028.28, 0.207118
5033.16, 0.206949
5038.05, 0.206723
5042.95, 0.206441
5047.86, 0.206102
5052.78, 0.205820
5057.71, 0.205538
5062.65, 0.205256
5067.6, 0.204974
5072.56, 0.204692
5077.53, 0.204240
5082.5, 0.203733
5087.49, 0.203451
5092.49, 0.203225
5097.5, 0.202830
5102.51, 0.202435
5107.54, 0.201984
5112.58, 0.201645
5117.62, 0.201307
5122.68, 0.200855
5127.75, 0.200347
5132.82, 0.199896
5137.91, 0.199332
5143.01, 0.198598
5148.12, 0.198034
5153.23, 0.197978
5158.36, 0.197639
5163.5, 0.197131
5168.65, 0.196624
5173.81, 0.196116
5178.98, 0.195495
5184.15, 0.195044
5189.34, 0.194480
5194.54, 0.193746
5199.75, 0.192900
5204.98, 0.192505
5210.21, 0.191659
5215.45, 0.191151
5220.7, 0.191320
5225.96, 0.190982
5231.23, 0.190474
5236.52, 0.189910
5241.81, 0.189515
5247.12, 0.189176
5252.44, 0.188725
5257.76, 0.188274
5263.1, 0.187822
5268.45, 0.187371
5273.81, 0.186807
5279.18, 0.186242
5284.56, 0.185735
5289.95, 0.184945
5295.36, 0.184606
5300.77, 0.184437
5306.2, 0.183929
5311.63, 0.183534
5317.08, 0.182970
5322.54, 0.182237
5328.01, 0.181560
5333.49, 0.180995
5338.98, 0.180318
5344.49, 0.179077
5350.0, 0.177836
5355.53, 0.177779
5361.07, 0.177723
5366.62, 0.177272
5372.18, 0.176538
5377.75, 0.175918
5383.34, 0.175297
5388.93, 0.174676
5394.54, 0.173999
5400.16, 0.173379
5405.79, 0.172589
5411.44, 0.171799
5417.09, 0.170050
5422.76, 0.168583
5428.43, 0.169373
5434.12, 0.169429
5439.83, 0.168696
5445.54, 0.168019
5451.26, 0.167455
5457.0, 0.166495
5462.75, 0.165085
5468.52, 0.164803
5474.29, 0.164634
5480.08, 0.164126
5485.88, 0.164351
5491.69, 0.164182
5497.51, 0.163787
5503.35, 0.163449
5509.2, 0.163279
5515.06, 0.162772
5520.93, 0.162151
5526.82, 0.161925
5532.71, 0.161869
5538.63, 0.161643
5544.55, 0.161192
5550.49, 0.160458
5556.44, 0.160233
5562.4, 0.160402
5568.37, 0.160064
5574.36, 0.158540
5580.36, 0.157750
5586.37, 0.158992
5592.4, 0.159443
5598.44, 0.158766
5604.49, 0.158315
5610.56, 0.158089
5616.63, 0.157637
5622.73, 0.157525
5628.83, 0.157017
5634.95, 0.155437
5641.08, 0.153462
5647.23, 0.154027
5653.39, 0.154252
5659.56, 0.154196
5665.74, 0.154196
5671.94, 0.152785
5678.15, 0.152165
5684.38, 0.152221
5690.62, 0.151318
5696.87, 0.150980
5703.14, 0.149908
5709.42, 0.147933
5715.72, 0.147538
5722.03, 0.147651
5728.35, 0.147425
5734.69, 0.146636
5741.03, 0.145451
5747.4, 0.144266
5753.78, 0.144210
5760.17, 0.141727
5766.58, 0.138793
5773.0, 0.140204
5779.44, 0.141106
5785.88, 0.140824
5792.35, 0.140317
5798.83, 0.139414
5805.32, 0.138624
5811.83, 0.137270
5818.35, 0.134223
5824.89, 0.133095
5831.45, 0.134223
5838.01, 0.134900
5844.59, 0.134787
5851.19, 0.133885
5857.8, 0.132756
5864.43, 0.131910
5871.07, 0.131346
5877.73, 0.127791
5884.4, 0.127453
5891.09, 0.128073
5897.79, 0.127340
5904.5, 0.129597
5911.23, 0.129992
5917.98, 0.129315
5924.75, 0.128412
5931.53, 0.125365
5938.32, 0.123729
5945.13, 0.126042
5951.96, 0.126606
5958.8, 0.126099
5965.65, 0.124180
5972.53, 0.123616
5979.42, 0.123673
5986.32, 0.122262
5993.24, 0.121924
6000.18, 0.122488
6007.13, 0.121585
6014.1, 0.120344
6021.08, 0.120287
6028.09, 0.119949
6035.1, 0.118595
6042.14, 0.114645
6049.19, 0.110978
6056.25, 0.113573
6063.34, 0.114476
6070.44, 0.112389
6077.55, 0.112107
6084.69, 0.112953
6091.84, 0.112614
6099.0, 0.111824
6106.19, 0.109906
6113.39, 0.108270
6120.61, 0.109624
6127.84, 0.110809
6135.09, 0.110527
6142.36, 0.110188
6149.65, 0.110132
6156.95, 0.109793
6164.27, 0.110301
6171.61, 0.111260
6178.97, 0.110245
6186.34, 0.109737
6193.73, 0.111937
6201.14, 0.113179
6208.57, 0.113573
6216.01, 0.113968
6223.47, 0.114420
6230.95, 0.114758
6238.45, 0.115097
6245.97, 0.115379
6253.5, 0.115661
6261.06, 0.115830
6268.63, 0.115943
6276.21, 0.116112
6283.82, 0.116394
6291.45, 0.116507
6299.1, 0.116677
6306.76, 0.116846
6314.44, 0.117184
6322.14, 0.117523
6329.86, 0.117749
6337.6, 0.116507
6345.35, 0.115887
6353.13, 0.118256
6360.92, 0.118990
6368.74, 0.118369
6376.57, 0.119272
6384.43, 0.120287
6392.3, 0.120626
6400.19, 0.120287
6408.1, 0.116846
6416.03, 0.116000
6423.98, 0.119498
6431.95, 0.121303
6439.94, 0.122601
6447.95, 0.123391
6455.98, 0.123898
6464.03, 0.124124
6472.1, 0.123334
6480.19, 0.122375
6488.31, 0.120626
6496.44, 0.120908
6504.59, 0.124293
6512.76, 0.125365
6520.95, 0.124688
6529.16, 0.125760
6537.4, 0.126042
6545.65, 0.125422
6553.92, 0.124914
6562.22, 0.124463
6570.54, 0.122770
6578.88, 0.123447
6587.23, 0.124350
6595.61, 0.124575
6604.02, 0.125140
6612.44, 0.124914
6620.89, 0.124293
6629.35, 0.121698
6637.84, 0.119892
6646.35, 0.122375
6654.88, 0.124237
6663.44, 0.123729
6672.01, 0.122431
6680.61, 0.121472
6689.23, 0.122093
6697.88, 0.122375
6706.54, 0.121021
6715.23, 0.120570
6723.94, 0.120852
6732.67, 0.121190
6741.42, 0.121021
6750.2, 0.120457
6759.0, 0.120118
6767.82, 0.119103
6776.67, 0.117861
6785.54, 0.116338
6794.44, 0.116112
6803.35, 0.117184
6812.29, 0.117015
6821.26, 0.115661
6830.24, 0.115097
6839.25, 0.115435
6848.29, 0.114250
6857.35, 0.111486
6866.43, 0.110583
6875.54, 0.112501
6884.67, 0.112727
6893.82, 0.112219
6903.0, 0.111204
6912.2, 0.110865
6921.43, 0.110583
6930.69, 0.110019
6939.96, 0.109398
6949.27, 0.108101
6958.59, 0.106182
6967.95, 0.106295
6977.33, 0.106577
6986.73, 0.105618
6996.16, 0.104828
7005.61, 0.104377
7015.09, 0.103474
7024.6, 0.102628
7034.13, 0.101387
7043.69, 0.0995810
7053.27, 0.0994120
7062.88, 0.0996940
7072.52, 0.0990740
7082.18, 0.0983400
7091.87, 0.0976070
7101.58, 0.0969860
7111.32, 0.0960270
7121.09, 0.0952370
7130.88, 0.0946160
7140.71, 0.0936010
7150.56, 0.0927540
7160.43, 0.0920210
7170.33, 0.0910620
7180.27, 0.0908930
7190.23, 0.0904410
7200.21, 0.0893130
7210.23, 0.0884100
7220.27, 0.0881840
7230.34, 0.0876770
7240.44, 0.0870000
7250.56, 0.0861530
7260.72, 0.0854200
7270.9, 0.0844040
7281.12, 0.0836710
7291.36, 0.0831070
7301.63, 0.0823730
7311.93, 0.0815830
7322.25, 0.0808500
7332.61, 0.0797780
7343.0, 0.0791010
7353.41, 0.0786490
7363.86, 0.0780290
7374.33, 0.0772390
7384.83, 0.0765620
7395.37, 0.0758850
7405.93, 0.0751510
7416.53, 0.0744740
7427.15, 0.0738540
7437.81, 0.0732900
7448.5, 0.0726130
7459.22, 0.0717660
7469.96, 0.0712020
7480.74, 0.0706380
7491.55, 0.0700740
7502.39, 0.0693400
7513.27, 0.0687200
7524.17, 0.0680430
7535.11, 0.0673650
7546.08, 0.0665190
7557.08, 0.0657860
7568.11, 0.0650520
7579.17, 0.0643190
7590.27, 0.0635290
7601.4, 0.0627950
7612.56, 0.0620060
7623.76, 0.0613290
7634.98, 0.0606510
7646.24, 0.0600310
7657.54, 0.0593540
7668.87, 0.0585640
7680.23, 0.0577740
7691.62, 0.0570970
7703.05, 0.0563640
7714.51, 0.0556870
7726.01, 0.0549530
7737.54, 0.0542760
7749.11, 0.0534860
7760.71, 0.0526960
7772.35, 0.0519060
7784.02, 0.0512290
7795.72, 0.0503270
7807.46, 0.0495370
7819.23, 0.0488600
7831.04, 0.0480700
7842.89, 0.0472240
7854.77, 0.0463770
7866.69, 0.0455870
7878.65, 0.0447970
7890.64, 0.0438950
7902.67, 0.0431050
7914.74, 0.0423150
7926.84, 0.0415250
7938.98, 0.0406220
7951.16, 0.0397760
7963.37, 0.0388730
7975.62, 0.0380270
7987.91, 0.0371810
8000.24, 0.0363340
8012.6, 0.0353750
8025.01, 0.0345290
8037.45, 0.0337390
8049.93, 0.0330620
8062.45, 0.0322160
8075.01, 0.0313700
8087.61, 0.0305230
8100.24, 0.0297330
8112.91, 0.0289430
8125.63, 0.0282100
8138.39, 0.0273640
8151.18, 0.0265170
8164.02, 0.0257280
8176.9, 0.0249380
8189.81, 0.0239780
8202.77, 0.0232450
8215.77, 0.0224550
8228.82, 0.0217220
8241.9, 0.0209320
8255.02, 0.0201420
8268.19, 0.0194080
8281.39, 0.0188440
8294.65, 0.0181670
8307.94, 0.0174900
8321.28, 0.0168130
8334.66, 0.0161930
8348.08, 0.0154590
8361.54, 0.0149510
8375.05, 0.0145000
8388.6, 0.0139920
8402.2, 0.0134280
8415.84, 0.0130330
8429.52, 0.0126380
8443.25, 0.0122430
8457.02, 0.0119050
8470.84, 0.0117920
8484.7, 0.0115660
8498.61, 0.0113400
8512.57, 0.0111710
8526.57, 0.0111150
8540.62, 0.0110020
8554.71, 0.0108890
8568.85, 0.0109450
8583.04, 0.0112280
8597.27, 0.0113970
8611.55, 0.0116230
8625.88, 0.0118480
8640.26, 0.0120740
8654.68, 0.0125250
8669.16, 0.0130330
8683.68, 0.0135970
8698.25, 0.0143310
8712.87, 0.0151210
8727.53, 0.0159670
8742.25, 0.0169260
8757.02, 0.0180540
8771.83, 0.0190140
8786.7, 0.0203110
8801.62, 0.0218350
8816.59, 0.0234710
8831.61, 0.0249940
8846.68, 0.0266300
8861.8, 0.0284920
8876.97, 0.0306920
8892.2, 0.0328360
8907.48, 0.0350370
8922.81, 0.0374060
8938.2, 0.0399450
8953.63, 0.0425410
8969.13, 0.0453620
8984.67, 0.0482390
9000.27, 0.0512860
9015.92, 0.0543320
9031.63, 0.0572100
9047.39, 0.0598620
9063.21, 0.0624570
9079.08, 0.0648270
9095.01, 0.0670830
9111.0, 0.0691140
9127.04, 0.0709200
9143.13, 0.0725560
9159.28, 0.0742490
9175.49, 0.0764490
9191.76, 0.0790440
9208.09, 0.0815830
9224.47, 0.0840660
9240.92, 0.0865480
9257.42, 0.0888050
9273.98, 0.0904980
9290.6, 0.0917390
9307.28, 0.0923030
9324.02, 0.0923030
9340.82, 0.0919080
9357.68, 0.0914000
9374.6, 0.0909490
9391.58, 0.0906110
9408.62, 0.0905540
9425.73, 0.0910050
9442.9, 0.0919080
9460.13, 0.0931490
9477.42, 0.0947860
9494.78, 0.0967600
9512.2, 0.0992430
9529.69, 0.102177
9547.24, 0.105223
9564.86, 0.108270
9582.54, 0.111204
9600.28, 0.114138
9618.1, 0.116846
9635.97, 0.119046
9653.92, 0.120513
9671.93, 0.121077
9690.01, 0.120739
9708.16, 0.119780
9726.37, 0.118031
9744.65, 0.115661
9763.0, 0.112727
9781.43, 0.109229
9799.92, 0.105449
9818.48, 0.101556
9837.1, 0.0973810
9855.8, 0.0930930
9874.58, 0.0889180
9893.42, 0.0850250
9912.34, 0.0815270
9931.33, 0.0784800
9950.39, 0.0758280
9969.52, 0.0734590
9988.74, 0.0714280
10008.0, 0.0697350
10027.4, 0.0682680
10046.8, 0.0670830
10066.3, 0.0660680
10085.9, 0.0649390
10105.6, 0.0636980
10125.3, 0.0626830
10145.1, 0.0616110
10165.0, 0.0605950
10185.0, 0.0597490
10205.0, 0.0591280
10225.2, 0.0585640
10245.4, 0.0583950
10265.7, 0.0584510
10286.0, 0.0586200
10306.5, 0.0587900
10327.0, 0.0590150
10347.6, 0.0590720
10368.3, 0.0590720
10389.1, 0.0588460
10409.9, 0.0585080
10430.9, 0.0581690
10451.9, 0.0574920
10473.0, 0.0565330
10494.2, 0.0557430
10515.5, 0.0550090
10536.9, 0.0542760
10558.4, 0.0535990
10579.9, 0.0528660
10601.5, 0.0523010
10623.3, 0.0519060
10645.1, 0.0514550
10667.0, 0.0510600
10689.0, 0.0508340
10711.1, 0.0507220
10733.2, 0.0504390
10755.5, 0.0502140
10777.9, 0.0501010
10800.3, 0.0498750
10822.9, 0.0495370
10845.5, 0.0491980
10868.2, 0.0485780
10891.1, 0.0478440
10914.0, 0.0472800
10937.0, 0.0469410
10960.2, 0.0464900
10983.4, 0.0460950
11006.7, 0.0455870
11030.1, 0.0452490
11053.6, 0.0451920
11077.3, 0.0448540
11101.0, 0.0445720
11124.8, 0.0445150
11148.7, 0.0442330
11172.7, 0.0439510
11196.9, 0.0436690
11221.1, 0.0432180
11245.4, 0.0427660
11269.9, 0.0421460
11294.4, 0.0412990
11319.1, 0.0406220
11343.9, 0.0400580
11368.8, 0.0394940
11393.7, 0.0388730
11418.8, 0.0380830
11444.0, 0.0374060
11469.4, 0.0365600
11494.8, 0.0358270
11520.3, 0.0352060
11546.0, 0.0346980
11571.8, 0.0340210
11597.7, 0.0332310
11623.7, 0.0323290
11649.8, 0.0316520
11676.0, 0.0309180
11702.4, 0.0300150
11728.9, 0.0292260
11755.5, 0.0283790
11782.2, 0.0272510
11809.0, 0.0259530
11836.0, 0.0248250
11863.0, 0.0238660
11890.3, 0.0229070
11917.6, 0.0218350
11945.0, 0.0207060
11972.6, 0.0196910
12000.4, 0.0190700
12028.2, 0.0186190
12056.2, 0.0183930
12084.3, 0.0179420
12112.5, 0.0176030
12140.9, 0.0172080
12169.4, 0.0169820
12198.0, 0.0169820
12226.8, 0.0169820
12255.7, 0.0168130
12284.7, 0.0165870
12313.9, 0.0165310
12343.2, 0.0164180
12372.7, 0.0161360
12402.3, 0.0160230
12432.0, 0.0158540
12461.9, 0.0154590
12491.9, 0.0152330
12522.1, 0.0154030
12552.4, 0.0152900
12582.9, 0.0151210
12613.5, 0.0151770
12644.3, 0.0151770
12675.2, 0.0151210
12706.3, 0.0154590
12737.5, 0.0156850
12768.9, 0.0159100
12800.4, 0.0161360
12832.1, 0.0163620
12863.9, 0.0165870
12895.9, 0.0171520
12928.1, 0.0176590
12960.4, 0.0179980
12992.9, 0.0182240
13025.5, 0.0183360
13058.3, 0.0185060
13091.3, 0.0186750
13124.4, 0.0187880
13157.8, 0.0187880
13191.2, 0.0186190
13224.9, 0.0186190
13258.7, 0.0185620
13292.7, 0.0187310
13326.9, 0.0187880
13361.2, 0.0185620
13395.7, 0.0181110
13430.4, 0.0179980
13465.3, 0.0181110
13500.4, 0.0179980
13535.7, 0.0180540
13571.1, 0.0182800
13606.7, 0.0184490
13642.5, 0.0185620
13678.5, 0.0187310
13714.7, 0.0190140
13751.1, 0.0187880
13787.6, 0.0187880
13824.4, 0.0187880
13861.4, 0.0183930
13898.5, 0.0181110
13935.9, 0.0182800
13973.5, 0.0183930
14011.2, 0.0183360
14049.2, 0.0182240
14087.4, 0.0183930
14125.8, 0.0186190
14164.3, 0.0187880
14203.2, 0.0189010
14242.2, 0.0194080
14281.4, 0.0199160
14320.9, 0.0205930
14360.5, 0.0213830
14400.4, 0.0222290
14440.5, 0.0227940
14480.9, 0.0234140
14521.4, 0.0240910
14562.2, 0.0247120
14603.3, 0.0252200
14644.5, 0.0257280
14686.0, 0.0261790
14727.7, 0.0266870
14769.7, 0.0273070
14811.9, 0.0283230
14854.3, 0.0294510
14897.0, 0.0305230
14939.9, 0.0307490
14983.1, 0.0311440
15026.5, 0.0317640
15070.2, 0.0322720
15114.2, 0.0323850
15158.3, 0.0324980
15202.8, 0.0327240
15247.5, 0.0329490
15292.5, 0.0331190
15337.7, 0.0331750
15383.2, 0.0328930
15429.0, 0.0325540
15475.1, 0.0323850
15521.4, 0.0321030
15568.0, 0.0316520
15614.9, 0.0317080
15662.1, 0.0314820
15709.6, 0.0308620
15757.3, 0.0303540
15805.4, 0.0300150
15853.7, 0.0296770
15902.3, 0.0291690
15951.2, 0.0286050
16000.5, 0.0283790
16050.0, 0.0279840
16099.8, 0.0275890
16150.0, 0.0273070
16200.5, 0.0269120
16251.3, 0.0262920
16302.4, 0.0255580
16353.8, 0.0251070
16405.5, 0.0248250
16457.6, 0.0239220
16510.0, 0.0231890
16562.8, 0.0226240
16615.9, 0.0220040
16669.3, 0.0209880
16723.1, 0.0198600
16777.2, 0.0186190
16831.7, 0.0178290
16886.5, 0.0170950
16941.7, 0.0159670
16997.2, 0.0146130
17053.1, 0.0137100
17109.4, 0.0128640
17166.1, 0.0121870
17223.1, 0.0119610
17280.5, 0.0115660
17338.3, 0.0113970
17396.5, 0.0120740
17455.1, 0.0128640
17514.0, 0.0139920
17573.4, 0.0160800
17633.2, 0.0189010
17693.4, 0.0223420
17754.0, 0.0265740
17815.0, 0.0305800
17876.4, 0.0333440
17938.3, 0.0350930
18000.5, 0.0360520
18063.3, 0.0355450
18126.4, 0.0350370
18190.0, 0.0350370
18254.1, 0.0354320
18318.6, 0.0357700
18383.5, 0.0365040
18449.0, 0.0374060
18514.9, 0.0390430
18581.2, 0.0423150
18648.0, 0.0467720
18715.4, 0.0519060
18783.2, 0.0580000
18851.5, 0.0648830
18920.3, 0.0730070
18989.6, 0.0816400
19059.4, 0.0899900
19129.7, 0.0982270
19200.6, 0.105900
19272.0, 0.111768
19343.9, 0.116338
19416.3, 0.119272
19489.3, 0.119892
19562.8, 0.120062
19637.0, 0.120795
19711.6, 0.121077
19786.8, 0.121811
19862.6, 0.121642
19939.0, 0.120852
20016.0, 0.119441
20093.6, 0.118143
20171.8, 0.118651
20250.6, 0.120626
20330.0, 0.123955
20410.0, 0.128581
20490.7, 0.133151
20572.0, 0.137157
20654.0, 0.139922
20736.6, 0.141501
20819.9, 0.142066
20903.8, 0.141727
20988.5, 0.140204
21073.8, 0.137834
21159.8, 0.135013
21246.5, 0.133490
21334.0, 0.129766
21422.1, 0.124519
21511.0, 0.119610
21600.7, 0.114363
21691.0, 0.109060
21782.1, 0.104433
21874.0, 0.100033
21966.7, 0.0983400
22060.2, 0.0965350
22154.5, 0.0958010
22249.6, 0.0963090
22345.5, 0.0969860
22442.2, 0.0970420
22539.8, 0.0959700
22638.2, 0.0936010
22737.5, 0.0904980
22837.7, 0.0868870
22938.7, 0.0829940
23040.7, 0.0798340
23143.5, 0.0776900
23247.3, 0.0766750
23352.1, 0.0770130
23457.7, 0.0761110
23564.4, 0.0735150
23672.0, 0.0709760
23780.5, 0.0690580
23890.1, 0.0686070
24000.7, 0.0712580
24112.3, 0.0726130
24225.0, 0.0709760
24338.7, 0.0685500
24453.5, 0.0674780
