Database of Origin, USGS Spectral Database
Sample Description, See USGS database for additional info
Date Added,2017-07-03 06:06:54.538705

Data ID,USGS_mus23          
Sample ID, muscovite_hs146.15469
Mineral Name, muscovite
Material Class,Phyllosilicate

Wavelength
1389.11, 0.571985
1389.48, 0.571411
1389.85, 0.571028
1390.23, 0.570550
1390.6, 0.570215
1390.97, 0.569306
1391.35, 0.568731
1391.72, 0.567391
1392.09, 0.565668
1392.47, 0.564951
1392.84, 0.564663
1393.21, 0.564185
1393.59, 0.563180
1393.96, 0.561936
1394.34, 0.560548
1394.71, 0.558825
1395.09, 0.557485
1395.46, 0.556288
1395.84, 0.554518
1396.22, 0.552891
1396.59, 0.551742
1396.97, 0.550354
1397.35, 0.548631
1397.72, 0.547196
1398.1, 0.545377
1398.48, 0.543319
1398.85, 0.541022
1399.23, 0.538964
1399.61, 0.537194
1399.99, 0.534944
1400.37, 0.532934
1400.74, 0.530924
1401.12, 0.529106
1401.5, 0.527431
1401.88, 0.525612
1402.26, 0.523698
1402.64, 0.521496
1403.02, 0.519726
1403.4, 0.518051
1403.78, 0.515658
1404.16, 0.513648
1404.54, 0.511399
1404.92, 0.509389
1405.3, 0.508336
1405.68, 0.506804
1406.06, 0.505177
1406.44, 0.503407
1406.83, 0.501444
1407.21, 0.499482
1407.59, 0.498047
1407.97, 0.496324
1408.35, 0.494553
1408.74, 0.492591
1409.12, 0.490581
1409.5, 0.489097
1409.89, 0.487853
1410.27, 0.486178
1410.65, 0.484742
1411.04, 0.483067
1411.42, 0.481775
1411.81, 0.480435
1412.19, 0.479430
1412.58, 0.478808
1412.96, 0.478138
1413.35, 0.477181
1413.73, 0.476367
1414.12, 0.475745
1414.5, 0.475602
1414.89, 0.475889
1415.28, 0.476176
1415.66, 0.476463
1416.05, 0.476846
1416.44, 0.477372
1416.82, 0.477995
1417.21, 0.478425
1417.6, 0.479095
1417.98, 0.480196
1418.37, 0.481153
1418.76, 0.482110
1419.15, 0.483163
1419.54, 0.484168
1419.93, 0.485269
1420.32, 0.486465
1420.71, 0.487422
1421.09, 0.488475
1421.48, 0.489528
1421.88, 0.490533
1422.27, 0.491395
1422.66, 0.492400
1423.05, 0.492974
1423.44, 0.493596
1423.83, 0.494744
1424.22, 0.495845
1424.61, 0.496994
1425.0, 0.497999
1425.39, 0.498956
1425.78, 0.500200
1426.18, 0.501684
1426.57, 0.502689
1426.96, 0.504029
1427.36, 0.505177
1427.75, 0.506087
1428.14, 0.507331
1428.54, 0.508767
1428.93, 0.510107
1429.32, 0.511207
1429.72, 0.512691
1430.11, 0.513887
1430.51, 0.514797
1430.9, 0.515897
1431.3, 0.517046
1431.69, 0.517955
1432.09, 0.519295
1432.48, 0.520492
1432.88, 0.521449
1433.28, 0.522501
1433.67, 0.523363
1434.07, 0.524081
1434.46, 0.524942
1434.86, 0.525899
1435.26, 0.526521
1435.66, 0.527335
1436.05, 0.528005
1436.45, 0.528531
1436.85, 0.529297
1437.25, 0.529680
1437.65, 0.529967
1438.05, 0.530446
1438.44, 0.530637
1438.84, 0.530541
1439.24, 0.531164
1439.64, 0.531977
1440.04, 0.532264
1440.44, 0.532695
1440.84, 0.532886
1441.24, 0.533269
1441.65, 0.533891
1442.05, 0.534274
1442.45, 0.534322
1442.85, 0.534179
1443.25, 0.534609
1443.65, 0.534944
1444.05, 0.534849
1444.46, 0.534609
1444.86, 0.534801
1445.26, 0.535423
1445.67, 0.535566
1446.07, 0.535519
1446.47, 0.535279
1446.88, 0.535710
1447.28, 0.535949
1447.68, 0.535901
1448.09, 0.535854
1448.49, 0.535758
1448.9, 0.535997
1449.3, 0.536093
1449.71, 0.536045
1450.11, 0.535949
1450.52, 0.535997
1450.93, 0.536284
1451.33, 0.536380
1451.74, 0.535949
1452.14, 0.535758
1452.55, 0.535949
1452.96, 0.536045
1453.36, 0.536093
1453.77, 0.536093
1454.18, 0.535806
1454.59, 0.535901
1455.0, 0.535997
1455.41, 0.536236
1455.81, 0.536236
1456.22, 0.536045
1456.63, 0.535901
1457.04, 0.535710
1457.45, 0.535662
1457.86, 0.535519
1458.27, 0.535327
1458.68, 0.535184
1459.09, 0.535327
1459.5, 0.535471
1459.91, 0.535471
1460.32, 0.535184
1460.74, 0.535327
1461.15, 0.535519
1461.56, 0.535710
1461.97, 0.535279
1462.39, 0.534896
1462.8, 0.534896
1463.21, 0.535231
1463.62, 0.535375
1464.04, 0.535136
1464.45, 0.534944
1464.86, 0.534609
1465.28, 0.534753
1465.69, 0.534801
1466.11, 0.534992
1466.52, 0.534944
1466.94, 0.534705
1467.35, 0.534370
1467.77, 0.534514
1468.18, 0.534131
1468.6, 0.534226
1469.02, 0.534609
1469.43, 0.534561
1469.85, 0.534561
1470.27, 0.534179
1470.68, 0.534322
1471.1, 0.534466
1471.52, 0.534561
1471.94, 0.534131
1472.35, 0.533939
1472.77, 0.534131
1473.19, 0.533939
1473.61, 0.534083
1474.03, 0.534179
1474.45, 0.533987
1474.87, 0.534274
1475.29, 0.534561
1475.71, 0.534322
1476.13, 0.534370
1476.55, 0.534370
1476.97, 0.534418
1477.39, 0.534370
1477.81, 0.534226
1478.23, 0.534226
1478.65, 0.534274
1479.07, 0.534226
1479.5, 0.534418
1479.92, 0.534801
1480.34, 0.534992
1480.76, 0.535040
1481.19, 0.534466
1481.61, 0.534418
1482.03, 0.534849
1482.46, 0.535040
1482.88, 0.534849
1483.31, 0.534849
1483.73, 0.534992
1484.16, 0.535040
1484.58, 0.535231
1485.01, 0.535471
1485.43, 0.535327
1485.86, 0.535088
1486.28, 0.534944
1486.71, 0.534992
1487.14, 0.535471
1487.56, 0.535854
1487.99, 0.535901
1488.42, 0.535758
1488.84, 0.535423
1489.27, 0.535423
1489.7, 0.535662
1490.13, 0.536045
1490.56, 0.536045
1490.98, 0.535758
1491.41, 0.535710
1491.84, 0.536093
1492.27, 0.536524
1492.7, 0.536763
1493.13, 0.536763
1493.56, 0.536667
1493.99, 0.536667
1494.42, 0.536763
1494.85, 0.536476
1495.29, 0.536858
1495.72, 0.537098
1496.15, 0.537289
1496.58, 0.537289
1497.01, 0.537241
1497.44, 0.537098
1497.88, 0.537098
1498.31, 0.537241
1498.74, 0.537720
1499.18, 0.537481
1499.61, 0.537002
1500.04, 0.537146
1500.48, 0.537337
1500.91, 0.537576
1501.35, 0.537720
1501.78, 0.537816
1502.22, 0.538055
1502.65, 0.538103
1503.09, 0.538199
1503.53, 0.538438
1503.96, 0.538629
1504.4, 0.538486
1504.83, 0.538581
1505.27, 0.538677
1505.71, 0.538390
1506.15, 0.538390
1506.58, 0.538629
1507.02, 0.539012
1507.46, 0.539204
1507.9, 0.539108
1508.34, 0.538869
1508.78, 0.538629
1509.21, 0.538821
1509.66, 0.538916
1510.09, 0.538916
1510.53, 0.538869
1510.97, 0.539156
1511.42, 0.539347
1511.86, 0.539586
1512.3, 0.539586
1512.74, 0.539586
1513.18, 0.539682
1513.62, 0.539730
1514.06, 0.539969
1514.51, 0.539969
1514.95, 0.539874
1515.39, 0.539778
1515.83, 0.539874
1516.28, 0.540113
1516.72, 0.540543
1517.16, 0.540639
1517.61, 0.540352
1518.05, 0.540639
1518.5, 0.540735
1518.94, 0.540496
1519.39, 0.540352
1519.83, 0.540639
1520.28, 0.540687
1520.73, 0.540591
1521.17, 0.540879
1521.62, 0.540879
1522.07, 0.540879
1522.51, 0.540783
1522.96, 0.540926
1523.41, 0.541070
1523.85, 0.541118
1524.3, 0.541309
1524.75, 0.541261
1525.2, 0.541166
1525.65, 0.541309
1526.1, 0.541118
1526.55, 0.541070
1527.0, 0.541261
1527.45, 0.541357
1527.9, 0.541453
1528.35, 0.541453
1528.8, 0.541405
1529.25, 0.541692
1529.7, 0.541692
1530.15, 0.541596
1530.6, 0.541692
1531.05, 0.541931
1531.51, 0.542123
1531.96, 0.542314
1532.41, 0.542266
1532.87, 0.542123
1533.32, 0.542314
1533.77, 0.542410
1534.23, 0.542314
1534.68, 0.542458
1535.14, 0.542793
1535.59, 0.542889
1536.05, 0.542841
1536.5, 0.542984
1536.96, 0.543032
1537.41, 0.543271
1537.87, 0.543271
1538.32, 0.543367
1538.78, 0.543415
1539.24, 0.543415
1539.7, 0.543558
1540.15, 0.543750
1540.61, 0.543894
1541.07, 0.543894
1541.53, 0.543894
1541.98, 0.544037
1542.44, 0.544181
1542.9, 0.544276
1543.36, 0.544420
1543.82, 0.544755
1544.28, 0.544946
1544.74, 0.544946
1545.2, 0.544899
1545.66, 0.545281
1546.12, 0.545329
1546.59, 0.545138
1547.05, 0.545090
1547.51, 0.545233
1547.97, 0.545233
1548.43, 0.545569
1548.9, 0.545808
1549.36, 0.545904
1549.82, 0.545999
1550.29, 0.545904
1550.75, 0.545999
1551.21, 0.546191
1551.68, 0.546430
1552.14, 0.546621
1552.61, 0.546717
1553.07, 0.546621
1553.54, 0.546669
1554.0, 0.546765
1554.47, 0.547100
1554.93, 0.547052
1555.4, 0.547196
1555.87, 0.547243
1556.34, 0.547291
1556.8, 0.547387
1557.27, 0.547531
1557.74, 0.547674
1558.21, 0.547722
1558.68, 0.547961
1559.14, 0.548057
1559.61, 0.547818
1560.08, 0.548057
1560.55, 0.548249
1561.02, 0.548392
1561.49, 0.548631
1561.96, 0.548871
1562.43, 0.548966
1562.9, 0.549062
1563.38, 0.549014
1563.85, 0.549110
1564.32, 0.549349
1564.79, 0.549589
1565.26, 0.549541
1565.74, 0.549636
1566.21, 0.549732
1566.68, 0.549971
1567.16, 0.550163
1567.63, 0.550115
1568.1, 0.550067
1568.58, 0.550258
1569.05, 0.550498
1569.53, 0.550833
1570.0, 0.550785
1570.48, 0.550737
1570.96, 0.550785
1571.43, 0.551024
1571.91, 0.551264
1572.39, 0.551407
1572.86, 0.551455
1573.34, 0.551646
1573.82, 0.551503
1574.3, 0.551359
1574.77, 0.551646
1575.25, 0.551981
1575.73, 0.552077
1576.21, 0.552221
1576.69, 0.552173
1577.17, 0.552316
1577.65, 0.552316
1578.13, 0.552412
1578.61, 0.552556
1579.09, 0.552603
1579.57, 0.552651
1580.05, 0.552747
1580.54, 0.552986
1581.02, 0.553082
1581.5, 0.553178
1581.98, 0.553369
1582.47, 0.553561
1582.95, 0.553848
1583.43, 0.553656
1583.92, 0.553513
1584.4, 0.553561
1584.88, 0.553704
1585.37, 0.553896
1585.85, 0.553991
1586.34, 0.554039
1586.82, 0.553896
1587.31, 0.554183
1587.8, 0.554518
1588.28, 0.554661
1588.77, 0.554566
1589.26, 0.554661
1589.74, 0.554853
1590.23, 0.555092
1590.72, 0.555236
1591.21, 0.555188
1591.7, 0.555188
1592.19, 0.555379
1592.67, 0.555475
1593.16, 0.555283
1593.65, 0.555666
1594.14, 0.555906
1594.63, 0.556001
1595.12, 0.555762
1595.61, 0.555762
1596.11, 0.555953
1596.6, 0.556241
1597.09, 0.556336
1597.58, 0.556432
1598.08, 0.556528
1598.57, 0.556767
1599.06, 0.556958
1599.55, 0.557006
1600.05, 0.556911
1600.54, 0.557150
1601.04, 0.557389
1601.53, 0.557628
1602.03, 0.557820
1602.52, 0.557963
1603.02, 0.557963
1603.51, 0.558107
1604.01, 0.558490
1604.5, 0.558394
1605.0, 0.558681
1605.5, 0.558921
1606.0, 0.558921
1606.49, 0.559160
1606.99, 0.559351
1607.49, 0.559303
1607.99, 0.559303
1608.49, 0.559543
1608.99, 0.559782
1609.49, 0.559830
1609.99, 0.559878
1610.49, 0.560117
1610.99, 0.560069
1611.49, 0.560404
1611.99, 0.560643
1612.49, 0.560787
1612.99, 0.560835
1613.49, 0.560691
1614.0, 0.560739
1614.5, 0.561122
1615.0, 0.561409
1615.51, 0.561553
1616.01, 0.561505
1616.51, 0.561696
1617.02, 0.561888
1617.52, 0.562079
1618.03, 0.562127
1618.53, 0.562223
1619.04, 0.562366
1619.54, 0.562558
1620.05, 0.562653
1620.55, 0.562845
1621.06, 0.562941
1621.57, 0.562941
1622.08, 0.562845
1622.58, 0.563084
1623.09, 0.563706
1623.6, 0.563706
1624.11, 0.563754
1624.62, 0.563802
1625.13, 0.563754
1625.64, 0.564089
1626.15, 0.564328
1626.66, 0.564328
1627.17, 0.564424
1627.68, 0.564472
1628.19, 0.564663
1628.7, 0.564711
1629.21, 0.564998
1629.72, 0.565046
1630.24, 0.565094
1630.75, 0.565142
1631.26, 0.565477
1631.78, 0.565668
1632.29, 0.565812
1632.8, 0.565812
1633.32, 0.565716
1633.83, 0.566003
1634.35, 0.565956
1634.86, 0.566099
1635.38, 0.566099
1635.9, 0.565956
1636.41, 0.566291
1636.93, 0.566769
1637.45, 0.566673
1637.96, 0.566721
1638.48, 0.566961
1639.0, 0.567056
1639.52, 0.566865
1640.04, 0.567056
1640.56, 0.567295
1641.08, 0.567391
1641.59, 0.567248
1642.11, 0.567200
1642.63, 0.567439
1643.16, 0.567439
1643.68, 0.567583
1644.2, 0.567870
1644.72, 0.567966
1645.24, 0.567918
1645.76, 0.568109
1646.29, 0.568396
1646.81, 0.568348
1647.33, 0.568444
1647.86, 0.568396
1648.38, 0.568348
1648.9, 0.568540
1649.43, 0.568444
1649.95, 0.568588
1650.48, 0.568779
1651.0, 0.569114
1651.53, 0.569401
1652.06, 0.569497
1652.58, 0.569497
1653.11, 0.569401
1653.64, 0.569258
1654.17, 0.569401
1654.69, 0.569497
1655.22, 0.569449
1655.75, 0.569306
1656.28, 0.569401
1656.81, 0.569401
1657.34, 0.569545
1657.87, 0.570023
1658.4, 0.570119
1658.93, 0.570071
1659.46, 0.569976
1659.99, 0.570071
1660.52, 0.570358
1661.05, 0.570358
1661.59, 0.570550
1662.12, 0.570693
1662.65, 0.570646
1663.19, 0.570454
1663.72, 0.570358
1664.26, 0.570598
1664.79, 0.570933
1665.32, 0.571172
1665.86, 0.571124
1666.39, 0.571172
1666.93, 0.571459
1667.47, 0.571603
1668.0, 0.571651
1668.54, 0.571842
1669.08, 0.571698
1669.61, 0.571794
1670.15, 0.571842
1670.69, 0.572129
1671.23, 0.572273
1671.77, 0.572081
1672.31, 0.572081
1672.85, 0.572177
1673.39, 0.572368
1673.93, 0.572655
1674.47, 0.572751
1675.01, 0.572895
1675.55, 0.572895
1676.09, 0.572895
1676.64, 0.573086
1677.18, 0.573230
1677.72, 0.573230
1678.26, 0.573278
1678.81, 0.573373
1679.35, 0.573517
1679.89, 0.573852
1680.44, 0.574187
1680.98, 0.573995
1681.53, 0.574139
1682.07, 0.574235
1682.62, 0.574426
1683.17, 0.574522
1683.71, 0.574570
1684.26, 0.574618
1684.81, 0.574761
1685.36, 0.575048
1685.9, 0.575144
1686.45, 0.575288
1687.0, 0.575288
1687.55, 0.575527
1688.1, 0.575575
1688.65, 0.575670
1689.2, 0.575862
1689.75, 0.575910
1690.3, 0.576005
1690.85, 0.576053
1691.41, 0.576101
1691.96, 0.576293
1692.51, 0.576580
1693.06, 0.576628
1693.61, 0.576580
1694.17, 0.576675
1694.72, 0.576915
1695.28, 0.577154
1695.83, 0.577202
1696.39, 0.577058
1696.94, 0.577202
1697.5, 0.577441
1698.05, 0.577633
1698.61, 0.577585
1699.17, 0.577489
1699.72, 0.577680
1700.28, 0.577920
1700.84, 0.578063
1701.4, 0.577968
1701.95, 0.578063
1702.51, 0.578207
1703.07, 0.578207
1703.63, 0.578303
1704.19, 0.578685
1704.75, 0.578877
1705.31, 0.578973
1705.88, 0.579021
1706.44, 0.578829
1707.0, 0.578877
1707.56, 0.579021
1708.12, 0.579116
1708.69, 0.579260
1709.25, 0.579499
1709.81, 0.579451
1710.38, 0.579355
1710.94, 0.579595
1711.51, 0.579834
1712.07, 0.579786
1712.64, 0.579690
1713.2, 0.579690
1713.77, 0.579834
1714.34, 0.580121
1714.9, 0.580217
1715.47, 0.580217
1716.04, 0.580408
1716.61, 0.580504
1717.18, 0.580456
1717.74, 0.580313
1718.31, 0.580360
1718.88, 0.580743
1719.45, 0.580983
1720.02, 0.580983
1720.59, 0.580935
1721.17, 0.580935
1721.74, 0.581222
1722.31, 0.581461
1722.88, 0.581509
1723.45, 0.581605
1724.03, 0.581557
1724.6, 0.581318
1725.18, 0.581365
1725.75, 0.581653
1726.33, 0.582035
1726.9, 0.582083
1727.48, 0.582035
1728.05, 0.581892
1728.63, 0.582035
1729.2, 0.582083
1729.78, 0.582035
1730.36, 0.582179
1730.94, 0.582370
1731.51, 0.582370
1732.09, 0.582466
1732.67, 0.582658
1733.25, 0.582801
1733.83, 0.582658
1734.41, 0.582658
1734.99, 0.582849
1735.57, 0.582945
1736.15, 0.583040
1736.73, 0.583184
1737.32, 0.583136
1737.9, 0.583184
1738.48, 0.583375
1739.07, 0.583663
1739.65, 0.583663
1740.23, 0.583710
1740.82, 0.583758
1741.4, 0.583758
1741.99, 0.583902
1742.57, 0.584093
1743.16, 0.584380
1743.74, 0.584524
1744.33, 0.584572
1744.92, 0.584620
1745.51, 0.584620
1746.09, 0.584715
1746.68, 0.584811
1747.27, 0.585050
1747.86, 0.585194
1748.45, 0.585242
1749.04, 0.585290
1749.63, 0.585625
1750.22, 0.585673
1750.81, 0.585529
1751.4, 0.585625
1751.99, 0.585529
1752.59, 0.585720
1753.18, 0.585960
1753.77, 0.585960
1754.37, 0.585960
1754.96, 0.586295
1755.56, 0.586486
1756.15, 0.586343
1756.74, 0.586534
1757.34, 0.586486
1757.94, 0.586438
1758.53, 0.586630
1759.13, 0.586582
1759.73, 0.586582
1760.32, 0.586821
1760.92, 0.586869
1761.52, 0.586725
1762.12, 0.587013
1762.72, 0.587443
1763.32, 0.587539
1763.92, 0.587348
1764.52, 0.587300
1765.12, 0.587156
1765.72, 0.587013
1766.32, 0.587395
1766.92, 0.587730
1767.53, 0.587778
1768.13, 0.587778
1768.73, 0.587922
1769.34, 0.587922
1769.94, 0.587826
1770.55, 0.587922
1771.15, 0.588161
1771.76, 0.588257
1772.36, 0.588113
1772.97, 0.588161
1773.57, 0.588305
1774.18, 0.588113
1774.79, 0.588257
1775.4, 0.588305
1776.0, 0.588257
1776.61, 0.588544
1777.22, 0.588783
1777.83, 0.588592
1778.44, 0.588640
1779.05, 0.588400
1779.66, 0.588544
1780.27, 0.588688
1780.88, 0.588592
1781.5, 0.588688
1782.11, 0.588688
1782.72, 0.588688
1783.33, 0.588688
1783.95, 0.588688
1784.56, 0.588640
1785.18, 0.588783
1785.79, 0.588783
1786.41, 0.588831
1787.02, 0.588879
1787.64, 0.588735
1788.26, 0.588688
1788.87, 0.588831
1789.49, 0.588783
1790.11, 0.589118
1790.73, 0.589166
1791.35, 0.588879
1791.96, 0.588975
1792.58, 0.589118
1793.21, 0.589166
1793.83, 0.589166
1794.45, 0.589118
1795.07, 0.589023
1795.69, 0.589166
1796.31, 0.589166
1796.93, 0.589262
1797.56, 0.589166
1798.18, 0.589118
1798.8, 0.589262
1799.43, 0.589358
1800.05, 0.589214
1800.68, 0.589166
1801.3, 0.589070
1801.93, 0.588975
1802.56, 0.589166
1803.18, 0.589262
1803.81, 0.589214
1804.44, 0.589166
1805.07, 0.589166
1805.7, 0.589118
1806.33, 0.589166
1806.95, 0.589214
1807.58, 0.589166
1808.22, 0.589070
1808.85, 0.588975
1809.48, 0.589214
1810.11, 0.589214
1810.74, 0.588975
1811.38, 0.588831
1812.01, 0.589070
1812.64, 0.589023
1813.28, 0.589023
1813.91, 0.588975
1814.55, 0.588879
1815.18, 0.588735
1815.82, 0.588879
1816.45, 0.589023
1817.09, 0.589166
1817.73, 0.588927
1818.36, 0.588975
1819.0, 0.589070
1819.64, 0.588688
1820.28, 0.588305
1820.92, 0.588688
1821.56, 0.588783
1822.2, 0.588927
1822.84, 0.589023
1823.48, 0.589166
1824.12, 0.589310
1824.76, 0.589358
1825.41, 0.588879
1826.05, 0.588113
1826.69, 0.588544
1827.34, 0.589023
1827.98, 0.588783
1828.63, 0.588592
1829.27, 0.588783
1829.92, 0.588831
1830.56, 0.588544
1831.21, 0.588688
1831.86, 0.589023
1832.5, 0.589070
1833.15, 0.589023
1833.8, 0.588927
1834.45, 0.588400
1835.1, 0.588018
1835.75, 0.587730
1836.4, 0.587778
1837.05, 0.587635
1837.7, 0.587587
1838.35, 0.588209
1839.01, 0.587874
1839.66, 0.587252
1840.31, 0.587683
1840.96, 0.587683
1841.62, 0.586965
1842.27, 0.587539
1842.93, 0.588113
1843.58, 0.588257
1844.24, 0.588400
1844.9, 0.588496
1845.55, 0.588209
1846.21, 0.587252
1846.87, 0.586630
1847.53, 0.586917
1848.18, 0.587300
1848.84, 0.588065
1849.5, 0.588353
1850.16, 0.588400
1850.82, 0.588496
1851.48, 0.588496
1852.14, 0.588305
1852.81, 0.588065
1853.47, 0.587539
1854.13, 0.587970
1854.8, 0.588831
1855.46, 0.589023
1856.12, 0.588592
1856.79, 0.588640
1857.45, 0.589310
1858.12, 0.589549
1858.79, 0.589118
1859.45, 0.588544
1860.12, 0.588927
1860.79, 0.589501
1861.46, 0.590028
1862.12, 0.589980
1862.79, 0.589884
1863.46, 0.589597
1864.13, 0.589740
1864.8, 0.590028
1865.48, 0.590123
1866.15, 0.589932
1866.82, 0.589358
1867.49, 0.588496
1868.16, 0.588831
1868.84, 0.589262
1869.51, 0.589262
1870.19, 0.588353
1870.86, 0.587826
1871.54, 0.589023
1872.21, 0.588831
1872.89, 0.588018
1873.56, 0.588209
1874.24, 0.588640
1874.92, 0.588544
1875.6, 0.588640
1876.28, 0.588209
1876.96, 0.587922
1877.64, 0.588305
1878.32, 0.588592
1879.0, 0.588496
1879.68, 0.588400
1880.36, 0.588305
1881.04, 0.588065
1881.73, 0.588113
1882.41, 0.588065
1883.09, 0.587778
1883.78, 0.587300
1884.46, 0.587491
1885.15, 0.587778
1885.83, 0.587826
1886.52, 0.587874
1887.21, 0.587970
1887.89, 0.587970
1888.58, 0.587826
1889.27, 0.587395
1889.96, 0.586917
1890.65, 0.587252
1891.34, 0.587395
1892.03, 0.587348
1892.72, 0.587491
1893.41, 0.587204
1894.1, 0.587204
1894.79, 0.587156
1895.49, 0.587013
1896.18, 0.586965
1896.87, 0.586917
1897.57, 0.586630
1898.26, 0.586343
1898.96, 0.585673
1899.65, 0.585290
1900.35, 0.585625
1901.05, 0.586008
1901.74, 0.585768
1902.44, 0.585290
1903.14, 0.585481
1903.84, 0.585768
1904.54, 0.585338
1905.24, 0.585003
1905.94, 0.585003
1906.64, 0.584907
1907.34, 0.585385
1908.04, 0.585529
1908.75, 0.585290
1909.45, 0.585385
1910.15, 0.585242
1910.86, 0.585098
1911.56, 0.585146
1912.27, 0.585146
1912.97, 0.584763
1913.68, 0.584763
1914.39, 0.585194
1915.09, 0.585338
1915.8, 0.585290
1916.51, 0.585433
1917.22, 0.585673
1917.93, 0.585816
1918.64, 0.585577
1919.35, 0.585146
1920.06, 0.584763
1920.77, 0.584955
1921.48, 0.585673
1922.19, 0.585768
1922.91, 0.585720
1923.62, 0.585385
1924.33, 0.585577
1925.05, 0.585816
1925.76, 0.585912
1926.48, 0.586008
1927.19, 0.585912
1927.91, 0.585768
1928.63, 0.585864
1929.35, 0.586151
1930.07, 0.586151
1930.78, 0.586343
1931.5, 0.586534
1932.22, 0.586438
1932.94, 0.586486
1933.66, 0.586486
1934.39, 0.586678
1935.11, 0.586821
1935.83, 0.586725
1936.55, 0.586678
1937.28, 0.586773
1938.0, 0.586773
1938.73, 0.586773
1939.45, 0.586965
1940.18, 0.587060
1940.9, 0.587108
1941.63, 0.587252
1942.36, 0.587300
1943.09, 0.587156
1943.81, 0.587204
1944.54, 0.587204
1945.27, 0.587204
1946.0, 0.587252
1946.73, 0.587252
1947.47, 0.587204
1948.2, 0.587300
1948.93, 0.587395
1949.66, 0.587395
1950.4, 0.587395
1951.13, 0.587443
1951.86, 0.587252
1952.6, 0.587204
1953.34, 0.587300
1954.07, 0.587060
1954.81, 0.587348
1955.55, 0.587491
1956.29, 0.587300
1957.02, 0.587156
1957.76, 0.587156
1958.5, 0.587060
1959.24, 0.586965
1959.98, 0.587108
1960.72, 0.586917
1961.47, 0.586821
1962.21, 0.586725
1962.95, 0.586582
1963.7, 0.586390
1964.44, 0.586582
1965.18, 0.586486
1965.93, 0.586295
1966.67, 0.586343
1967.42, 0.586343
1968.17, 0.586390
1968.92, 0.586295
1969.66, 0.586151
1970.41, 0.586199
1971.16, 0.586199
1971.91, 0.586103
1972.66, 0.586151
1973.41, 0.586055
1974.16, 0.586008
1974.92, 0.585912
1975.67, 0.585768
1976.42, 0.585720
1977.18, 0.585816
1977.93, 0.585864
1978.69, 0.585720
1979.44, 0.585720
1980.2, 0.585720
1980.95, 0.585673
1981.71, 0.585481
1982.47, 0.585529
1983.23, 0.585433
1983.99, 0.585338
1984.74, 0.585481
1985.51, 0.585481
1986.27, 0.585385
1987.03, 0.585433
1987.79, 0.585098
1988.55, 0.585003
1989.32, 0.585146
1990.08, 0.585194
1990.84, 0.585098
1991.61, 0.585098
1992.37, 0.584955
1993.14, 0.585050
1993.9, 0.585146
1994.67, 0.585098
1995.44, 0.585098
1996.21, 0.585146
1996.98, 0.584955
1997.75, 0.584859
1998.52, 0.584907
1999.29, 0.585050
2000.06, 0.585098
2000.83, 0.585050
2001.6, 0.585003
2002.38, 0.585003
2003.15, 0.585003
2003.93, 0.584955
2004.7, 0.585003
2005.48, 0.585050
2006.25, 0.585098
2007.03, 0.585242
2007.81, 0.585433
2008.58, 0.585433
2009.36, 0.585338
2010.14, 0.585433
2010.92, 0.585529
2011.7, 0.585625
2012.48, 0.585577
2013.26, 0.585577
2014.05, 0.585625
2014.83, 0.585816
2015.61, 0.585912
2016.4, 0.585864
2017.18, 0.585960
2017.97, 0.585960
2018.75, 0.585864
2019.54, 0.585720
2020.32, 0.585673
2021.11, 0.585673
2021.9, 0.585673
2022.69, 0.585864
2023.48, 0.585768
2024.27, 0.585720
2025.06, 0.585720
2025.85, 0.585864
2026.64, 0.585912
2027.44, 0.585816
2028.23, 0.585481
2029.02, 0.585385
2029.82, 0.585625
2030.61, 0.585673
2031.41, 0.585673
2032.2, 0.585529
2033.0, 0.585338
2033.8, 0.585338
2034.6, 0.585481
2035.4, 0.585481
2036.2, 0.585481
2037.0, 0.585433
2037.8, 0.585242
2038.6, 0.585290
2039.4, 0.585385
2040.2, 0.585194
2041.01, 0.585194
2041.81, 0.585242
2042.61, 0.585146
2043.42, 0.585050
2044.22, 0.584811
2045.03, 0.584811
2045.84, 0.584715
2046.65, 0.584620
2047.46, 0.584620
2048.26, 0.584620
2049.07, 0.584715
2049.88, 0.584524
2050.69, 0.584237
2051.51, 0.584093
2052.32, 0.584141
2053.13, 0.583950
2053.94, 0.583854
2054.76, 0.583950
2055.57, 0.583806
2056.39, 0.583710
2057.2, 0.583567
2058.02, 0.583471
2058.84, 0.583328
2059.66, 0.583423
2060.48, 0.583375
2061.29, 0.583088
2062.11, 0.582849
2062.94, 0.582753
2063.76, 0.582705
2064.58, 0.582658
2065.4, 0.582466
2066.22, 0.582275
2067.05, 0.582179
2067.87, 0.582227
2068.7, 0.582083
2069.52, 0.581844
2070.35, 0.581653
2071.18, 0.581365
2072.0, 0.581222
2072.83, 0.581126
2073.66, 0.581078
2074.49, 0.580983
2075.32, 0.580839
2076.15, 0.580648
2076.98, 0.580456
2077.82, 0.580265
2078.65, 0.580121
2079.48, 0.579978
2080.32, 0.579643
2081.15, 0.579499
2081.99, 0.579403
2082.83, 0.579164
2083.66, 0.578877
2084.5, 0.578590
2085.34, 0.578350
2086.18, 0.578303
2087.02, 0.578015
2087.86, 0.577489
2088.7, 0.577250
2089.54, 0.576867
2090.39, 0.576628
2091.23, 0.576484
2092.07, 0.576149
2092.92, 0.575862
2093.76, 0.575527
2094.61, 0.575048
2095.45, 0.574570
2096.3, 0.574187
2097.15, 0.573852
2098.0, 0.573517
2098.85, 0.573182
2099.7, 0.572703
2100.55, 0.572416
2101.4, 0.572081
2102.25, 0.571555
2103.1, 0.571028
2103.96, 0.570598
2104.81, 0.570310
2105.67, 0.569976
2106.52, 0.569641
2107.38, 0.569258
2108.24, 0.568636
2109.09, 0.568348
2109.95, 0.568061
2110.81, 0.567870
2111.67, 0.567678
2112.53, 0.567439
2113.39, 0.567152
2114.25, 0.566721
2115.12, 0.566291
2115.98, 0.566003
2116.84, 0.565764
2117.71, 0.565621
2118.58, 0.565333
2119.44, 0.565094
2120.31, 0.564998
2121.18, 0.564855
2122.04, 0.564711
2122.91, 0.564424
2123.78, 0.564472
2124.65, 0.564520
2125.52, 0.564424
2126.4, 0.564328
2127.27, 0.564281
2128.14, 0.564472
2129.02, 0.564568
2129.89, 0.564568
2130.77, 0.564472
2131.64, 0.564568
2132.52, 0.564711
2133.4, 0.564759
2134.27, 0.564855
2135.15, 0.564807
2136.03, 0.564807
2136.91, 0.564759
2137.79, 0.564998
2138.68, 0.565142
2139.56, 0.564903
2140.44, 0.564711
2141.33, 0.564711
2142.21, 0.564663
2143.1, 0.564568
2143.99, 0.564424
2144.87, 0.563993
2145.76, 0.563706
2146.65, 0.563515
2147.54, 0.563323
2148.43, 0.563036
2149.32, 0.562749
2150.21, 0.562414
2151.1, 0.562127
2151.99, 0.561840
2152.89, 0.561648
2153.78, 0.561170
2154.68, 0.560739
2155.57, 0.560261
2156.47, 0.559638
2157.37, 0.559064
2158.27, 0.558394
2159.16, 0.557868
2160.06, 0.557341
2160.96, 0.556671
2161.86, 0.555953
2162.77, 0.555283
2163.67, 0.554422
2164.57, 0.553561
2165.48, 0.552651
2166.38, 0.551598
2167.29, 0.550498
2168.2, 0.549589
2169.1, 0.548488
2170.01, 0.547148
2170.92, 0.545951
2171.83, 0.544516
2172.74, 0.543080
2173.65, 0.541501
2174.56, 0.539826
2175.47, 0.538055
2176.39, 0.536189
2177.3, 0.534035
2178.22, 0.531642
2179.13, 0.529345
2180.05, 0.526856
2180.96, 0.524033
2181.88, 0.521018
2182.8, 0.517907
2183.72, 0.514844
2184.64, 0.511590
2185.56, 0.508097
2186.48, 0.504555
2187.41, 0.500774
2188.33, 0.496850
2189.25, 0.492734
2190.18, 0.488619
2191.1, 0.484599
2192.03, 0.480579
2192.96, 0.476511
2193.89, 0.472491
2194.82, 0.468758
2195.74, 0.465217
2196.68, 0.461580
2197.61, 0.458421
2198.54, 0.455358
2199.47, 0.452487
2200.4, 0.449998
2201.34, 0.447701
2202.28, 0.445643
2203.21, 0.443825
2204.15, 0.442150
2205.08, 0.440906
2206.02, 0.440044
2206.96, 0.439326
2207.9, 0.438800
2208.84, 0.438481
2209.78, 0.438853
2210.73, 0.439278
2211.67, 0.439916
2212.61, 0.441138
2213.56, 0.442413
2214.5, 0.444219
2215.45, 0.446451
2216.4, 0.448788
2217.35, 0.451338
2218.3, 0.454048
2219.24, 0.456970
2220.2, 0.459945
2221.15, 0.463133
2222.1, 0.467065
2223.05, 0.470625
2224.0, 0.473972
2224.96, 0.476681
2225.91, 0.479604
2226.87, 0.482313
2227.83, 0.484651
2228.79, 0.487361
2229.74, 0.489379
2230.7, 0.491026
2231.66, 0.492567
2232.63, 0.493577
2233.59, 0.494374
2234.55, 0.495542
2235.51, 0.496658
2236.48, 0.497615
2237.44, 0.498305
2238.41, 0.498783
2239.38, 0.499421
2240.34, 0.500059
2241.31, 0.500696
2242.28, 0.501652
2243.25, 0.502928
2244.22, 0.504043
2245.19, 0.505797
2246.17, 0.507284
2247.14, 0.508772
2248.12, 0.510259
2249.09, 0.512013
2250.07, 0.514191
2251.04, 0.516476
2252.02, 0.519238
2253.0, 0.521842
2253.98, 0.523701
2254.96, 0.525773
2255.94, 0.528111
2256.92, 0.530183
2257.91, 0.532362
2258.89, 0.534327
2259.88, 0.536559
2260.86, 0.538790
2261.85, 0.540597
2262.83, 0.541766
2263.82, 0.542828
2264.81, 0.544103
2265.8, 0.545272
2266.79, 0.545697
2267.78, 0.546388
2268.78, 0.547504
2269.77, 0.548301
2270.76, 0.548938
2271.76, 0.549310
2272.75, 0.549416
2273.75, 0.549735
2274.75, 0.550319
2275.75, 0.550585
2276.75, 0.550426
2277.75, 0.550479
2278.75, 0.550266
2279.75, 0.550691
2280.75, 0.550798
2281.76, 0.550532
2282.76, 0.550479
2283.77, 0.550426
2284.77, 0.550532
2285.78, 0.550638
2286.79, 0.550798
2287.8, 0.550691
2288.81, 0.550160
2289.82, 0.549788
2290.83, 0.549522
2291.84, 0.549044
2292.86, 0.548779
2293.87, 0.548460
2294.89, 0.547769
2295.91, 0.547450
2296.92, 0.546972
2297.94, 0.546494
2298.96, 0.545113
2299.98, 0.543838
2301.0, 0.542934
2302.02, 0.542403
2303.04, 0.541606
2304.07, 0.540597
2305.09, 0.539322
2306.12, 0.537728
2307.15, 0.536399
2308.17, 0.535018
2309.2, 0.533637
2310.23, 0.532308
2311.26, 0.530502
2312.29, 0.528642
2313.32, 0.527155
2314.35, 0.525561
2315.39, 0.523701
2316.42, 0.521895
2317.46, 0.520142
2318.5, 0.517804
2319.53, 0.515626
2320.57, 0.513713
2321.61, 0.511747
2322.65, 0.509622
2323.69, 0.507603
2324.73, 0.505690
2325.78, 0.503725
2326.82, 0.501706
2327.86, 0.499580
2328.91, 0.497296
2329.96, 0.494746
2331.01, 0.492674
2332.05, 0.490655
2333.1, 0.488423
2334.15, 0.486085
2335.21, 0.484173
2336.26, 0.482313
2337.31, 0.480401
2338.36, 0.478488
2339.42, 0.476469
2340.48, 0.474344
2341.53, 0.472697
2342.59, 0.470890
2343.65, 0.469350
2344.71, 0.468234
2345.77, 0.467543
2346.83, 0.466268
2347.9, 0.465365
2348.96, 0.464568
2350.02, 0.463611
2351.09, 0.463346
2352.16, 0.463240
2353.23, 0.462974
2354.29, 0.463133
2355.36, 0.462974
2356.43, 0.463399
2357.51, 0.463930
2358.58, 0.464674
2359.65, 0.465365
2360.73, 0.466055
2361.8, 0.466321
2362.88, 0.466799
2363.96, 0.467384
2365.03, 0.467915
2366.11, 0.468340
2367.19, 0.468499
2368.27, 0.468393
2369.36, 0.468712
2370.44, 0.468818
2371.53, 0.468659
2372.61, 0.468765
2373.7, 0.469084
2374.78, 0.469190
2375.87, 0.469031
2376.96, 0.469190
2378.05, 0.469296
2379.14, 0.469296
2380.24, 0.469243
2381.33, 0.469456
2382.42, 0.469775
2383.52, 0.470040
2384.61, 0.470306
2385.71, 0.470518
2386.81, 0.471156
2387.91, 0.471740
2389.01, 0.472112
2390.11, 0.472697
2391.22, 0.473547
2392.32, 0.474184
2393.42, 0.474503
2394.53, 0.474769
2395.64, 0.475300
2396.74, 0.475831
2397.85, 0.476416
2398.96, 0.476735
2400.07, 0.476894
2401.18, 0.477106
2402.3, 0.477478
2403.41, 0.477585
2404.52, 0.477531
2405.64, 0.477160
2406.76, 0.476575
2407.88, 0.476363
2408.99, 0.476044
2410.11, 0.475513
2411.23, 0.475194
2412.36, 0.474716
2413.48, 0.473866
2414.6, 0.472697
2415.73, 0.472218
2416.85, 0.471581
2417.98, 0.470784
2419.11, 0.469775
2420.24, 0.468765
2421.37, 0.467596
2422.5, 0.466799
2423.64, 0.466002
2424.77, 0.465046
2425.9, 0.463771
2427.04, 0.462496
2428.18, 0.461646
2429.31, 0.460477
2430.45, 0.459361
2431.59, 0.458511
2432.73, 0.457555
2433.88, 0.456864
2435.02, 0.455854
2436.16, 0.454633
2437.31, 0.453676
2438.45, 0.452932
2439.6, 0.452401
2440.75, 0.452401
2441.9, 0.452242
2443.05, 0.452135
2444.2, 0.451870
2445.35, 0.452082
2446.51, 0.451710
2447.67, 0.451763
2448.82, 0.452029
2449.98, 0.452348
2451.14, 0.452614
2452.3, 0.452879
2453.46, 0.453304
2454.62, 0.453836
2455.78, 0.454473
2456.94, 0.455429
2458.11, 0.455801
2459.28, 0.456173
2460.44, 0.456758
2461.61, 0.457555
2462.78, 0.458139
2463.95, 0.459149
2465.12, 0.460105
2466.3, 0.460902
2467.47, 0.461752
2468.65, 0.462602
2469.82, 0.463293
2471.0, 0.463930
2472.18, 0.464568
2473.36, 0.465524
2474.54, 0.466374
2475.72, 0.467118
2476.9, 0.467596
2478.08, 0.468234
2479.27, 0.468818
2480.46, 0.469828
2481.64, 0.470253
2482.83, 0.470518
2484.02, 0.470731
2485.21, 0.471581
2486.4, 0.472059
2487.6, 0.472484
2488.79, 0.473015
2489.99, 0.473759
2491.18, 0.474025
2492.38, 0.474184
2493.58, 0.474450
2494.78, 0.475087
2495.98, 0.475831
2497.18, 0.476310
2498.39, 0.476681
2499.59, 0.477106
2500.8, 0.477691
2502.01, 0.478275
2503.21, 0.478860
2504.42, 0.479391
2505.63, 0.479922
2506.84, 0.480666
2508.06, 0.481304
2509.27, 0.481941
2510.49, 0.482313
2511.7, 0.483163
2512.92, 0.484120
2514.14, 0.484863
2515.36, 0.485395
2516.58, 0.485979
2517.8, 0.486670
2519.03, 0.487679
2520.25, 0.488211
2521.48, 0.488954
2522.7, 0.489539
2523.93, 0.490283
2525.16, 0.491133
2526.39, 0.491823
2527.62, 0.492248
2528.86, 0.492886
2530.09, 0.493258
2531.33, 0.493524
2532.56, 0.494108
2533.8, 0.494958
2535.04, 0.495011
2536.28, 0.495330
2537.52, 0.496233
2538.76, 0.496871
2540.01, 0.497296
2541.25, 0.497136
2542.5, 0.496658
2543.75, 0.497190
2544.99, 0.497668
2546.24, 0.497508
2547.49, 0.496924
2548.75, 0.497402
2550.0, 0.497030
2551.26, 0.496605
2552.51, 0.496233
2553.77, 0.496977
2555.03, 0.497243
2556.29, 0.497083
2557.55, 0.496552
2558.81, 0.495011
2560.08, 0.492461
2561.34, 0.490920
2562.61, 0.490867
2563.88, 0.490867
2565.14, 0.492142
2566.41, 0.492674
2567.68, 0.490973
2568.96, 0.488636
2570.23, 0.489167
2571.51, 0.489114
2572.78, 0.485820
2574.06, 0.486351
2575.34, 0.485926
2576.62, 0.484279
2577.9, 0.485554
2579.18, 0.485501
2580.47, 0.483323
2581.75, 0.482366
2583.04, 0.479604
2584.32, 0.480347
2585.61, 0.481304
2586.9, 0.479338
2588.2, 0.479604
2589.49, 0.480082
2590.78, 0.480135
2592.08, 0.477585
2593.37, 0.470943
2594.67, 0.467756
2595.97, 0.473440
2597.27, 0.476735
2598.57, 0.476522
2599.88, 0.474716
2601.18, 0.473015
2602.49, 0.471528
2603.79, 0.468818
2605.1, 0.467171
2606.41, 0.468712
2607.72, 0.469296
2609.03, 0.468871
2610.35, 0.469190
2611.66, 0.469137
2612.98, 0.468074
2614.3, 0.467756
2615.62, 0.464355
2616.94, 0.463080
2618.26, 0.465152
2619.58, 0.463133
2620.91, 0.464621
2622.23, 0.467437
2623.56, 0.467065
2624.89, 0.464833
2626.22, 0.462549
2627.55, 0.464355
2628.88, 0.462549
2630.21, 0.460796
2631.55, 0.464249
2632.89, 0.464568
2634.22, 0.464887
2635.56, 0.466427
2636.9, 0.466799
2638.25, 0.466746
2639.59, 0.466374
2640.93, 0.466055
2642.28, 0.466055
2643.63, 0.465896
2644.98, 0.464462
2646.33, 0.464887
2647.68, 0.465790
2649.03, 0.465737
2650.39, 0.464249
2651.74, 0.461911
2653.1, 0.461858
2654.46, 0.461646
2655.82, 0.460902
2657.18, 0.460477
2658.54, 0.457608
2659.9, 0.456067
2661.27, 0.455695
2662.64, 0.453889
2664.01, 0.448523
2665.38, 0.444644
2666.74, 0.444113
2668.12, 0.444378
2669.49, 0.438640
2670.87, 0.438215
2672.24, 0.440606
2673.62, 0.438003
2675.0, 0.433699
2676.38, 0.429927
2677.76, 0.428493
2679.15, 0.427111
2680.54, 0.427536
2681.92, 0.425145
2683.31, 0.422276
2684.7, 0.420151
2686.09, 0.417920
2687.48, 0.415901
2688.88, 0.413935
2690.27, 0.411544
2691.67, 0.407878
2693.07, 0.402512
2694.47, 0.400387
2695.87, 0.399431
2697.27, 0.398049
2698.67, 0.394755
2700.08, 0.389973
2701.49, 0.385723
2702.9, 0.382429
2704.31, 0.377063
2705.72, 0.370953
2707.13, 0.362718
2708.54, 0.352676
2709.96, 0.341200
2711.38, 0.330734
2712.8, 0.319311
2714.22, 0.303850
2715.64, 0.285892
2717.06, 0.266075
2718.49, 0.244823
2719.91, 0.222189
2721.34, 0.202159
2722.77, 0.183723
2724.2, 0.164650
2725.63, 0.148711
2727.07, 0.134791
2728.5, 0.122039
2729.94, 0.110563
2731.38, 0.100894
2732.82, 0.0928180
2734.26, 0.0860700
2735.7, 0.0808110
2737.15, 0.0762950
2738.59, 0.0718850
2740.04, 0.0685380
2741.49, 0.0660940
2742.94, 0.0639150
2744.39, 0.0615780
2745.84, 0.0597180
2747.3, 0.0581770
2748.76, 0.0567430
2750.21, 0.0553080
2751.67, 0.0542460
2753.14, 0.0531300
2754.6, 0.0519080
2756.06, 0.0516950
2757.53, 0.0518550
2759.0, 0.0519080
2760.46, 0.0521740
2761.94, 0.0525450
2763.41, 0.0536080
2764.88, 0.0547770
2766.36, 0.0557330
2767.83, 0.0567430
2769.31, 0.0579120
2770.79, 0.0592400
2772.27, 0.0606740
2773.76, 0.0620560
2775.24, 0.0631710
2776.73, 0.0646060
2778.22, 0.0663590
2779.71, 0.0679000
2781.2, 0.0698130
2782.69, 0.0719910
2784.18, 0.0744350
2785.68, 0.0770910
2787.18, 0.0804390
2788.68, 0.0845300
2790.18, 0.0887800
2791.68, 0.0931370
2793.19, 0.0979180
2794.69, 0.103338
2796.2, 0.109076
2797.71, 0.115132
2799.22, 0.121402
2800.73, 0.127512
2802.24, 0.133569
2803.76, 0.140794
2805.28, 0.148445
2806.8, 0.156096
2808.32, 0.164118
2809.84, 0.172513
2811.36, 0.180960
2812.89, 0.189514
2814.42, 0.198334
2815.94, 0.207472
2817.48, 0.216132
2819.01, 0.224739
2820.54, 0.233612
2822.08, 0.242432
2823.61, 0.250507
2825.15, 0.257786
2826.69, 0.264374
2828.23, 0.270909
2829.78, 0.276860
2831.32, 0.282120
2832.87, 0.286848
2834.42, 0.291417
2835.97, 0.295562
2837.52, 0.299174
2839.08, 0.302787
2840.63, 0.305922
2842.19, 0.308206
2843.75, 0.310438
2845.31, 0.312669
2846.87, 0.314423
2848.44, 0.315751
2850.0, 0.317239
2851.57, 0.318407
2853.14, 0.319204
2854.71, 0.320267
2856.28, 0.321436
2857.86, 0.322020
2859.43, 0.322552
2861.01, 0.322764
2862.59, 0.322977
2864.17, 0.323083
2865.76, 0.323189
2867.34, 0.323295
2868.93, 0.323349
2870.52, 0.323030
2872.11, 0.322817
2873.7, 0.322711
2875.29, 0.322711
2876.89, 0.322498
2878.49, 0.322445
2880.08, 0.322392
2881.69, 0.322233
2883.29, 0.322233
2884.89, 0.322498
2886.5, 0.322605
2888.11, 0.322817
2889.72, 0.322870
2891.33, 0.322764
2892.94, 0.322817
2894.56, 0.323030
2896.17, 0.322870
2897.79, 0.322764
2899.42, 0.322711
2901.04, 0.322924
2902.66, 0.323349
2904.29, 0.323614
2905.92, 0.323880
2907.55, 0.324145
2909.18, 0.324517
2910.81, 0.324730
2912.45, 0.324996
2914.08, 0.325367
2915.72, 0.325739
2917.36, 0.326324
2919.01, 0.326749
2920.65, 0.327121
2922.3, 0.327758
2923.94, 0.328555
2925.59, 0.329352
2927.25, 0.330043
2928.9, 0.330627
2930.56, 0.331318
2932.21, 0.332062
2933.87, 0.332806
2935.53, 0.333496
2937.2, 0.334346
2938.86, 0.335196
2940.53, 0.335834
2942.2, 0.336525
2943.87, 0.337269
2945.54, 0.338012
2947.22, 0.339022
2948.89, 0.339872
2950.57, 0.340509
2952.25, 0.341200
2953.93, 0.341891
2955.62, 0.342688
2957.3, 0.343485
2958.99, 0.344122
2960.68, 0.344707
2962.37, 0.345344
2964.07, 0.346035
2965.76, 0.346619
2967.46, 0.347204
2969.16, 0.347788
2970.86, 0.348373
2972.56, 0.349010
2974.27, 0.349754
2975.98, 0.350339
2977.69, 0.350710
2979.4, 0.351135
2981.11, 0.351720
2982.83, 0.352357
2984.54, 0.353048
2986.26, 0.353473
2987.98, 0.353898
2989.71, 0.354323
2991.43, 0.354801
2993.16, 0.355333
2994.89, 0.355492
2996.62, 0.355811
2998.35, 0.356289
3000.09, 0.356820
3001.83, 0.357299
3003.57, 0.357724
3005.31, 0.357989
3007.05, 0.358149
3008.79, 0.358574
3010.54, 0.358999
3012.29, 0.359424
3014.04, 0.359636
3015.8, 0.359902
3017.55, 0.360221
3019.31, 0.360593
3021.07, 0.360752
3022.83, 0.361071
3024.59, 0.361443
3026.36, 0.361761
3028.13, 0.362133
3029.9, 0.362505
3031.67, 0.362612
3033.44, 0.362718
3035.22, 0.362877
3037.0, 0.363249
3038.78, 0.363674
3040.56, 0.363940
3042.34, 0.364205
3044.13, 0.364524
3045.92, 0.364790
3047.71, 0.365056
3049.5, 0.365268
3051.3, 0.365640
3053.09, 0.365959
3054.89, 0.366171
3056.69, 0.366490
3058.5, 0.366862
3060.3, 0.367287
3062.11, 0.367818
3063.92, 0.368137
3065.73, 0.368403
3067.55, 0.368828
3069.36, 0.369253
3071.18, 0.369412
3073.0, 0.369731
3074.82, 0.370209
3076.65, 0.370581
3078.48, 0.371006
3080.31, 0.371431
3082.14, 0.371856
3083.97, 0.372228
3085.8, 0.372547
3087.64, 0.373078
3089.48, 0.373556
3091.33, 0.374034
3093.17, 0.374353
3095.02, 0.374725
3096.87, 0.375256
3098.72, 0.375735
3100.57, 0.376107
3102.43, 0.376478
3104.28, 0.376850
3106.14, 0.377275
3108.01, 0.377754
3109.87, 0.378232
3111.74, 0.378816
3113.61, 0.379294
3115.48, 0.379826
3117.35, 0.380463
3119.23, 0.380941
3121.1, 0.381526
3122.98, 0.381951
3124.87, 0.382323
3126.75, 0.382854
3128.64, 0.383438
3130.53, 0.383970
3132.42, 0.384607
3134.31, 0.385245
3136.21, 0.385936
3138.11, 0.386573
3140.01, 0.387104
3141.91, 0.387689
3143.82, 0.388273
3145.73, 0.388751
3147.64, 0.389442
3149.55, 0.390133
3151.46, 0.390770
3153.38, 0.391302
3155.3, 0.391780
3157.22, 0.392311
3159.14, 0.392896
3161.07, 0.393480
3163.0, 0.394011
3164.93, 0.394702
3166.86, 0.395340
3168.8, 0.395924
3170.74, 0.396349
3172.68, 0.396774
3174.62, 0.397358
3176.56, 0.398102
3178.51, 0.398687
3180.46, 0.399006
3182.42, 0.399484
3184.37, 0.400227
3186.33, 0.400812
3188.29, 0.401184
3190.25, 0.401715
3192.21, 0.402353
3194.18, 0.402990
3196.15, 0.403468
3198.12, 0.403947
3200.09, 0.404531
3202.07, 0.405328
3204.05, 0.405806
3206.03, 0.406337
3208.02, 0.406922
3210.0, 0.407400
3211.99, 0.408091
3213.98, 0.408622
3215.98, 0.409100
3217.97, 0.409738
3219.97, 0.410322
3221.97, 0.410853
3223.98, 0.411438
3225.98, 0.412129
3227.99, 0.412660
3230.0, 0.413297
3232.02, 0.413935
3234.03, 0.414573
3236.05, 0.415104
3238.07, 0.415635
3240.1, 0.416273
3242.12, 0.416804
3244.15, 0.417388
3246.18, 0.417867
3248.22, 0.418451
3250.25, 0.419089
3252.29, 0.419779
3254.33, 0.420311
3256.38, 0.420895
3258.43, 0.421373
3260.47, 0.421798
3262.53, 0.422276
3264.58, 0.422808
3266.64, 0.423339
3268.7, 0.423923
3270.76, 0.424402
3272.82, 0.424933
3274.89, 0.425570
3276.96, 0.425995
3279.04, 0.426421
3281.11, 0.426899
3283.19, 0.427430
3285.27, 0.427961
3287.35, 0.428333
3289.44, 0.428705
3291.53, 0.429183
3293.62, 0.429608
3295.71, 0.430086
3297.81, 0.430405
3299.91, 0.430830
3302.01, 0.431362
3304.11, 0.431733
3306.22, 0.432052
3308.33, 0.432477
3310.44, 0.432955
3312.56, 0.433381
3314.68, 0.433806
3316.8, 0.434177
3318.92, 0.434496
3321.05, 0.434868
3323.18, 0.435293
3325.31, 0.435665
3327.44, 0.435878
3329.58, 0.436250
3331.72, 0.436675
3333.86, 0.437046
3336.01, 0.437365
3338.16, 0.437631
3340.31, 0.437790
3342.46, 0.438003
3344.61, 0.438215
3346.77, 0.438481
3348.94, 0.438694
3351.1, 0.438853
3353.27, 0.439012
3355.44, 0.439065
3357.61, 0.439172
3359.79, 0.439278
3361.97, 0.439331
3364.15, 0.439490
3366.33, 0.439650
3368.52, 0.439862
3370.71, 0.440075
3372.9, 0.440341
3375.1, 0.440606
3377.3, 0.440819
3379.5, 0.441138
3381.71, 0.441563
3383.91, 0.441881
3386.12, 0.442200
3388.34, 0.442466
3390.55, 0.442838
3392.77, 0.442997
3394.99, 0.442891
3397.22, 0.442997
3399.45, 0.443156
3401.68, 0.443369
3403.91, 0.443528
3406.15, 0.443635
3408.39, 0.443794
3410.63, 0.444007
3412.87, 0.444378
3415.12, 0.444750
3417.37, 0.445441
3419.63, 0.446185
3421.88, 0.446929
3424.14, 0.447619
3426.41, 0.448416
3428.67, 0.449054
3430.94, 0.449851
3433.21, 0.450541
3435.49, 0.450967
3437.77, 0.451392
3440.05, 0.452029
3442.33, 0.452507
3444.62, 0.452985
3446.91, 0.453623
3449.2, 0.454154
3451.5, 0.454579
3453.8, 0.454898
3456.1, 0.455164
3458.41, 0.455376
3460.72, 0.455748
3463.03, 0.455961
3465.34, 0.456014
3467.66, 0.456333
3469.98, 0.456492
3472.31, 0.456705
3474.63, 0.457023
3476.96, 0.457342
3479.3, 0.457555
3481.64, 0.457873
3483.97, 0.458298
3486.32, 0.458564
3488.66, 0.458617
3491.01, 0.458830
3493.36, 0.459042
3495.72, 0.459255
3498.08, 0.459308
3500.44, 0.459414
3502.81, 0.459786
3505.18, 0.460371
3507.55, 0.461008
3509.92, 0.461646
3512.3, 0.462177
3514.68, 0.462761
3517.06, 0.463452
3519.45, 0.463877
3521.84, 0.464302
3524.24, 0.464727
3526.64, 0.465099
3529.04, 0.465365
3531.44, 0.465684
3533.85, 0.466002
3536.26, 0.466268
3538.67, 0.466480
3541.09, 0.466693
3543.51, 0.466959
3545.93, 0.467171
3548.36, 0.467331
3550.79, 0.467596
3553.22, 0.467596
3555.66, 0.467702
3558.1, 0.467915
3560.54, 0.467968
3562.99, 0.468074
3565.44, 0.468181
3567.9, 0.468393
3570.35, 0.468340
3572.81, 0.468393
3575.28, 0.468553
3577.75, 0.468659
3580.22, 0.468765
3582.69, 0.469031
3585.17, 0.469296
3587.65, 0.469456
3590.14, 0.469456
3592.62, 0.469509
3595.11, 0.469562
3597.61, 0.469615
3600.11, 0.469615
3602.61, 0.469562
3605.11, 0.469562
3607.62, 0.469350
3610.14, 0.469190
3612.65, 0.469084
3615.17, 0.469084
3617.69, 0.468978
3620.22, 0.468765
3622.75, 0.468659
3625.28, 0.468393
3627.82, 0.468127
3630.36, 0.467915
3632.9, 0.467702
3635.45, 0.467437
3638.0, 0.467118
3640.56, 0.466799
3643.12, 0.466534
3645.68, 0.466374
3648.24, 0.466321
3650.81, 0.466109
3653.39, 0.465790
3655.96, 0.465524
3658.54, 0.465365
3661.13, 0.465152
3663.71, 0.464940
3666.3, 0.464940
3668.9, 0.464993
3671.5, 0.464940
3674.1, 0.464887
3676.7, 0.464887
3679.31, 0.464887
3681.93, 0.464780
3684.54, 0.464727
3687.17, 0.464833
3689.79, 0.464887
3692.42, 0.464940
3695.05, 0.464887
3697.69, 0.464833
3700.32, 0.464940
3702.97, 0.465099
3705.61, 0.465258
3708.27, 0.465418
3710.92, 0.465471
3713.58, 0.465684
3716.24, 0.465843
3718.91, 0.466055
3721.58, 0.466321
3724.25, 0.466640
3726.93, 0.466906
3729.61, 0.467171
3732.29, 0.467437
3734.98, 0.467756
3737.67, 0.468127
3740.37, 0.468553
3743.07, 0.469031
3745.78, 0.469509
3748.49, 0.469987
3751.2, 0.470625
3753.91, 0.471209
3756.63, 0.471793
3759.36, 0.472325
3762.09, 0.472856
3764.82, 0.473334
3767.55, 0.473866
3770.29, 0.474450
3773.04, 0.474928
3775.78, 0.475406
3778.54, 0.475938
3781.29, 0.476363
3784.05, 0.476681
3786.82, 0.476947
3789.59, 0.477266
3792.36, 0.477585
3795.13, 0.477850
3797.92, 0.478010
3800.7, 0.478169
3803.49, 0.478222
3806.28, 0.478275
3809.08, 0.478328
3811.88, 0.478435
3814.68, 0.478594
3817.49, 0.478647
3820.31, 0.478594
3823.12, 0.478594
3825.94, 0.478541
3828.77, 0.478488
3831.6, 0.478328
3834.43, 0.478328
3837.27, 0.478328
3840.11, 0.478222
3842.96, 0.478169
3845.81, 0.478116
3848.67, 0.478010
3851.53, 0.477797
3854.39, 0.477585
3857.26, 0.477531
3860.13, 0.477372
3863.01, 0.477266
3865.89, 0.477319
3868.77, 0.477160
3871.66, 0.477000
3874.55, 0.476788
3877.45, 0.476735
3880.35, 0.476522
3883.26, 0.476363
3886.17, 0.476310
3889.09, 0.476203
3892.01, 0.476097
3894.93, 0.475938
3897.86, 0.475831
3900.79, 0.475725
3903.73, 0.475513
3906.67, 0.475300
3909.62, 0.475194
3912.57, 0.475194
3915.52, 0.475087
3918.48, 0.474928
3921.45, 0.474822
3924.42, 0.474716
3927.39, 0.474556
3930.37, 0.474450
3933.35, 0.474344
3936.34, 0.474237
3939.33, 0.474025
3942.32, 0.473919
3945.32, 0.473866
3948.33, 0.473812
3951.34, 0.473706
3954.35, 0.473547
3957.37, 0.473494
3960.39, 0.473334
3963.42, 0.473175
3966.45, 0.473015
3969.49, 0.473015
3972.53, 0.472803
3975.58, 0.472750
3978.63, 0.472697
3981.68, 0.472537
3984.75, 0.472378
3987.81, 0.472378
3990.88, 0.472325
3993.95, 0.472218
3997.03, 0.472059
4000.12, 0.471900
4003.21, 0.471793
4006.3, 0.471793
4009.4, 0.471634
4012.5, 0.471581
4015.61, 0.471475
4018.72, 0.471368
4021.84, 0.471262
4024.96, 0.471156
4028.09, 0.470943
4031.22, 0.470731
4034.36, 0.470625
4037.5, 0.470571
4040.65, 0.470412
4043.8, 0.470359
4046.96, 0.470200
4050.12, 0.469987
4053.29, 0.469881
4056.46, 0.469828
4059.64, 0.469615
4062.82, 0.469509
4066.0, 0.469350
4069.19, 0.469190
4072.39, 0.468978
4075.59, 0.468765
4078.8, 0.468659
4082.01, 0.468553
4085.23, 0.468340
4088.45, 0.468234
4091.68, 0.468074
4094.91, 0.467862
4098.15, 0.467702
4101.39, 0.467596
4104.63, 0.467543
4107.89, 0.467490
4111.14, 0.467277
4114.41, 0.467012
4117.67, 0.467012
4120.95, 0.466852
4124.23, 0.466534
4127.51, 0.466427
4130.8, 0.466321
4134.09, 0.466162
4137.39, 0.466055
4140.7, 0.465896
4144.01, 0.465630
4147.32, 0.465471
4150.64, 0.465312
4153.97, 0.465152
4157.3, 0.465099
4160.64, 0.464993
4163.98, 0.464833
4167.33, 0.464621
4170.68, 0.464355
4174.04, 0.464249
4177.4, 0.464196
4180.77, 0.464143
4184.14, 0.463930
4187.52, 0.463665
4190.91, 0.463452
4194.3, 0.463080
4197.69, 0.462443
4201.1, 0.461433
4204.5, 0.460158
4207.92, 0.458617
4211.34, 0.456917
4214.76, 0.454951
4218.19, 0.453039
4221.62, 0.451551
4225.06, 0.450170
4228.51, 0.449107
4231.96, 0.448416
4235.42, 0.448097
4238.88, 0.448310
4242.35, 0.449160
4245.83, 0.450329
4249.31, 0.452189
4252.79, 0.454686
4256.28, 0.456067
4259.78, 0.454579
4263.29, 0.452189
4266.79, 0.450595
4270.31, 0.449691
4273.83, 0.449266
4277.35, 0.449054
4280.89, 0.449107
4284.42, 0.449213
4287.97, 0.449266
4291.52, 0.449585
4295.07, 0.449957
4298.63, 0.450276
4302.2, 0.450648
4305.78, 0.451232
4309.35, 0.451763
4312.94, 0.452401
4316.53, 0.452879
4320.13, 0.453198
4323.73, 0.453517
4327.34, 0.453836
4330.96, 0.453942
4334.58, 0.453995
4338.21, 0.453942
4341.84, 0.453889
4345.48, 0.453676
4349.12, 0.453411
4352.77, 0.453145
4356.43, 0.452879
4360.1, 0.452507
4363.76, 0.452135
4367.44, 0.451657
4371.12, 0.451179
4374.81, 0.450701
4378.51, 0.450116
4382.21, 0.449479
4385.92, 0.448735
4389.63, 0.447938
4393.35, 0.447194
4397.08, 0.446238
4400.81, 0.445388
4404.55, 0.444538
4408.29, 0.443528
4412.04, 0.442466
4415.8, 0.441509
4419.57, 0.440553
4423.34, 0.439544
4427.12, 0.438428
4430.9, 0.437153
4434.69, 0.435931
4438.49, 0.434815
4442.29, 0.433752
4446.1, 0.432637
4449.92, 0.431362
4453.74, 0.430140
4457.57, 0.428971
4461.41, 0.427908
4465.25, 0.426739
4469.1, 0.425517
4472.95, 0.424348
4476.82, 0.423286
4480.69, 0.422170
4484.56, 0.421108
4488.44, 0.419992
4492.33, 0.418982
4496.23, 0.417867
4500.13, 0.416857
4504.04, 0.415741
4507.96, 0.414626
4511.88, 0.413563
4515.81, 0.412554
4519.75, 0.411597
4523.69, 0.410588
4527.65, 0.409525
4531.6, 0.408463
4535.57, 0.407400
4539.54, 0.406231
4543.52, 0.405169
4547.5, 0.404212
4551.5, 0.403150
4555.5, 0.402140
4559.5, 0.401078
4563.52, 0.400015
4567.54, 0.398952
4571.56, 0.397837
4575.6, 0.396668
4579.64, 0.395552
4583.69, 0.394436
4587.75, 0.393267
4591.81, 0.391992
4595.88, 0.390770
4599.96, 0.389548
4604.04, 0.388273
4608.14, 0.386892
4612.24, 0.385564
4616.34, 0.384076
4620.46, 0.382748
4624.58, 0.381313
4628.71, 0.379826
4632.84, 0.378338
4636.99, 0.376957
4641.14, 0.375575
4645.3, 0.374088
4649.47, 0.372653
4653.64, 0.371219
4657.82, 0.369890
4662.01, 0.368509
4666.21, 0.367393
4670.41, 0.366171
4674.62, 0.364896
4678.84, 0.363780
4683.07, 0.362665
4687.3, 0.361655
4691.54, 0.360646
4695.79, 0.359636
4700.05, 0.358733
4704.31, 0.357830
4708.59, 0.356927
4712.87, 0.356023
4717.15, 0.355173
4721.45, 0.354270
4725.76, 0.353314
4730.07, 0.352411
4734.39, 0.351454
4738.72, 0.350498
4743.05, 0.349488
4747.39, 0.348585
4751.75, 0.347629
4756.1, 0.346726
4760.47, 0.345716
4764.85, 0.344813
4769.23, 0.343963
4773.62, 0.343060
4778.02, 0.342210
4782.43, 0.341360
4786.85, 0.340563
4791.27, 0.339925
4795.7, 0.339341
4800.14, 0.338862
4804.59, 0.338384
4809.05, 0.337906
4813.51, 0.337322
4817.99, 0.336950
4822.47, 0.336631
4826.96, 0.336312
4831.46, 0.335940
4835.96, 0.335515
4840.48, 0.335037
4845.0, 0.334771
4849.54, 0.334346
4854.08, 0.333975
4858.63, 0.333549
4863.18, 0.333071
4867.75, 0.332540
4872.33, 0.331902
4876.91, 0.331212
4881.5, 0.330521
4886.1, 0.329884
4890.71, 0.329193
4895.33, 0.328555
4899.96, 0.327918
4904.59, 0.327174
4909.24, 0.326483
4913.89, 0.325846
4918.55, 0.325421
4923.22, 0.324942
4927.9, 0.324571
4932.59, 0.324199
4937.29, 0.323933
4942.0, 0.323774
4946.71, 0.323561
4951.44, 0.323402
4956.17, 0.323242
4960.91, 0.323242
4965.67, 0.323242
4970.43, 0.323189
4975.2, 0.323189
4979.98, 0.323136
4984.76, 0.323030
4989.56, 0.322977
4994.37, 0.323030
4999.18, 0.322977
5004.01, 0.322924
5008.84, 0.322870
5013.69, 0.322605
5018.54, 0.322233
5023.4, 0.322339
5028.28, 0.322286
5033.16, 0.321967
5038.05, 0.321701
5042.95, 0.321383
5047.86, 0.321117
5052.78, 0.320798
5057.71, 0.320267
5062.65, 0.319683
5067.6, 0.319151
5072.56, 0.318514
5077.53, 0.317717
5082.5, 0.316814
5087.49, 0.316123
5092.49, 0.315273
5097.5, 0.314210
5102.51, 0.313041
5107.54, 0.311607
5112.58, 0.310066
5117.62, 0.308419
5122.68, 0.306559
5127.75, 0.304594
5132.82, 0.302309
5137.91, 0.299971
5143.01, 0.297421
5148.12, 0.294871
5153.23, 0.292905
5158.36, 0.290514
5163.5, 0.287858
5168.65, 0.285201
5173.81, 0.282545
5178.98, 0.279995
5184.15, 0.277497
5189.34, 0.274894
5194.54, 0.272238
5199.75, 0.269475
5204.98, 0.267084
5210.21, 0.264215
5215.45, 0.261930
5220.7, 0.260124
5225.96, 0.257786
5231.23, 0.255077
5236.52, 0.252526
5241.81, 0.250242
5247.12, 0.247798
5252.44, 0.245354
5257.76, 0.242963
5263.1, 0.240519
5268.45, 0.238022
5273.81, 0.235525
5279.18, 0.233240
5284.56, 0.230849
5289.95, 0.228193
5295.36, 0.226174
5300.77, 0.224261
5306.2, 0.222136
5311.63, 0.220223
5317.08, 0.218470
5322.54, 0.216717
5328.01, 0.214910
5333.49, 0.213210
5338.98, 0.211457
5344.49, 0.209332
5350.0, 0.207525
5355.53, 0.206675
5361.07, 0.205825
5366.62, 0.204709
5372.18, 0.203434
5377.75, 0.202212
5383.34, 0.201044
5388.93, 0.199981
5394.54, 0.198759
5400.16, 0.197590
5405.79, 0.196262
5411.44, 0.194934
5417.09, 0.192915
5422.76, 0.191427
5428.43, 0.191214
5434.12, 0.190205
5439.83, 0.188877
5445.54, 0.187708
5451.26, 0.186698
5457.0, 0.185211
5462.75, 0.183511
5468.52, 0.182767
5474.29, 0.181810
5480.08, 0.180854
5485.88, 0.180589
5491.69, 0.179898
5497.51, 0.179154
5503.35, 0.178463
5509.2, 0.177932
5515.06, 0.177135
5520.93, 0.176444
5526.82, 0.176019
5532.71, 0.175701
5538.63, 0.175276
5544.55, 0.174744
5550.49, 0.173947
5556.44, 0.173682
5562.4, 0.173575
5568.37, 0.173097
5574.36, 0.171981
5580.36, 0.171716
5586.37, 0.172406
5592.4, 0.172513
5598.44, 0.172035
5604.49, 0.171981
5610.56, 0.171822
5616.63, 0.171716
5622.73, 0.171769
5628.83, 0.171556
5634.95, 0.170653
5641.08, 0.169909
5647.23, 0.170759
5653.39, 0.171185
5659.56, 0.171822
5665.74, 0.172088
5671.94, 0.171450
5678.15, 0.171610
5684.38, 0.171981
5690.62, 0.171822
5696.87, 0.172247
5703.14, 0.171928
5709.42, 0.171344
5715.72, 0.171716
5722.03, 0.172141
5728.35, 0.172619
5734.69, 0.172778
5741.03, 0.172778
5747.4, 0.172672
5753.78, 0.173469
5760.17, 0.172353
5766.58, 0.171875
5773.0, 0.173841
5779.44, 0.174691
5785.88, 0.175116
5792.35, 0.175382
5798.83, 0.175276
5805.32, 0.175329
5811.83, 0.174532
5818.35, 0.172672
5824.89, 0.172725
5831.45, 0.173735
5838.01, 0.174213
5844.59, 0.174000
5851.19, 0.173363
5857.8, 0.172406
5864.43, 0.171769
5871.07, 0.171131
5877.73, 0.168422
5884.4, 0.168847
5891.09, 0.169166
5897.79, 0.168953
5904.5, 0.170547
5911.23, 0.170494
5917.98, 0.170122
5924.75, 0.169750
5931.53, 0.167890
5938.32, 0.167678
5945.13, 0.169909
5951.96, 0.170759
5958.8, 0.170813
5965.65, 0.169963
5972.53, 0.170813
5979.42, 0.171503
5986.32, 0.171131
5993.24, 0.172141
6000.18, 0.173575
6007.13, 0.173469
6014.1, 0.173575
6021.08, 0.174850
6028.09, 0.175594
6035.1, 0.175382
6042.14, 0.173044
6049.19, 0.172566
6056.25, 0.176551
6063.34, 0.177401
6070.44, 0.176976
6077.55, 0.178995
6084.69, 0.181226
6091.84, 0.182289
6099.0, 0.182926
6106.19, 0.182342
6113.39, 0.182607
6120.61, 0.185795
6127.84, 0.188027
6135.09, 0.188824
6142.36, 0.189780
6149.65, 0.191055
6156.95, 0.191693
6164.27, 0.193605
6171.61, 0.195465
6178.97, 0.195252
6186.34, 0.196102
6193.73, 0.199025
6201.14, 0.200353
6208.57, 0.201097
6216.01, 0.201894
6223.47, 0.202850
6230.95, 0.203647
6238.45, 0.204338
6245.97, 0.204869
6253.5, 0.205347
6261.06, 0.205719
6268.63, 0.205985
6276.21, 0.206250
6283.82, 0.206516
6291.45, 0.206569
6299.1, 0.206782
6306.76, 0.206675
6314.44, 0.206728
6322.14, 0.206675
6329.86, 0.206303
6337.6, 0.204444
6345.35, 0.204019
6353.13, 0.205772
6360.92, 0.205294
6368.74, 0.203913
6376.57, 0.204603
6384.43, 0.204816
6392.3, 0.204444
6400.19, 0.203009
6408.1, 0.198971
6416.03, 0.198281
6423.98, 0.201044
6431.95, 0.201681
6439.94, 0.202106
6447.95, 0.201840
6455.98, 0.201628
6464.03, 0.200937
6472.1, 0.199290
6480.19, 0.197378
6488.31, 0.195040
6496.44, 0.195412
6504.59, 0.197696
6512.76, 0.196899
6520.95, 0.195412
6529.16, 0.195624
6537.4, 0.194827
6545.65, 0.193233
6553.92, 0.192011
6562.22, 0.190577
6570.54, 0.188399
6578.88, 0.188505
6587.23, 0.187655
6595.61, 0.186911
6604.02, 0.186539
6612.44, 0.185370
6620.89, 0.183670
6629.35, 0.180429
6637.84, 0.178570
6646.35, 0.180110
6654.88, 0.180163
6663.44, 0.178410
6672.01, 0.176232
6680.61, 0.174744
6689.23, 0.174425
6697.88, 0.173416
6706.54, 0.171185
6715.23, 0.169856
6723.94, 0.169219
6732.67, 0.168581
6741.42, 0.167359
6750.2, 0.165925
6759.0, 0.164596
6767.82, 0.162631
6776.67, 0.160559
6785.54, 0.158486
6794.44, 0.157424
6803.35, 0.157211
6812.29, 0.155883
6821.26, 0.153917
6830.24, 0.152748
6839.25, 0.152005
6848.29, 0.149826
6857.35, 0.146798
6866.43, 0.145788
6875.54, 0.146213
6884.67, 0.145310
6893.82, 0.143929
6903.0, 0.142282
6912.2, 0.141272
6921.43, 0.140157
6930.69, 0.138935
6939.96, 0.137660
6949.27, 0.135800
6958.59, 0.133622
6967.95, 0.133144
6977.33, 0.132347
6986.73, 0.130965
6996.16, 0.129690
7005.61, 0.128787
7015.09, 0.127405
7024.6, 0.126183
7034.13, 0.124643
7043.69, 0.122730
7053.27, 0.121933
7062.88, 0.121349
7072.52, 0.120074
7082.18, 0.118958
7091.87, 0.117789
7101.58, 0.116567
7111.32, 0.115132
7121.09, 0.114017
7130.88, 0.112954
7140.71, 0.111413
7150.56, 0.110085
7160.43, 0.108863
7170.33, 0.107588
7180.27, 0.106897
7190.23, 0.105782
7200.21, 0.104400
7210.23, 0.103178
7220.27, 0.102488
7230.34, 0.101425
7240.44, 0.100415
7250.56, 0.0993000
7260.72, 0.0982900
7270.9, 0.0970150
7281.12, 0.0959530
7291.36, 0.0950490
7301.63, 0.0939870
7311.93, 0.0929240
7322.25, 0.0919680
7332.61, 0.0906930
7343.0, 0.0898960
7353.41, 0.0892050
7363.86, 0.0883550
7374.33, 0.0873460
7384.83, 0.0864950
7395.37, 0.0855920
7405.93, 0.0847950
7416.53, 0.0838390
7427.15, 0.0829890
7437.81, 0.0820860
7448.5, 0.0811820
7459.22, 0.0801200
7469.96, 0.0791640
7480.74, 0.0782070
7491.55, 0.0772510
7502.39, 0.0761350
7513.27, 0.0750190
7524.17, 0.0739040
7535.11, 0.0728410
7546.08, 0.0716190
7557.08, 0.0704500
7568.11, 0.0691750
7579.17, 0.0679530
7590.27, 0.0667310
7601.4, 0.0655620
7612.56, 0.0642340
7623.76, 0.0629590
7634.98, 0.0615780
7646.24, 0.0603560
7657.54, 0.0589740
7668.87, 0.0575930
7680.23, 0.0562650
7691.62, 0.0548830
7703.05, 0.0533960
7714.51, 0.0520140
7726.01, 0.0505800
7737.54, 0.0491450
7749.11, 0.0478170
7760.71, 0.0465420
7772.35, 0.0450010
7784.02, 0.0435670
7795.72, 0.0421850
7807.46, 0.0408570
7819.23, 0.0394220
7831.04, 0.0381470
7842.89, 0.0368190
7854.77, 0.0355440
7866.69, 0.0341630
7878.65, 0.0328870
7890.64, 0.0315060
7902.67, 0.0302310
7914.74, 0.0288500
7926.84, 0.0274680
7938.98, 0.0260870
7951.16, 0.0249180
7963.37, 0.0236430
7975.62, 0.0224210
7987.91, 0.0211460
8000.24, 0.0200830
8012.6, 0.0188610
8025.01, 0.0177990
8037.45, 0.0166830
8049.93, 0.0156730
8062.45, 0.0146640
8075.01, 0.0137080
8087.61, 0.0127510
8100.24, 0.0121140
8112.91, 0.0113700
8125.63, 0.0107320
8138.39, 0.0101480
8151.18, 0.00967000
8164.02, 0.00929800
8176.9, 0.00908500
8189.81, 0.00882000
8202.77, 0.00860700
8215.77, 0.00844800
8228.82, 0.00850100
8241.9, 0.00866000
8255.02, 0.00892600
8268.19, 0.00924500
8281.39, 0.00967000
8294.65, 0.0102540
8307.94, 0.0111570
8321.28, 0.0120070
8334.66, 0.0132820
8348.08, 0.0146640
8361.54, 0.0163640
8375.05, 0.0184890
8388.6, 0.0208800
8402.2, 0.0234830
8415.84, 0.0266180
8429.52, 0.0301250
8443.25, 0.0341090
8457.02, 0.0383070
8470.84, 0.0431410
8484.7, 0.0484540
8498.61, 0.0541920
8512.57, 0.0603020
8526.57, 0.0671030
8540.62, 0.0743820
8554.71, 0.0820330
8568.85, 0.0900020
8583.04, 0.0986090
8597.27, 0.107535
8611.55, 0.116833
8625.88, 0.126502
8640.26, 0.136544
8654.68, 0.146745
8669.16, 0.156893
8683.68, 0.166722
8698.25, 0.175860
8712.87, 0.184095
8727.53, 0.191480
8742.25, 0.197856
8757.02, 0.203488
8771.83, 0.208482
8786.7, 0.213051
8801.62, 0.217461
8816.59, 0.222083
8831.61, 0.226493
8846.68, 0.230849
8861.8, 0.235206
8876.97, 0.239456
8892.2, 0.243388
8907.48, 0.247001
8922.81, 0.250614
8938.2, 0.253961
8953.63, 0.256989
8969.13, 0.259911
8984.67, 0.262727
9000.27, 0.265171
9015.92, 0.267296
9031.63, 0.269103
9047.39, 0.270644
9063.21, 0.271759
9079.08, 0.272131
9095.01, 0.271813
9111.0, 0.270272
9127.04, 0.267403
9143.13, 0.263259
9159.28, 0.258158
9175.49, 0.252367
9191.76, 0.246045
9208.09, 0.239297
9224.47, 0.232337
9240.92, 0.225430
9257.42, 0.218417
9273.98, 0.211191
9290.6, 0.204019
9307.28, 0.197059
9324.02, 0.190152
9340.82, 0.183670
9357.68, 0.178357
9374.6, 0.175010
9391.58, 0.173735
9408.62, 0.175276
9425.73, 0.180323
9442.9, 0.188930
9460.13, 0.200831
9477.42, 0.215176
9494.78, 0.230637
9512.2, 0.245726
9529.69, 0.258955
9547.24, 0.269156
9564.86, 0.275744
9582.54, 0.278241
9600.28, 0.276754
9618.1, 0.272131
9635.97, 0.264746
9653.92, 0.255502
9671.93, 0.245460
9690.01, 0.235525
9708.16, 0.225961
9726.37, 0.217195
9744.65, 0.209704
9763.0, 0.203381
9781.43, 0.197803
9799.92, 0.193180
9818.48, 0.189302
9837.1, 0.185795
9855.8, 0.182767
9874.58, 0.180057
9893.42, 0.177666
9912.34, 0.175329
9931.33, 0.173257
9950.39, 0.171344
9969.52, 0.169591
9988.74, 0.167731
10008.0, 0.165818
10027.4, 0.164065
10046.8, 0.162524
10066.3, 0.160930
10085.9, 0.159230
10105.6, 0.157636
10125.3, 0.156255
10145.1, 0.154767
10165.0, 0.153067
10185.0, 0.151048
10205.0, 0.148870
10225.2, 0.146585
10245.4, 0.144301
10265.7, 0.141697
10286.0, 0.138935
10306.5, 0.136119
10327.0, 0.133090
10347.6, 0.130115
10368.3, 0.126927
10389.1, 0.123633
10409.9, 0.120392
10430.9, 0.116833
10451.9, 0.113379
10473.0, 0.110085
10494.2, 0.107004
10515.5, 0.104081
10536.9, 0.101000
10558.4, 0.0979720
10579.9, 0.0954210
10601.5, 0.0932430
10623.3, 0.0914370
10645.1, 0.0894710
10667.0, 0.0879830
10689.0, 0.0868670
10711.1, 0.0860170
10733.2, 0.0853270
10755.5, 0.0849550
10777.9, 0.0849020
10800.3, 0.0850080
10822.9, 0.0852200
10845.5, 0.0858050
10868.2, 0.0861240
10891.1, 0.0868140
10914.0, 0.0876110
10937.0, 0.0884080
10960.2, 0.0891520
10983.4, 0.0896830
11006.7, 0.0900020
11030.1, 0.0903740
11053.6, 0.0907460
11077.3, 0.0909050
11101.0, 0.0906400
11124.8, 0.0901080
11148.7, 0.0894710
11172.7, 0.0890460
11196.9, 0.0888330
11221.1, 0.0885140
11245.4, 0.0879830
11269.9, 0.0877710
11294.4, 0.0877170
11319.1, 0.0878770
11343.9, 0.0879300
11368.8, 0.0881960
11393.7, 0.0884080
11418.8, 0.0887800
11444.0, 0.0891520
11469.4, 0.0896830
11494.8, 0.0902150
11520.3, 0.0911180
11546.0, 0.0920210
11571.8, 0.0928180
11597.7, 0.0937210
11623.7, 0.0950490
11649.8, 0.0964840
11676.0, 0.0977060
11702.4, 0.0985560
11728.9, 0.0995120
11755.5, 0.100628
11782.2, 0.101956
11809.0, 0.102913
11836.0, 0.103391
11863.0, 0.103444
11890.3, 0.103125
11917.6, 0.102275
11945.0, 0.100415
11972.6, 0.0978120
12000.4, 0.0949960
12028.2, 0.0919150
12056.2, 0.0890460
12084.3, 0.0868140
12112.5, 0.0849550
12140.9, 0.0833610
12169.4, 0.0817670
12198.0, 0.0797480
12226.8, 0.0777820
12255.7, 0.0756570
12284.7, 0.0732130
12313.9, 0.0710350
12343.2, 0.0691220
12372.7, 0.0671560
12402.3, 0.0657220
12432.0, 0.0646590
12461.9, 0.0641280
12491.9, 0.0638090
12522.1, 0.0637030
12552.4, 0.0636500
12582.9, 0.0634370
12613.5, 0.0634900
12644.3, 0.0636500
12675.2, 0.0635430
12706.3, 0.0632250
12737.5, 0.0625870
12768.9, 0.0616310
12800.4, 0.0603020
12832.1, 0.0588680
12863.9, 0.0572740
12895.9, 0.0556270
12928.1, 0.0535020
12960.4, 0.0510050
12992.9, 0.0483480
13025.5, 0.0460640
13058.3, 0.0440450
13091.3, 0.0423980
13124.4, 0.0411760
13157.8, 0.0409100
13191.2, 0.0412820
13224.9, 0.0421850
13258.7, 0.0435130
13292.7, 0.0447880
13326.9, 0.0460640
13361.2, 0.0474450
13395.7, 0.0487200
13430.4, 0.0498890
13465.3, 0.0506330
13500.4, 0.0508980
13535.7, 0.0508980
13571.1, 0.0510580
13606.7, 0.0509520
13642.5, 0.0505270
13678.5, 0.0498360
13714.7, 0.0491980
13751.1, 0.0485610
13787.6, 0.0480830
13824.4, 0.0473920
13861.4, 0.0467010
13898.5, 0.0460100
13935.9, 0.0451600
13973.5, 0.0440450
14011.2, 0.0433540
14049.2, 0.0425570
14087.4, 0.0416540
14125.8, 0.0406440
14164.3, 0.0399540
14203.2, 0.0392100
14242.2, 0.0384660
14281.4, 0.0375630
14320.9, 0.0370320
14360.5, 0.0363940
14400.4, 0.0359160
14440.5, 0.0355970
14480.9, 0.0350130
14521.4, 0.0344280
14562.2, 0.0340560
14603.3, 0.0336840
14644.5, 0.0335250
14686.0, 0.0331000
14727.7, 0.0328340
14769.7, 0.0324620
14811.9, 0.0321970
14854.3, 0.0314000
14897.0, 0.0303900
14939.9, 0.0291150
14983.1, 0.0281590
15026.5, 0.0275740
15070.2, 0.0264590
15114.2, 0.0250770
15158.3, 0.0240680
15202.8, 0.0228990
15247.5, 0.0219430
15292.5, 0.0208800
15337.7, 0.0205080
15383.2, 0.0200300
15429.0, 0.0201890
15475.1, 0.0209860
15521.4, 0.0223150
15568.0, 0.0236960
15614.9, 0.0255020
15662.1, 0.0275740
15709.6, 0.0299120
15757.3, 0.0320370
15805.4, 0.0344810
15853.7, 0.0371380
15902.3, 0.0402190
15951.2, 0.0431950
16000.5, 0.0461170
16050.0, 0.0490920
16099.8, 0.0526520
16150.0, 0.0566360
16200.5, 0.0612060
16251.3, 0.0664650
16302.4, 0.0720440
16353.8, 0.0782070
16405.5, 0.0855390
16457.6, 0.0930300
16510.0, 0.101053
16562.8, 0.110191
16615.9, 0.119383
16669.3, 0.128681
16723.1, 0.138456
16777.2, 0.148339
16831.7, 0.158221
16886.5, 0.167678
16941.7, 0.176710
16997.2, 0.184414
17053.1, 0.191214
17109.4, 0.197909
17166.1, 0.202956
17223.1, 0.206675
17280.5, 0.210713
17338.3, 0.215176
17396.5, 0.220117
17455.1, 0.225164
17514.0, 0.229999
17573.4, 0.235684
17633.2, 0.241794
17693.4, 0.247107
17754.0, 0.251570
17815.0, 0.255236
17876.4, 0.258477
17938.3, 0.260336
18000.5, 0.262409
18063.3, 0.264056
18126.4, 0.265384
18190.0, 0.267243
18254.1, 0.269315
18318.6, 0.270219
18383.5, 0.270112
18449.0, 0.269528
18514.9, 0.268359
18581.2, 0.265703
18648.0, 0.261930
18715.4, 0.256883
18783.2, 0.250773
18851.5, 0.244557
18920.3, 0.237969
18989.6, 0.230424
19059.4, 0.223571
19129.7, 0.216823
19200.6, 0.209013
19272.0, 0.200087
19343.9, 0.193446
19416.3, 0.188983
19489.3, 0.185742
19562.8, 0.183298
19637.0, 0.182289
19711.6, 0.183564
19786.8, 0.185848
19862.6, 0.188452
19939.0, 0.192277
20016.0, 0.197324
20093.6, 0.203062
20171.8, 0.207844
20250.6, 0.212945
20330.0, 0.218258
20410.0, 0.222614
20490.7, 0.226333
20572.0, 0.230424
20654.0, 0.233665
20736.6, 0.235206
20819.9, 0.235419
20903.8, 0.235365
20988.5, 0.233772
21073.8, 0.230477
21159.8, 0.226174
21246.5, 0.222508
21334.0, 0.218204
21422.1, 0.213423
21511.0, 0.208057
21600.7, 0.201894
21691.0, 0.195784
21782.1, 0.190258
21874.0, 0.185742
21966.7, 0.182023
22060.2, 0.177454
22154.5, 0.173788
22249.6, 0.170972
22345.5, 0.168741
22442.2, 0.165553
22539.8, 0.162631
22638.2, 0.160771
22737.5, 0.161674
22837.7, 0.161674
22938.7, 0.161908
23040.7, 0.162125
23143.5, 0.162441
23247.3, 0.163234
23352.1, 0.164791
23457.7, 0.166695
23564.4, 0.168417
23672.0, 0.169760
23780.5, 0.170742
23890.1, 0.171922
24000.7, 0.173872
24112.3, 0.176567
24225.0, 0.179733
24338.7, 0.182734
24453.5, 0.184923
24569.4, 0.186100
24686.4, 0.186204
24804.5, 0.185310
24923.8, 0.183609
25044.2, 0.181643
25165.8, 0.180000
25288.6, 0.179030
25412.5, 0.178857
25537.7, 0.178917
25664.1, 0.178520
25791.8, 0.177319
25920.8, 0.175207
26051.1, 0.172768
26182.6, 0.170603
26315.5, 0.168556
26449.8, 0.166367
26585.4, 0.164212
26722.5, 0.162353
26860.9, 0.160922
27000.8, 0.159926
27142.1, 0.158985
27285.0, 0.157712
27429.4, 0.156183
27575.3, 0.154529
27722.7, 0.152573
27871.8, 0.150192
28022.4, 0.147835
28174.7, 0.146056
28328.7, 0.145164
28484.4, 0.145406
28641.7, 0.147026
28800.9, 0.150011
28961.8, 0.153268
29124.5, 0.155644
29289.0, 0.157067
29455.4, 0.157749
29623.8, 0.157875
29794.0, 0.157695
29966.3, 0.157725
30140.5, 0.158280
30316.7, 0.158477
30495.1, 0.157520
30675.5, 0.156446
30858.1, 0.156561
31042.8, 0.158102
31229.8, 0.160776
31419.1, 0.163272
31610.7, 0.164375
31804.6, 0.164626
32000.9, 0.164934
32199.7, 0.165698
32400.9, 0.166934
32604.8, 0.167597
32811.1, 0.166803
33020.1, 0.165697
33231.8, 0.165788
33446.2, 0.167635
33663.4, 0.171184
33883.4, 0.174800
34106.3, 0.176833
34332.1, 0.177600
34561.0, 0.177914
34792.9, 0.178390
35028.0, 0.179170
35266.3, 0.178541
35507.8, 0.174976
35752.7, 0.170116
36001.0, 0.166205
36252.8, 0.164137
36508.1, 0.163990
36767.0, 0.163817
37029.7, 0.161735
37296.1, 0.158760
37566.3, 0.156541
37840.5, 0.155882
38118.8, 0.157100
38401.2, 0.159304
38687.8, 0.161369
38978.6, 0.162745
39273.9, 0.163308
39573.7, 0.164156
39878.1, 0.166343
40187.3, 0.169139
40501.2, 0.171731
40820.0, 0.175175
41144.0, 0.180567
41473.2, 0.186851
41807.6, 0.192529
42147.5, 0.197005
42493.0, 0.199976
42844.2, 0.201462
43201.2, 0.201542
43564.3, 0.200146
43933.5, 0.197601
44309.0, 0.196084
44691.0, 0.197766
45079.6, 0.202177
45475.0, 0.207996
45877.5, 0.213515
46287.1, 0.217175
46704.2, 0.218874
47128.7, 0.219097
47561.1, 0.219081
48001.5, 0.219822
48450.1, 0.220096
48907.2, 0.218491
49373.0, 0.215696
49847.7, 0.212855
50331.5, 0.210393
50825.0, 0.208444
51328.2, 0.206671
51841.5, 0.204889
52365.1, 0.204207
52899.4, 0.205782
53444.8, 0.209134
54001.5, 0.213242
54570.1, 0.216862
55150.6, 0.218886
55743.6, 0.219363
56349.5, 0.218666
56968.7, 0.217088
57601.7, 0.214762
58248.9, 0.211128
58910.9, 0.205749
59588.1, 0.199714
60281.0, 0.194403
60990.2, 0.190255
61716.3, 0.187429
62459.8, 0.185930
63221.6, 0.185587
64002.1, 0.185648
64802.1, 0.185144
65622.1, 0.183110
66463.4, 0.179381
67326.6, 0.177506
68212.4, 0.180635
69121.9, 0.184313
70056.0, 0.182893
71015.7, 0.176756
72002.0, 0.168172
73016.3, 0.159738
74059.4, 0.153592
75132.7, 0.148511
76237.6, 0.142775
77375.5, 0.137323
78547.9, 0.133227
79756.3, 0.128335
81002.5, 0.120263
82288.5, 0.110716
83615.7, 0.102461
84986.5, 0.0968190
86402.9, 0.0948400
87867.4, 0.0978370
89382.4, 0.106691
90950.5, 0.119558
92574.6, 0.133687
94257.2, 0.146973
96002.7, 0.157606
97814.1, 0.165246
99695.1, 0.170220
101650.0, 0.173952
103683.0, 0.178074
105799.0, 0.182771
108003.0, 0.187571
110301.0, 0.190970
112699.0, 0.191889
115204.0, 0.193509
117822.0, 0.199633
120562.0, 0.208705
123433.0, 0.217470
126443.0, 0.223990
129604.0, 0.226946
132926.0, 0.227072
136424.0, 0.225779
140111.0, 0.223707
144003.0, 0.222029
148118.0, 0.225061
152474.0, 0.236580
157095.0, 0.249449
162004.0, 0.253762
167231.0, 0.251179
172805.0, 0.251179
178764.0, 0.251179
185148.0, 0.251179
192005.0, 0.251179
199390.0, 0.251179
207366.0, 0.251179
216006.0, 0.251179
