Database of Origin, USGS Spectral Database
Sample Description, See USGS database for additional info
Date Added,2016-08-03 20:52:37.187199

Data ID,USGS_alm04          
Sample ID, almandine_ws475.699
Mineral Name, almandine
Material Class,Nesosilicate

Wavelength
1548.43, 0.221077
1548.9, 0.221463
1549.36, 0.222494
1549.82, 0.221978
1550.29, 0.221850
1550.75, 0.221592
1551.21, 0.222494
1551.68, 0.223138
1552.14, 0.224813
1552.61, 0.226101
1553.07, 0.227261
1553.54, 0.227389
1554.0, 0.226230
1554.47, 0.224426
1554.93, 0.226359
1555.4, 0.228162
1555.87, 0.229451
1556.34, 0.229580
1556.8, 0.229451
1557.27, 0.228678
1557.74, 0.229322
1558.21, 0.229580
1558.68, 0.229837
1559.14, 0.229193
1559.61, 0.230610
1560.08, 0.231126
1560.55, 0.232156
1561.02, 0.231641
1561.49, 0.231641
1561.96, 0.230997
1562.43, 0.232800
1562.9, 0.233702
1563.38, 0.234346
1563.85, 0.233831
1564.32, 0.233573
1564.79, 0.234218
1565.26, 0.235764
1565.74, 0.234991
1566.21, 0.234862
1566.68, 0.234991
1567.16, 0.235635
1567.63, 0.235635
1568.1, 0.236279
1568.58, 0.236923
1569.05, 0.237567
1569.53, 0.237310
1570.0, 0.238083
1570.48, 0.237825
1570.96, 0.238083
1571.43, 0.237954
1571.91, 0.238469
1572.39, 0.238856
1572.86, 0.239629
1573.34, 0.238598
1573.82, 0.239242
1574.3, 0.239371
1574.77, 0.239886
1575.25, 0.241046
1575.73, 0.242463
1576.21, 0.242076
1576.69, 0.242334
1577.17, 0.242592
1577.65, 0.242720
1578.13, 0.241947
1578.61, 0.242720
1579.09, 0.242720
1579.57, 0.243365
1580.05, 0.243493
1580.54, 0.243751
1581.02, 0.243365
1581.5, 0.244009
1581.98, 0.244911
1582.47, 0.245941
1582.95, 0.245684
1583.43, 0.246328
1583.92, 0.246843
1584.4, 0.247616
1584.88, 0.245941
1585.37, 0.246328
1585.85, 0.247745
1586.34, 0.247230
1586.82, 0.247101
1587.31, 0.247745
1587.8, 0.246843
1588.28, 0.248003
1588.77, 0.248518
1589.26, 0.249420
1589.74, 0.248904
1590.23, 0.249677
1590.72, 0.250322
1591.21, 0.250837
1591.7, 0.250837
1592.19, 0.251481
1592.67, 0.251996
1593.16, 0.251868
1593.65, 0.251223
1594.14, 0.251481
1594.63, 0.251223
1595.12, 0.252383
1595.61, 0.252898
1596.11, 0.253414
1596.6, 0.253027
1597.09, 0.253542
1597.58, 0.253671
1598.08, 0.252898
1598.57, 0.252383
1599.06, 0.253671
1599.55, 0.254058
1600.05, 0.254444
1600.54, 0.254573
1601.04, 0.254573
1601.53, 0.254444
1602.03, 0.255475
1602.52, 0.255475
1603.02, 0.255990
1603.51, 0.255217
1604.01, 0.256119
1604.5, 0.256634
1605.0, 0.257150
1605.5, 0.257407
1606.0, 0.257536
1606.49, 0.256248
1606.99, 0.256506
1607.49, 0.256119
1607.99, 0.256506
1608.49, 0.257536
1608.99, 0.258438
1609.49, 0.258180
1609.99, 0.258567
1610.49, 0.257794
1610.99, 0.258180
1611.49, 0.258696
1611.99, 0.259469
1612.49, 0.259082
1612.99, 0.259726
1613.49, 0.259984
1614.0, 0.260113
1614.5, 0.260242
1615.0, 0.260757
1615.51, 0.260113
1616.01, 0.259984
1616.51, 0.260242
1617.02, 0.260499
1617.52, 0.260113
1618.03, 0.261530
1618.53, 0.261659
1619.04, 0.261788
1619.54, 0.261530
1620.05, 0.262432
1620.55, 0.262947
1621.06, 0.263978
1621.57, 0.263978
1622.08, 0.263591
1622.58, 0.263076
1623.09, 0.263849
1623.6, 0.263076
1624.11, 0.263076
1624.62, 0.263849
1625.13, 0.264493
1625.64, 0.263978
1626.15, 0.264107
1626.66, 0.265009
1627.17, 0.265395
1627.68, 0.264622
1628.19, 0.265137
1628.7, 0.265137
1629.21, 0.265524
1629.72, 0.265137
1630.24, 0.266168
1630.75, 0.266168
1631.26, 0.266426
1631.78, 0.266812
1632.29, 0.266812
1632.8, 0.266426
1633.32, 0.267327
1633.83, 0.267456
1634.35, 0.267199
1634.86, 0.267070
1635.38, 0.268358
1635.9, 0.267714
1636.41, 0.267972
1636.93, 0.267714
1637.45, 0.267972
1637.96, 0.268616
1638.48, 0.269002
1639.0, 0.268745
1639.52, 0.269260
1640.04, 0.269260
1640.56, 0.269131
1641.08, 0.269002
1641.59, 0.269389
1642.11, 0.269131
1642.63, 0.269518
1643.16, 0.269002
1643.68, 0.269904
1644.2, 0.270935
1644.72, 0.271321
1645.24, 0.271192
1645.76, 0.271579
1646.29, 0.271321
1646.81, 0.271708
1647.33, 0.271192
1647.86, 0.271450
1648.38, 0.271450
1648.9, 0.271708
1649.43, 0.271708
1649.95, 0.272481
1650.48, 0.273254
1651.0, 0.272867
1651.53, 0.271708
1652.06, 0.272481
1652.58, 0.273254
1653.11, 0.273511
1653.64, 0.272738
1654.17, 0.272223
1654.69, 0.272094
1655.22, 0.272738
1655.75, 0.272610
1656.28, 0.273383
1656.81, 0.274156
1657.34, 0.274929
1657.87, 0.274800
1658.4, 0.274671
1658.93, 0.273898
1659.46, 0.273769
1659.99, 0.274027
1660.52, 0.274284
1661.05, 0.274413
1661.59, 0.275830
1662.12, 0.275959
1662.65, 0.275959
1663.19, 0.275702
1663.72, 0.275702
1664.26, 0.275315
1664.79, 0.276217
1665.32, 0.276990
1665.86, 0.278536
1666.39, 0.277892
1666.93, 0.277763
1667.47, 0.277248
1668.0, 0.277119
1668.54, 0.277119
1669.08, 0.277763
1669.61, 0.277763
1670.15, 0.278021
1670.69, 0.277376
1671.23, 0.278149
1671.77, 0.278665
1672.31, 0.278278
1672.85, 0.278021
1673.39, 0.279051
1673.93, 0.279567
1674.47, 0.280082
1675.01, 0.279695
1675.55, 0.280340
1676.09, 0.280468
1676.64, 0.280211
1677.18, 0.279309
1677.72, 0.280340
1678.26, 0.280855
1678.81, 0.280984
1679.35, 0.281241
1679.89, 0.282014
1680.44, 0.281370
1680.98, 0.280984
1681.53, 0.281370
1682.07, 0.282401
1682.62, 0.283045
1683.17, 0.283689
1683.71, 0.282401
1684.26, 0.282143
1684.81, 0.283174
1685.36, 0.283818
1685.9, 0.283432
1686.45, 0.283303
1687.0, 0.283174
1687.55, 0.283689
1688.1, 0.283174
1688.65, 0.283560
1689.2, 0.283947
1689.75, 0.284205
1690.3, 0.283818
1690.85, 0.284333
1691.41, 0.284462
1691.96, 0.284591
1692.51, 0.284462
1693.06, 0.285235
1693.61, 0.285364
1694.17, 0.286395
1694.72, 0.286652
1695.28, 0.286395
1695.83, 0.286137
1696.39, 0.286781
1696.94, 0.286652
1697.5, 0.287168
1698.05, 0.287554
1698.61, 0.287554
1699.17, 0.287683
1699.72, 0.288456
1700.28, 0.288198
1700.84, 0.287812
1701.4, 0.287554
1701.95, 0.288198
1702.51, 0.288327
1703.07, 0.288585
1703.63, 0.288843
1704.19, 0.289229
1704.75, 0.288585
1705.31, 0.289100
1705.88, 0.289487
1706.44, 0.289487
1707.0, 0.289744
1707.56, 0.290260
1708.12, 0.290131
1708.69, 0.290517
1709.25, 0.290775
1709.81, 0.291677
1710.38, 0.291419
1710.94, 0.291162
1711.51, 0.291419
1712.07, 0.291806
1712.64, 0.291806
1713.2, 0.291677
1713.77, 0.291806
1714.34, 0.292708
1714.9, 0.292321
1715.47, 0.292579
1716.04, 0.292965
1716.61, 0.293481
1717.18, 0.293352
1717.74, 0.294382
1718.31, 0.294640
1718.88, 0.295027
1719.45, 0.294382
1720.02, 0.294511
1720.59, 0.294382
1721.17, 0.294640
1721.74, 0.295155
1722.31, 0.295928
1722.88, 0.295928
1723.45, 0.296444
1724.03, 0.296701
1724.6, 0.296830
1725.18, 0.296057
1725.75, 0.296186
1726.33, 0.296572
1726.9, 0.297345
1727.48, 0.297603
1728.05, 0.297990
1728.63, 0.297603
1729.2, 0.297990
1729.78, 0.297861
1730.36, 0.298634
1730.94, 0.299149
1731.51, 0.299793
1732.09, 0.299407
1732.67, 0.299922
1733.25, 0.300309
1733.83, 0.301082
1734.41, 0.301210
1734.99, 0.301597
1735.57, 0.301210
1736.15, 0.301597
1736.73, 0.301597
1737.32, 0.301597
1737.9, 0.301597
1738.48, 0.302499
1739.07, 0.302756
1739.65, 0.302885
1740.23, 0.302628
1740.82, 0.302885
1741.4, 0.303143
1741.99, 0.303529
1742.57, 0.304045
1743.16, 0.305075
1743.74, 0.305591
1744.33, 0.305462
1744.92, 0.304818
1745.51, 0.304818
1746.09, 0.304560
1746.68, 0.305977
1747.27, 0.305848
1747.86, 0.305591
1748.45, 0.305977
1749.04, 0.306364
1749.63, 0.307008
1750.22, 0.307910
1750.81, 0.307394
1751.4, 0.307266
1751.99, 0.307523
1752.59, 0.308554
1753.18, 0.308554
1753.77, 0.308425
1754.37, 0.308167
1754.96, 0.309069
1755.56, 0.309585
1756.15, 0.309971
1756.74, 0.309713
1757.34, 0.310229
1757.94, 0.310744
1758.53, 0.311131
1759.13, 0.310873
1759.73, 0.311259
1760.32, 0.311388
1760.92, 0.311775
1761.52, 0.311904
1762.12, 0.312161
1762.72, 0.312419
1763.32, 0.313321
1763.92, 0.314094
1764.52, 0.314223
1765.12, 0.313578
1765.72, 0.314351
1766.32, 0.314480
1766.92, 0.315124
1767.53, 0.315124
1768.13, 0.315382
1768.73, 0.315124
1769.34, 0.315640
1769.94, 0.315769
1770.55, 0.316413
1771.15, 0.316542
1771.76, 0.316542
1772.36, 0.316413
1772.97, 0.317186
1773.57, 0.317701
1774.18, 0.318216
1774.79, 0.318216
1775.4, 0.318989
1776.0, 0.319247
1776.61, 0.318861
1777.22, 0.318989
1777.83, 0.320149
1778.44, 0.320278
1779.05, 0.320278
1779.66, 0.320406
1780.27, 0.320922
1780.88, 0.321051
1781.5, 0.321437
1782.11, 0.320664
1782.72, 0.320406
1783.33, 0.320793
1783.95, 0.321566
1784.56, 0.321952
1785.18, 0.322468
1785.79, 0.322983
1786.41, 0.323370
1787.02, 0.323370
1787.64, 0.323885
1788.26, 0.323627
1788.87, 0.324400
1789.49, 0.325302
1790.11, 0.325173
1790.73, 0.324658
1791.35, 0.324787
1791.96, 0.325560
1792.58, 0.326719
1793.21, 0.326462
1793.83, 0.326590
1794.45, 0.326719
1795.07, 0.327106
1795.69, 0.326977
1796.31, 0.327750
1796.93, 0.328136
1797.56, 0.328265
1798.18, 0.328008
1798.8, 0.328265
1799.43, 0.328394
1800.05, 0.328652
1800.68, 0.328781
1801.3, 0.329425
1801.93, 0.329682
1802.56, 0.330584
1803.18, 0.330971
1803.81, 0.331744
1804.44, 0.331486
1805.07, 0.331873
1805.7, 0.331486
1806.33, 0.332130
1806.95, 0.332646
1807.58, 0.333805
1808.22, 0.334063
1808.85, 0.333805
1809.48, 0.333290
1810.11, 0.334063
1810.74, 0.334320
1811.38, 0.334836
1812.01, 0.335093
1812.64, 0.335351
1813.28, 0.335093
1813.91, 0.335351
1814.55, 0.335351
1815.18, 0.335609
1815.82, 0.336124
1816.45, 0.337412
1817.09, 0.337799
1817.73, 0.338185
1818.36, 0.338314
1819.0, 0.338443
1819.64, 0.338572
1820.28, 0.339216
1820.92, 0.339474
1821.56, 0.340247
1822.2, 0.340118
1822.84, 0.340247
1823.48, 0.340633
1824.12, 0.340762
1824.76, 0.340504
1825.41, 0.341277
1826.05, 0.342179
1826.69, 0.343210
1827.34, 0.343210
1827.98, 0.343983
1828.63, 0.343725
1829.27, 0.343468
1829.92, 0.343339
1830.56, 0.343854
1831.21, 0.344241
1831.86, 0.344885
1832.5, 0.345142
1833.15, 0.345142
1833.8, 0.345014
1834.45, 0.345271
1835.1, 0.346044
1835.75, 0.347075
1836.4, 0.347204
1837.05, 0.347204
1837.7, 0.347719
1838.35, 0.348234
1839.01, 0.347977
1839.66, 0.348363
1840.31, 0.348750
1840.96, 0.349394
1841.62, 0.350038
1842.27, 0.349780
1842.93, 0.349265
1843.58, 0.349780
1844.24, 0.350167
1844.9, 0.350811
1845.55, 0.351069
1846.21, 0.351584
1846.87, 0.352099
1847.53, 0.352743
1848.18, 0.352486
1848.84, 0.352357
1849.5, 0.352357
1850.16, 0.353001
1850.82, 0.353130
1851.48, 0.353516
1852.14, 0.353774
1852.81, 0.354547
1853.47, 0.354934
1854.13, 0.355191
1854.8, 0.354676
1855.46, 0.354805
1856.12, 0.355191
1856.79, 0.356480
1857.45, 0.356737
1858.12, 0.356737
1858.79, 0.356737
1859.45, 0.357639
1860.12, 0.357639
1860.79, 0.357124
1861.46, 0.357510
1862.12, 0.358412
1862.79, 0.357639
1863.46, 0.357510
1864.13, 0.358283
1864.8, 0.359314
1865.48, 0.358927
1866.15, 0.358670
1866.82, 0.359185
1867.49, 0.360087
1868.16, 0.359958
1868.84, 0.360216
1869.51, 0.360216
1870.19, 0.361504
1870.86, 0.362406
1871.54, 0.362277
1872.21, 0.362148
1872.89, 0.362664
1873.56, 0.362535
1874.24, 0.362792
1874.92, 0.362921
1875.6, 0.363179
1876.28, 0.363179
1876.96, 0.363179
1877.64, 0.362664
1878.32, 0.363050
1879.0, 0.363179
1879.68, 0.364210
1880.36, 0.364983
1881.04, 0.365111
1881.73, 0.365111
1882.41, 0.365756
1883.09, 0.366271
1883.78, 0.366786
1884.46, 0.366400
1885.15, 0.366142
1885.83, 0.366529
1886.52, 0.367302
1887.21, 0.367044
1887.89, 0.366915
1888.58, 0.366915
1889.27, 0.367946
1889.96, 0.368719
1890.65, 0.368848
1891.34, 0.368590
1892.03, 0.369105
1892.72, 0.369234
1893.41, 0.369621
1894.1, 0.369621
1894.79, 0.369621
1895.49, 0.369621
1896.18, 0.370394
1896.87, 0.370651
1897.57, 0.371295
1898.26, 0.371038
1898.96, 0.371553
1899.65, 0.371940
1900.35, 0.372584
1901.05, 0.372584
1901.74, 0.372326
1902.44, 0.372455
1903.14, 0.373099
1903.84, 0.372841
1904.54, 0.373228
1905.24, 0.373743
1905.94, 0.374130
1906.64, 0.374130
1907.34, 0.374516
1908.04, 0.374516
1908.75, 0.375032
1909.45, 0.375032
1910.15, 0.375289
1910.86, 0.375160
1911.56, 0.375547
1912.27, 0.375676
1912.97, 0.376577
1913.68, 0.376835
1914.39, 0.376964
1915.09, 0.376449
1915.8, 0.376706
1916.51, 0.377351
1917.22, 0.377608
1917.93, 0.377479
1918.64, 0.377995
1919.35, 0.378252
1920.06, 0.379025
1920.77, 0.379154
1921.48, 0.378510
1922.19, 0.377995
1922.91, 0.378897
1923.62, 0.379541
1924.33, 0.379669
1925.05, 0.379669
1925.76, 0.379798
1926.48, 0.379669
1927.19, 0.380443
1927.91, 0.380443
1928.63, 0.380700
1929.35, 0.380700
1930.07, 0.380829
1930.78, 0.380571
1931.5, 0.380958
1932.22, 0.381344
1932.94, 0.381731
1933.66, 0.381860
1934.39, 0.382246
1935.11, 0.382117
1935.83, 0.382375
1936.55, 0.382504
1937.28, 0.382633
1938.0, 0.382633
1938.73, 0.383534
1939.45, 0.383277
1940.18, 0.383277
1940.9, 0.383148
1941.63, 0.383277
1942.36, 0.383277
1943.09, 0.383406
1943.81, 0.383406
1944.54, 0.384050
1945.27, 0.384179
1946.0, 0.384179
1946.73, 0.383792
1947.47, 0.384050
1948.2, 0.383921
1948.93, 0.384050
1949.66, 0.384823
1950.4, 0.385209
1951.13, 0.385338
1951.86, 0.385338
1952.6, 0.384952
1953.34, 0.385080
1954.07, 0.384952
1954.81, 0.385467
1955.55, 0.385725
1956.29, 0.385982
1957.02, 0.385853
1957.76, 0.385982
1958.5, 0.386240
1959.24, 0.386240
1959.98, 0.385725
1960.72, 0.386240
1961.47, 0.386498
1962.21, 0.386626
1962.95, 0.386369
1963.7, 0.386369
1964.44, 0.386369
1965.18, 0.386755
1965.93, 0.386626
1966.67, 0.386626
1967.42, 0.386884
1968.17, 0.387271
1968.92, 0.387271
1969.66, 0.387657
1970.41, 0.387271
1971.16, 0.387013
1971.91, 0.387142
1972.66, 0.387399
1973.41, 0.387142
1974.16, 0.387271
1974.92, 0.386884
1975.67, 0.387271
1976.42, 0.387142
1977.18, 0.387528
1977.93, 0.387657
1978.69, 0.387915
1979.44, 0.387528
1980.2, 0.387399
1980.95, 0.387528
1981.71, 0.388172
1982.47, 0.388044
1983.23, 0.387915
1983.99, 0.387528
1984.74, 0.387915
1985.51, 0.388044
1986.27, 0.388301
1987.03, 0.388172
1987.79, 0.388559
1988.55, 0.388945
1989.32, 0.389074
1990.08, 0.388301
1990.84, 0.388430
1991.61, 0.388817
1992.37, 0.389590
1993.14, 0.389332
1993.9, 0.389203
1994.67, 0.389203
1995.44, 0.388945
1996.21, 0.388430
1996.98, 0.388430
1997.75, 0.388688
1998.52, 0.389203
1999.29, 0.388945
2000.06, 0.389203
2000.83, 0.389590
2001.6, 0.389332
2002.38, 0.388945
2003.15, 0.389203
2003.93, 0.388945
2004.7, 0.388945
2005.48, 0.388945
2006.25, 0.389203
2007.03, 0.389332
2007.81, 0.389590
2008.58, 0.389332
2009.36, 0.389461
2010.14, 0.389461
2010.92, 0.390105
2011.7, 0.390105
2012.48, 0.389976
2013.26, 0.389976
2014.05, 0.390234
2014.83, 0.389976
2015.61, 0.389718
2016.4, 0.389590
2017.18, 0.390234
2017.97, 0.390234
2018.75, 0.390491
2019.54, 0.389847
2020.32, 0.389332
2021.11, 0.389461
2021.9, 0.390105
2022.69, 0.389847
2023.48, 0.389718
2024.27, 0.389718
2025.06, 0.390105
2025.85, 0.390105
2026.64, 0.390491
2027.44, 0.390234
2028.23, 0.389718
2029.02, 0.389718
2029.82, 0.390105
2030.61, 0.389847
2031.41, 0.390105
2032.2, 0.389976
2033.0, 0.390363
2033.8, 0.390363
2034.6, 0.390491
2035.4, 0.390105
2036.2, 0.389976
2037.0, 0.389976
2037.8, 0.390105
2038.6, 0.389718
2039.4, 0.389847
2040.2, 0.390105
2041.01, 0.390105
2041.81, 0.389847
2042.61, 0.390363
2043.42, 0.389847
2044.22, 0.389847
2045.03, 0.389718
2045.84, 0.389847
2046.65, 0.389332
2047.46, 0.389203
2048.26, 0.389074
2049.07, 0.389461
2049.88, 0.389590
2050.69, 0.389461
2051.51, 0.389203
2052.32, 0.389461
2053.13, 0.389203
2053.94, 0.389074
2054.76, 0.388430
2055.57, 0.388688
2056.39, 0.388688
2057.2, 0.388430
2058.02, 0.387915
2058.84, 0.388559
2059.66, 0.388688
2060.48, 0.388688
2061.29, 0.387915
2062.11, 0.387915
2062.94, 0.387915
2063.76, 0.387915
2064.58, 0.387657
2065.4, 0.387399
2066.22, 0.387142
2067.05, 0.387399
2067.87, 0.387142
2068.7, 0.387142
2069.52, 0.386884
2070.35, 0.386884
2071.18, 0.386626
2072.0, 0.386755
2072.83, 0.386111
2073.66, 0.386111
2074.49, 0.386111
2075.32, 0.386626
2076.15, 0.386884
2076.98, 0.386498
2077.82, 0.385853
2078.65, 0.385853
2079.48, 0.385596
2080.32, 0.385467
2081.15, 0.385209
2081.99, 0.385338
2082.83, 0.385467
2083.66, 0.385725
2084.5, 0.385338
2085.34, 0.384952
2086.18, 0.384694
2087.02, 0.384952
2087.86, 0.384436
2088.7, 0.384307
2089.54, 0.384307
2090.39, 0.384179
2091.23, 0.383663
2092.07, 0.383663
2092.92, 0.383534
2093.76, 0.383792
2094.61, 0.383406
2095.45, 0.383148
2096.3, 0.382761
2097.15, 0.382633
2098.0, 0.382246
2098.85, 0.382504
2099.7, 0.382890
2100.55, 0.383019
2101.4, 0.382504
2102.25, 0.382504
2103.1, 0.382504
2103.96, 0.382633
2104.81, 0.382246
2105.67, 0.381860
2106.52, 0.381473
2107.38, 0.381473
2108.24, 0.381731
2109.09, 0.381860
2109.95, 0.381215
2110.81, 0.381215
2111.67, 0.381473
2112.53, 0.381473
2113.39, 0.381215
2114.25, 0.380958
2115.12, 0.380829
2115.98, 0.381087
2116.84, 0.381473
2117.71, 0.380958
2118.58, 0.380185
2119.44, 0.380185
2120.31, 0.380314
2121.18, 0.380443
2122.04, 0.379927
2122.91, 0.379669
2123.78, 0.379669
2124.65, 0.379412
2125.52, 0.379025
2126.4, 0.379283
2127.27, 0.379798
2128.14, 0.379798
2129.02, 0.378897
2129.89, 0.378768
2130.77, 0.378768
2131.64, 0.378897
2132.52, 0.378768
2133.4, 0.378639
2134.27, 0.378252
2135.15, 0.377995
2136.03, 0.377866
2136.91, 0.378123
2137.79, 0.377866
2138.68, 0.377737
2139.56, 0.377479
2140.44, 0.377866
2141.33, 0.377866
2142.21, 0.377866
2143.1, 0.377351
2143.99, 0.377222
2144.87, 0.376577
2145.76, 0.376320
2146.65, 0.376191
2147.54, 0.376706
2148.43, 0.376191
2149.32, 0.375933
2150.21, 0.375933
2151.1, 0.375933
2151.99, 0.375547
2152.89, 0.375547
2153.78, 0.374903
2154.68, 0.374903
2155.57, 0.374774
2156.47, 0.374645
2157.37, 0.374516
2158.27, 0.374259
2159.16, 0.373743
2160.06, 0.373872
2160.96, 0.374001
2161.86, 0.374130
2162.77, 0.373743
2163.67, 0.373614
2164.57, 0.373357
2165.48, 0.373228
2166.38, 0.373099
2167.29, 0.372970
2168.2, 0.372584
2169.1, 0.372584
2170.01, 0.372068
2170.92, 0.372326
2171.83, 0.372197
2172.74, 0.371940
2173.65, 0.371424
2174.56, 0.371295
2175.47, 0.370780
2176.39, 0.371038
2177.3, 0.370651
2178.22, 0.370522
2179.13, 0.370522
2180.05, 0.370780
2180.96, 0.370394
2181.88, 0.370007
2182.8, 0.369363
2183.72, 0.369492
2184.64, 0.369363
2185.56, 0.369234
2186.48, 0.368976
2187.41, 0.368976
2188.33, 0.368461
2189.25, 0.368848
2190.18, 0.368976
2191.1, 0.368590
2192.03, 0.367946
2192.96, 0.367559
2193.89, 0.367173
2194.82, 0.367688
2195.74, 0.367817
2196.68, 0.367688
2197.61, 0.366657
2198.54, 0.366400
2199.47, 0.366271
2200.4, 0.366271
2201.34, 0.366013
2202.28, 0.366013
2203.21, 0.365627
2204.15, 0.365756
2205.08, 0.365369
2206.02, 0.365240
2206.96, 0.365369
2207.9, 0.365884
2208.84, 0.365627
2209.78, 0.365240
2210.73, 0.364854
2211.67, 0.364854
2212.61, 0.364725
2213.56, 0.364725
2214.5, 0.364210
2215.45, 0.364210
2216.4, 0.363952
2217.35, 0.363823
2218.3, 0.363565
2219.24, 0.363565
2220.2, 0.363437
2221.15, 0.363437
2222.1, 0.363179
2223.05, 0.363308
2224.0, 0.363179
2224.96, 0.363179
2225.91, 0.362921
2226.87, 0.362921
2227.83, 0.362664
2228.79, 0.362792
2229.74, 0.362406
2230.7, 0.362148
2231.66, 0.361633
2232.63, 0.361375
2233.59, 0.360602
2234.55, 0.360731
2235.51, 0.360345
2236.48, 0.360087
2237.44, 0.359829
2238.41, 0.359572
2239.38, 0.358799
2240.34, 0.358670
2241.31, 0.358412
2242.28, 0.358154
2243.25, 0.357587
2244.22, 0.357020
2245.19, 0.356907
2246.17, 0.356680
2247.14, 0.356227
2248.12, 0.356113
2249.09, 0.356227
2250.07, 0.356567
2251.04, 0.356340
2252.02, 0.355659
2253.0, 0.356113
2253.98, 0.356113
2254.96, 0.356113
2255.94, 0.356113
2256.92, 0.355773
2257.91, 0.355546
2258.89, 0.355773
2259.88, 0.356680
2260.86, 0.357020
2261.85, 0.356907
2262.83, 0.357361
2263.82, 0.357134
2264.81, 0.357134
2265.8, 0.357587
2266.79, 0.358155
2267.78, 0.357474
2268.78, 0.356794
2269.77, 0.357134
2270.76, 0.357587
2271.76, 0.357814
2272.75, 0.357928
2273.75, 0.357928
2274.75, 0.357474
2275.75, 0.357701
2276.75, 0.358608
2277.75, 0.358495
2278.75, 0.358495
2279.75, 0.358381
2280.75, 0.358041
2281.76, 0.357361
2282.76, 0.357587
2283.77, 0.357928
2284.77, 0.357701
2285.78, 0.357361
2286.79, 0.357247
2287.8, 0.357361
2288.81, 0.356794
2289.82, 0.356680
2290.83, 0.356567
2291.84, 0.356113
2292.86, 0.356227
2293.87, 0.356794
2294.89, 0.356567
2295.91, 0.356000
2296.92, 0.356453
2297.94, 0.356227
2298.96, 0.355773
2299.98, 0.355092
2301.0, 0.355319
2302.02, 0.355886
2303.04, 0.356227
2304.07, 0.355546
2305.09, 0.354752
2306.12, 0.355206
2307.15, 0.355773
2308.17, 0.355319
2309.2, 0.354299
2310.23, 0.353958
2311.26, 0.354072
2312.29, 0.354412
2313.32, 0.354185
2314.35, 0.354072
2315.39, 0.353731
2316.42, 0.353731
2317.46, 0.353845
2318.5, 0.354072
2319.53, 0.354072
2320.57, 0.353278
2321.61, 0.353278
2322.65, 0.353958
2323.69, 0.353731
2324.73, 0.352824
2325.78, 0.352257
2326.82, 0.352144
2327.86, 0.352711
2328.91, 0.352711
2329.96, 0.352257
2331.01, 0.352597
2332.05, 0.353164
2333.1, 0.352938
2334.15, 0.352711
2335.21, 0.352484
2336.26, 0.352257
2337.31, 0.352484
2338.36, 0.353164
2339.42, 0.352938
2340.48, 0.352938
2341.53, 0.353051
2342.59, 0.353278
2343.65, 0.353278
2344.71, 0.353051
2345.77, 0.352711
2346.83, 0.352711
2347.9, 0.353164
2348.96, 0.353391
2350.02, 0.353505
2351.09, 0.354299
2352.16, 0.354639
2353.23, 0.354185
2354.29, 0.354185
2355.36, 0.355092
2356.43, 0.356000
2357.51, 0.355886
2358.58, 0.355092
2359.65, 0.355319
2360.73, 0.356113
2361.8, 0.356680
2362.88, 0.357020
2363.96, 0.357474
2365.03, 0.357928
2366.11, 0.357701
2367.19, 0.357701
2368.27, 0.358495
2369.36, 0.358835
2370.44, 0.358381
2371.53, 0.358041
2372.61, 0.359175
2373.7, 0.359969
2374.78, 0.359856
2375.87, 0.359629
2376.96, 0.359515
2378.05, 0.359629
2379.14, 0.360309
2380.24, 0.361330
2381.33, 0.361557
2382.42, 0.361557
2383.52, 0.361330
2384.61, 0.361103
2385.71, 0.361103
2386.81, 0.361557
2387.91, 0.362237
2389.01, 0.362578
2390.11, 0.362804
2391.22, 0.362918
2392.32, 0.363145
2393.42, 0.363485
2394.53, 0.363939
2395.64, 0.364506
2396.74, 0.364732
2397.85, 0.365073
2398.96, 0.364846
2400.07, 0.364732
2401.18, 0.365299
2402.3, 0.365640
2403.41, 0.366320
2404.52, 0.366660
2405.64, 0.367114
2406.76, 0.367341
2407.88, 0.367568
2408.99, 0.367681
2410.11, 0.368135
2411.23, 0.368815
2412.36, 0.369042
2413.48, 0.369382
2414.6, 0.369836
2415.73, 0.369949
2416.85, 0.369949
2417.98, 0.369609
2419.11, 0.370063
2420.24, 0.370857
2421.37, 0.371197
2422.5, 0.371083
2423.64, 0.371197
2424.77, 0.371424
2425.9, 0.372218
2427.04, 0.372898
2428.18, 0.373238
2429.31, 0.373352
2430.45, 0.373692
2431.59, 0.373692
2432.73, 0.373805
2433.88, 0.373692
2435.02, 0.374146
2436.16, 0.374713
2437.31, 0.375280
2438.45, 0.375393
2439.6, 0.375166
2440.75, 0.375166
2441.9, 0.375733
2443.05, 0.376641
2444.2, 0.376981
2445.35, 0.376868
2446.51, 0.376754
2447.67, 0.377094
2448.82, 0.377321
2449.98, 0.377321
2451.14, 0.377548
2452.3, 0.377888
2453.46, 0.378342
2454.62, 0.378228
2455.78, 0.378342
2456.94, 0.379249
2458.11, 0.380156
2459.28, 0.380610
2460.44, 0.380497
2461.61, 0.380837
2462.78, 0.381064
2463.95, 0.381177
2465.12, 0.381744
2466.3, 0.381858
2467.47, 0.382311
2468.65, 0.382311
2469.82, 0.382198
2471.0, 0.382651
2472.18, 0.383332
2473.36, 0.383445
2474.54, 0.383672
2475.72, 0.383786
2476.9, 0.384239
2478.08, 0.384806
2479.27, 0.385373
2480.46, 0.386054
2481.64, 0.386281
2482.83, 0.386734
2484.02, 0.387642
2485.21, 0.388209
2486.4, 0.388435
2487.6, 0.389116
2488.79, 0.389343
2489.99, 0.389570
2491.18, 0.389570
2492.38, 0.389570
2493.58, 0.390137
2494.78, 0.390363
2495.98, 0.390931
2497.18, 0.391724
2498.39, 0.392518
2499.59, 0.392745
2500.8, 0.392859
2502.01, 0.393652
2503.21, 0.394673
2504.42, 0.395240
2505.63, 0.395807
2506.84, 0.396374
2508.06, 0.396601
2509.27, 0.397282
2510.49, 0.397622
2511.7, 0.397962
2512.92, 0.398643
2514.14, 0.398983
2515.36, 0.399436
2516.58, 0.400344
2517.8, 0.401251
2519.03, 0.401705
2520.25, 0.402045
2521.48, 0.402158
2522.7, 0.403066
2523.93, 0.403746
2525.16, 0.404653
2526.39, 0.405787
2527.62, 0.406128
2528.86, 0.406468
2530.09, 0.407489
2531.33, 0.408283
2532.56, 0.408509
2533.8, 0.408623
2535.04, 0.409643
2536.28, 0.410551
2537.52, 0.410778
2538.76, 0.411571
2540.01, 0.412252
2541.25, 0.413159
2542.5, 0.414407
2543.75, 0.414860
2544.99, 0.414974
2546.24, 0.415314
2547.49, 0.416788
2548.75, 0.417356
2550.0, 0.418149
2551.26, 0.419284
2552.51, 0.419964
2553.77, 0.419737
2555.03, 0.419851
2556.29, 0.420644
2557.55, 0.421212
2558.81, 0.422459
2560.08, 0.425408
2561.34, 0.427676
2562.61, 0.427903
2563.88, 0.427789
2565.14, 0.426996
2566.41, 0.426315
2567.68, 0.427903
2568.96, 0.430398
2570.23, 0.430511
2571.51, 0.430171
2572.78, 0.433573
2574.06, 0.433573
2575.34, 0.433120
2576.62, 0.435048
2577.9, 0.434254
2579.18, 0.434027
2580.47, 0.436068
2581.75, 0.436976
2583.04, 0.439811
2584.32, 0.440718
2585.61, 0.439131
2586.9, 0.441059
2588.2, 0.441059
2589.49, 0.440492
2590.78, 0.440605
2592.08, 0.442079
2593.37, 0.448090
2594.67, 0.454895
2595.97, 0.450018
2597.27, 0.445368
2598.57, 0.444574
2599.88, 0.445935
2601.18, 0.447636
2602.49, 0.448657
2603.79, 0.450699
2605.1, 0.454101
2606.41, 0.453307
2607.72, 0.451946
2609.03, 0.452173
2610.35, 0.452400
2611.66, 0.452400
2612.98, 0.453420
2614.3, 0.453988
2615.62, 0.458070
2616.94, 0.460906
2618.26, 0.458864
2619.58, 0.461473
2620.91, 0.461359
2622.23, 0.457844
2623.56, 0.457957
2624.89, 0.460112
2626.22, 0.464308
2627.55, 0.463287
2628.88, 0.465215
2630.21, 0.469979
2631.55, 0.467030
2632.89, 0.465896
2634.22, 0.466803
2635.56, 0.465556
2636.9, 0.466009
2638.25, 0.466463
2639.59, 0.467370
2640.93, 0.468391
2642.28, 0.469638
2643.63, 0.470205
2644.98, 0.472474
2646.33, 0.473268
2647.68, 0.472927
2649.03, 0.473041
2650.39, 0.474402
2651.74, 0.477350
2653.1, 0.478258
2654.46, 0.477804
2655.82, 0.478711
2657.18, 0.478484
2658.54, 0.481093
2659.9, 0.482908
2661.27, 0.482908
2662.64, 0.483021
2664.01, 0.488124
2665.38, 0.492888
2666.74, 0.492774
2668.12, 0.489259
2669.49, 0.494135
2670.87, 0.495836
2672.24, 0.489826
2673.62, 0.489599
2675.0, 0.492434
2676.38, 0.495156
2677.76, 0.494929
2679.15, 0.494362
2680.54, 0.490393
2681.92, 0.488351
2683.31, 0.487444
2684.7, 0.485062
2686.09, 0.482908
2687.48, 0.479619
2688.88, 0.476556
2690.27, 0.474061
2691.67, 0.473154
2693.07, 0.474855
2694.47, 0.473608
2695.87, 0.469752
2697.27, 0.466349
2698.67, 0.464081
2700.08, 0.463401
2701.49, 0.462380
2702.9, 0.459545
2704.31, 0.458184
2705.72, 0.457957
2707.13, 0.458184
2708.54, 0.459885
2709.96, 0.461473
2711.38, 0.459318
2712.8, 0.453307
2714.22, 0.450132
2715.64, 0.446843
2717.06, 0.443554
2718.49, 0.440492
2719.91, 0.439924
2721.34, 0.434027
2722.77, 0.430058
2724.2, 0.431419
2725.63, 0.428583
2727.07, 0.424954
2728.5, 0.423707
2729.94, 0.423026
2731.38, 0.422232
2732.82, 0.422232
2734.26, 0.423707
2735.7, 0.421779
2737.15, 0.419964
2738.59, 0.422346
2740.04, 0.423253
2741.49, 0.419851
2742.94, 0.415314
2744.39, 0.412592
2745.84, 0.411004
2747.3, 0.409303
2748.76, 0.407829
2750.21, 0.406355
2751.67, 0.405220
2753.14, 0.404767
2754.6, 0.407829
2756.06, 0.407035
2757.53, 0.402158
2759.0, 0.399550
2760.46, 0.398529
2761.94, 0.400003
2763.41, 0.400911
2764.88, 0.400457
2766.36, 0.400911
2767.83, 0.401138
2769.31, 0.400571
2770.79, 0.400003
2772.27, 0.396828
2773.76, 0.393426
2775.24, 0.391044
2776.73, 0.389116
2778.22, 0.386508
2779.71, 0.384012
2781.2, 0.381971
2782.69, 0.379022
2784.18, 0.376868
2785.68, 0.376414
2787.18, 0.375960
2788.68, 0.373579
2790.18, 0.371764
2791.68, 0.370857
2793.19, 0.370176
2794.69, 0.369155
2796.2, 0.368248
2797.71, 0.367568
2799.22, 0.366660
2800.73, 0.367001
2802.24, 0.368475
2803.76, 0.368362
2805.28, 0.367568
2806.8, 0.367114
2808.32, 0.367114
2809.84, 0.367227
2811.36, 0.367227
2812.89, 0.367341
2814.42, 0.368021
2815.94, 0.368475
2817.48, 0.368702
2819.01, 0.369496
2820.54, 0.370516
2822.08, 0.371083
2823.61, 0.371651
2825.15, 0.372558
2826.69, 0.373692
2828.23, 0.374713
2829.78, 0.376300
2831.32, 0.378342
2832.87, 0.380383
2834.42, 0.382084
2835.97, 0.383332
2837.52, 0.385260
2839.08, 0.386734
2840.63, 0.388095
2842.19, 0.389683
2843.75, 0.391611
2845.31, 0.393199
2846.87, 0.394560
2848.44, 0.396034
2850.0, 0.397508
2851.57, 0.398416
2853.14, 0.399550
2854.71, 0.400117
2856.28, 0.400571
2857.86, 0.401364
2859.43, 0.402272
2861.01, 0.402725
2862.59, 0.403292
2864.17, 0.404200
2865.76, 0.404880
2867.34, 0.405220
2868.93, 0.405447
2870.52, 0.406014
2872.11, 0.406241
2873.7, 0.405787
2875.29, 0.405561
2876.89, 0.405787
2878.49, 0.405674
2880.08, 0.405334
2881.69, 0.405107
2883.29, 0.404994
2884.89, 0.404200
2886.5, 0.404086
2888.11, 0.403973
2889.72, 0.403292
2891.33, 0.403179
2892.94, 0.403292
2894.56, 0.402839
2896.17, 0.402499
2897.79, 0.402272
2899.42, 0.402272
2901.04, 0.402272
2902.66, 0.401931
2904.29, 0.401591
2905.92, 0.401364
2907.55, 0.401478
2909.18, 0.401818
2910.81, 0.401705
2912.45, 0.401818
2914.08, 0.401818
2915.72, 0.402385
2917.36, 0.402839
2919.01, 0.403292
2920.65, 0.403746
2922.3, 0.404653
2923.94, 0.405220
2925.59, 0.405674
2927.25, 0.405901
2928.9, 0.406468
2930.56, 0.407489
2932.21, 0.408396
2933.87, 0.409076
2935.53, 0.409870
2937.2, 0.410891
2938.86, 0.411798
2940.53, 0.412819
2942.2, 0.413840
2943.87, 0.414520
2945.54, 0.415768
2947.22, 0.417469
2948.89, 0.418263
2950.57, 0.418943
2952.25, 0.420077
2953.93, 0.421212
2955.62, 0.422346
2957.3, 0.423707
2958.99, 0.425181
2960.68, 0.426202
2962.37, 0.427449
2964.07, 0.429037
2965.76, 0.430511
2967.46, 0.431419
2969.16, 0.432553
2970.86, 0.434140
2972.56, 0.435615
2974.27, 0.436862
2975.98, 0.438337
2977.69, 0.439471
2979.4, 0.441172
2981.11, 0.442873
2982.83, 0.443894
2984.54, 0.444915
2986.26, 0.446162
2987.98, 0.447523
2989.71, 0.449451
2991.43, 0.450585
2993.16, 0.451833
2994.89, 0.453307
2996.62, 0.454781
2998.35, 0.456142
3000.09, 0.457617
3001.83, 0.459204
3003.57, 0.460679
3005.31, 0.462153
3007.05, 0.463741
3008.79, 0.465102
3010.54, 0.466463
3012.29, 0.467824
3014.04, 0.469071
3015.8, 0.470205
3017.55, 0.471793
3019.31, 0.473494
3021.07, 0.475082
3022.83, 0.476443
3024.59, 0.477804
3026.36, 0.479392
3028.13, 0.480980
3029.9, 0.482340
3031.67, 0.483815
3033.44, 0.485403
3035.22, 0.486764
3037.0, 0.488351
3038.78, 0.489939
3040.56, 0.491187
3042.34, 0.492888
3044.13, 0.494476
3045.92, 0.496290
3047.71, 0.498445
3049.5, 0.500146
3051.3, 0.501507
3053.09, 0.503322
3054.89, 0.505250
3056.69, 0.507291
3058.5, 0.508992
3060.3, 0.510807
3062.11, 0.512621
3063.92, 0.514663
3065.73, 0.516591
3067.55, 0.518405
3069.36, 0.520220
3071.18, 0.522148
3073.0, 0.524189
3074.82, 0.526117
3076.65, 0.527819
3078.48, 0.529747
3080.31, 0.531675
3082.14, 0.533489
3083.97, 0.535190
3085.8, 0.537118
3087.64, 0.539046
3089.48, 0.540861
3091.33, 0.542902
3093.17, 0.544944
3095.02, 0.546758
3096.87, 0.548573
3098.72, 0.550161
3100.57, 0.551749
3102.43, 0.553336
3104.28, 0.555378
3106.14, 0.557306
3108.01, 0.559234
3109.87, 0.560821
3111.74, 0.562182
3113.61, 0.563884
3115.48, 0.566038
3117.35, 0.567626
3119.23, 0.569327
3121.1, 0.570915
3122.98, 0.572389
3124.87, 0.573977
3126.75, 0.575678
3128.64, 0.577153
3130.53, 0.578741
3132.42, 0.580328
3134.31, 0.581916
3136.21, 0.583504
3138.11, 0.585092
3140.01, 0.586679
3141.91, 0.587927
3143.82, 0.589515
3145.73, 0.591102
3147.64, 0.592577
3149.55, 0.593938
3151.46, 0.595072
3153.38, 0.596433
3155.3, 0.597794
3157.22, 0.598928
3159.14, 0.600062
3161.07, 0.601536
3163.0, 0.602897
3164.93, 0.604145
3166.86, 0.605279
3168.8, 0.606867
3170.74, 0.607887
3172.68, 0.609021
3174.62, 0.610042
3176.56, 0.611176
3178.51, 0.612310
3180.46, 0.613331
3182.42, 0.614238
3184.37, 0.615259
3186.33, 0.616280
3188.29, 0.617301
3190.25, 0.618321
3192.21, 0.619569
3194.18, 0.620363
3196.15, 0.621383
3198.12, 0.622518
3200.09, 0.623425
3202.07, 0.623992
3204.05, 0.625013
3206.03, 0.626033
3208.02, 0.627054
3210.0, 0.627848
3211.99, 0.628642
3213.98, 0.629436
3215.98, 0.630116
3217.97, 0.630570
3219.97, 0.631250
3221.97, 0.632044
3223.98, 0.633065
3225.98, 0.633745
3227.99, 0.634539
3230.0, 0.634993
3232.02, 0.635333
3234.03, 0.635673
3236.05, 0.636354
3238.07, 0.636921
3240.1, 0.637374
3242.12, 0.637715
3244.15, 0.638509
3246.18, 0.638622
3248.22, 0.638735
3250.25, 0.639076
3252.29, 0.639302
3254.33, 0.639416
3256.38, 0.639416
3258.43, 0.639643
3260.47, 0.640096
3262.53, 0.640210
3264.58, 0.640323
3266.64, 0.640550
3268.7, 0.640890
3270.76, 0.641117
3272.82, 0.641230
3274.89, 0.641344
3276.96, 0.641457
3279.04, 0.641571
3281.11, 0.641684
3283.19, 0.641911
3285.27, 0.642138
3287.35, 0.642251
3289.44, 0.642365
3291.53, 0.642705
3293.62, 0.643272
3295.71, 0.643385
3297.81, 0.643839
3299.91, 0.644179
3302.01, 0.644406
3304.11, 0.644406
3306.22, 0.644746
3308.33, 0.644860
3310.44, 0.644973
3312.56, 0.645313
3314.68, 0.645880
3316.8, 0.645880
3318.92, 0.646107
3321.05, 0.646334
3323.18, 0.646334
3325.31, 0.646674
3327.44, 0.647128
3329.58, 0.647128
3331.72, 0.647355
3333.86, 0.647582
3336.01, 0.648035
3338.16, 0.648262
3340.31, 0.648602
3342.46, 0.648716
3344.61, 0.648829
3346.77, 0.648602
3348.94, 0.648149
3351.1, 0.647922
3353.27, 0.647808
3355.44, 0.647468
3357.61, 0.647014
3359.79, 0.646221
3361.97, 0.645200
3364.15, 0.643952
3366.33, 0.642478
3368.52, 0.640777
3370.71, 0.639416
3372.9, 0.638622
3375.1, 0.637828
3377.3, 0.637374
3379.5, 0.637374
3381.71, 0.637374
3383.91, 0.637828
3386.12, 0.638735
3388.34, 0.639416
3390.55, 0.639416
3392.77, 0.639076
3394.99, 0.638282
3397.22, 0.636807
3399.45, 0.635106
3401.68, 0.633178
3403.91, 0.630797
3406.15, 0.627961
3408.39, 0.625239
3410.63, 0.622858
3412.87, 0.620703
3415.12, 0.618888
3417.37, 0.617981
3419.63, 0.618775
3421.88, 0.620816
3424.14, 0.623765
3426.41, 0.627054
3428.67, 0.630683
3430.94, 0.634312
3433.21, 0.637488
3435.49, 0.640096
3437.77, 0.642365
3440.05, 0.644179
3442.33, 0.645427
3444.62, 0.646447
3446.91, 0.647582
3449.2, 0.648375
3451.5, 0.649396
3453.8, 0.650417
3456.1, 0.651324
3458.41, 0.652005
3460.72, 0.652912
3463.03, 0.653139
3465.34, 0.652912
3467.66, 0.652798
3469.98, 0.653025
3472.31, 0.652345
3474.63, 0.652005
3476.96, 0.651778
3479.3, 0.651324
3481.64, 0.650870
3483.97, 0.650303
3486.32, 0.649509
3488.66, 0.648035
3491.01, 0.646447
3493.36, 0.645086
3495.72, 0.642932
3498.08, 0.640323
3500.44, 0.638395
3502.81, 0.637715
3505.18, 0.638282
3507.55, 0.639983
3509.92, 0.642705
3512.3, 0.645767
3514.68, 0.648489
3517.06, 0.650870
3519.45, 0.652118
3521.84, 0.653139
3524.24, 0.653819
3526.64, 0.654273
3529.04, 0.654273
3531.44, 0.654500
3533.85, 0.654386
3536.26, 0.654046
3538.67, 0.653819
3541.09, 0.653706
3543.51, 0.653479
3545.93, 0.653365
3548.36, 0.653139
3550.79, 0.653025
3553.22, 0.653025
3555.66, 0.653025
3558.1, 0.652798
3560.54, 0.652798
3562.99, 0.652685
3565.44, 0.652572
3567.9, 0.652458
3570.35, 0.652231
3572.81, 0.652005
3575.28, 0.652005
3577.75, 0.651778
3580.22, 0.651664
3582.69, 0.651438
3585.17, 0.651211
3587.65, 0.650757
3590.14, 0.650644
3592.62, 0.650303
3595.11, 0.650077
3597.61, 0.649850
3600.11, 0.649963
3602.61, 0.649623
3605.11, 0.649056
3607.62, 0.648602
3610.14, 0.648489
3612.65, 0.648035
3615.17, 0.647808
3617.69, 0.647582
3620.22, 0.647355
3622.75, 0.646788
3625.28, 0.646447
3627.82, 0.645880
3630.36, 0.645427
3632.9, 0.644973
3635.45, 0.644633
3638.0, 0.644293
3640.56, 0.643952
3643.12, 0.643385
3645.68, 0.642818
3648.24, 0.642365
3650.81, 0.642138
3653.39, 0.641457
3655.96, 0.640777
3658.54, 0.640437
3661.13, 0.640096
3663.71, 0.639189
3666.3, 0.638622
3668.9, 0.638055
3671.5, 0.637488
3674.1, 0.637261
3676.7, 0.637034
3679.31, 0.636240
3681.93, 0.635446
3684.54, 0.634766
3687.17, 0.634539
3689.79, 0.634199
3692.42, 0.633292
3695.05, 0.632498
3697.69, 0.631931
3700.32, 0.631250
3702.97, 0.630683
3705.61, 0.630229
3708.27, 0.629662
3710.92, 0.628869
3713.58, 0.627848
3716.24, 0.627054
3718.91, 0.626714
3721.58, 0.626147
3724.25, 0.625466
3726.93, 0.624786
3729.61, 0.624105
3732.29, 0.623198
3734.98, 0.622744
3737.67, 0.621950
3740.37, 0.621270
3743.07, 0.620589
3745.78, 0.620022
3748.49, 0.619455
3751.2, 0.618888
3753.91, 0.618321
3756.63, 0.617527
3759.36, 0.616620
3762.09, 0.615940
3764.82, 0.615373
3767.55, 0.614806
3770.29, 0.614012
3773.04, 0.613558
3775.78, 0.612878
3778.54, 0.611970
3781.29, 0.611403
3784.05, 0.610950
3786.82, 0.610042
3789.59, 0.609362
3792.36, 0.608795
3795.13, 0.608568
3797.92, 0.608001
3800.7, 0.607207
3803.49, 0.606640
3806.28, 0.606073
3809.08, 0.605506
3811.88, 0.605165
3814.68, 0.604485
3817.49, 0.604258
3820.31, 0.603805
3823.12, 0.603464
3825.94, 0.603124
3828.77, 0.602670
3831.6, 0.602217
3834.43, 0.601990
3837.27, 0.601650
3840.11, 0.601196
3842.96, 0.600856
3845.81, 0.600629
3848.67, 0.600516
3851.53, 0.600516
3854.39, 0.600175
3857.26, 0.599949
3860.13, 0.599608
3863.01, 0.599495
3865.89, 0.599268
3868.77, 0.598928
3871.66, 0.598474
3874.55, 0.598361
3877.45, 0.598247
3880.35, 0.598020
3883.26, 0.597567
3886.17, 0.597113
3889.09, 0.596773
3892.01, 0.596546
3894.93, 0.596206
3897.86, 0.595639
3900.79, 0.595072
3903.73, 0.594845
3906.67, 0.594391
3909.62, 0.593824
3912.57, 0.593144
3915.52, 0.592804
3918.48, 0.592237
3921.45, 0.591669
3924.42, 0.591102
3927.39, 0.590422
3930.37, 0.589515
3933.35, 0.588834
3936.34, 0.588267
3939.33, 0.587813
3942.32, 0.587133
3945.32, 0.586226
3948.33, 0.585432
3951.34, 0.584751
3954.35, 0.583844
3957.37, 0.583277
3960.39, 0.582597
3963.42, 0.582029
3966.45, 0.581236
3969.49, 0.580442
3972.53, 0.579648
3975.58, 0.578854
3978.63, 0.578060
3981.68, 0.577493
3984.75, 0.576699
3987.81, 0.575905
3990.88, 0.575225
3993.95, 0.574658
3997.03, 0.573864
4000.12, 0.573070
4003.21, 0.572163
4006.3, 0.571482
4009.4, 0.570575
4012.5, 0.569554
4015.61, 0.568647
4018.72, 0.567626
4021.84, 0.566946
4024.96, 0.566265
4028.09, 0.565131
4031.22, 0.564224
4034.36, 0.563317
4037.5, 0.562296
4040.65, 0.561275
4043.8, 0.560254
4046.96, 0.559120
4050.12, 0.558100
4053.29, 0.556965
4056.46, 0.556058
4059.64, 0.554924
4062.82, 0.553790
4066.0, 0.552883
4069.19, 0.551862
4072.39, 0.550614
4075.59, 0.549594
4078.8, 0.548119
4082.01, 0.546985
4085.23, 0.545965
4088.45, 0.544830
4091.68, 0.543583
4094.91, 0.542449
4098.15, 0.541201
4101.39, 0.540180
4104.63, 0.539046
4107.89, 0.538026
4111.14, 0.537118
4114.41, 0.535871
4117.67, 0.534510
4120.95, 0.533376
4124.23, 0.532468
4127.51, 0.531561
4130.8, 0.530427
4134.09, 0.529293
4137.39, 0.528159
4140.7, 0.526911
4144.01, 0.525891
4147.32, 0.524983
4150.64, 0.523622
4153.97, 0.522375
4157.3, 0.521354
4160.64, 0.520447
4163.98, 0.519313
4167.33, 0.518179
4170.68, 0.517044
4174.04, 0.515910
4177.4, 0.514776
4180.77, 0.513529
4184.14, 0.512168
4187.52, 0.511034
4190.91, 0.509900
4194.3, 0.508765
4197.69, 0.507291
4201.1, 0.506270
4204.5, 0.505363
4207.92, 0.504569
4211.34, 0.503662
4214.76, 0.502641
4218.19, 0.501734
4221.62, 0.500940
4225.06, 0.500033
4228.51, 0.498899
4231.96, 0.497424
4235.42, 0.495610
4238.88, 0.494022
4242.35, 0.492321
4245.83, 0.490053
4249.31, 0.487671
4252.79, 0.485289
4256.28, 0.483475
4259.78, 0.482681
4263.29, 0.482227
4266.79, 0.481660
4270.31, 0.481093
4273.83, 0.480186
4277.35, 0.479392
4280.89, 0.478825
4284.42, 0.477917
4287.97, 0.476897
4291.52, 0.476216
4295.07, 0.475422
4298.63, 0.474629
4302.2, 0.473835
4305.78, 0.473154
4309.35, 0.472360
4312.94, 0.471566
4316.53, 0.470659
4320.13, 0.469865
4323.73, 0.469185
4327.34, 0.468504
4330.96, 0.467597
4334.58, 0.466576
4338.21, 0.465556
4341.84, 0.464875
4345.48, 0.463741
4349.12, 0.462607
4352.77, 0.461586
4356.43, 0.460792
4360.1, 0.459885
4363.76, 0.458751
4367.44, 0.457503
4371.12, 0.456483
4374.81, 0.455575
4378.51, 0.454555
4382.21, 0.453307
4385.92, 0.452173
4389.63, 0.451039
4393.35, 0.450132
4397.08, 0.448997
4400.81, 0.447863
4404.55, 0.446616
4408.29, 0.445595
4412.04, 0.444348
4415.8, 0.443100
4419.57, 0.442079
4423.34, 0.441399
4427.12, 0.440265
4430.9, 0.439017
4434.69, 0.437883
4438.49, 0.436749
4442.29, 0.435728
4446.1, 0.434708
4449.92, 0.433573
4453.74, 0.432212
4457.57, 0.430965
4461.41, 0.429831
4465.25, 0.428583
4469.1, 0.427563
4472.95, 0.426542
4476.82, 0.425521
4480.69, 0.424500
4484.56, 0.423480
4488.44, 0.422346
4492.33, 0.421212
4496.23, 0.420077
4500.13, 0.419170
4504.04, 0.418149
4507.96, 0.417242
4511.88, 0.416335
4515.81, 0.415654
4519.75, 0.414520
4523.69, 0.413386
4527.65, 0.412252
4531.6, 0.411345
4535.57, 0.410324
4539.54, 0.409530
4543.52, 0.408396
4547.5, 0.407489
4551.5, 0.406355
4555.5, 0.405107
4559.5, 0.404086
4563.52, 0.403179
4567.54, 0.401931
4571.56, 0.400797
4575.6, 0.399890
4579.64, 0.398869
4583.69, 0.397508
4587.75, 0.396261
4591.81, 0.395013
4595.88, 0.393879
4599.96, 0.392632
4604.04, 0.391384
4608.14, 0.390137
4612.24, 0.388776
4616.34, 0.387301
4620.46, 0.385940
4624.58, 0.384693
4628.71, 0.383332
4632.84, 0.382084
4636.99, 0.381064
4641.14, 0.379589
4645.3, 0.378228
4649.47, 0.376981
4653.64, 0.375620
4657.82, 0.374032
4662.01, 0.372671
4666.21, 0.371537
4670.41, 0.370630
4674.62, 0.369269
4678.84, 0.368021
4683.07, 0.366887
4687.3, 0.365640
4691.54, 0.364506
4695.79, 0.363485
4700.05, 0.362578
4704.31, 0.361217
4708.59, 0.359969
4712.87, 0.358722
4717.15, 0.357701
4721.45, 0.356227
4725.76, 0.355092
4730.07, 0.353618
4734.39, 0.352257
4738.72, 0.350783
4743.05, 0.349308
4747.39, 0.347721
4751.75, 0.346133
4756.1, 0.344545
4760.47, 0.342844
4764.85, 0.341370
4769.23, 0.339555
4773.62, 0.338081
4778.02, 0.336039
4782.43, 0.334451
4786.85, 0.332750
4791.27, 0.331163
4795.7, 0.329461
4800.14, 0.327760
4804.59, 0.326059
4809.05, 0.324358
4813.51, 0.322883
4817.99, 0.321523
4822.47, 0.320162
4826.96, 0.318801
4831.46, 0.317440
4835.96, 0.316306
4840.48, 0.315171
4845.0, 0.314151
4849.54, 0.312790
4854.08, 0.311656
4858.63, 0.310522
4863.18, 0.309161
4867.75, 0.307686
4872.33, 0.306439
4876.91, 0.305305
4881.5, 0.304057
4886.1, 0.302696
4890.71, 0.301335
4895.33, 0.299861
4899.96, 0.298273
4904.59, 0.296572
4909.24, 0.294984
4913.89, 0.293396
4918.55, 0.291809
4923.22, 0.290334
4927.9, 0.288633
4932.59, 0.286705
4937.29, 0.284891
4942.0, 0.282963
4946.71, 0.281261
4951.44, 0.279560
4956.17, 0.277632
4960.91, 0.275591
4965.67, 0.273663
4970.43, 0.271508
4975.2, 0.269580
4979.98, 0.267765
4984.76, 0.265951
4989.56, 0.264023
4994.37, 0.262095
4999.18, 0.260053
5004.01, 0.258012
5008.84, 0.255744
5013.69, 0.253589
5018.54, 0.251207
5023.4, 0.248712
5028.28, 0.245990
5033.16, 0.243268
5038.05, 0.240320
5042.95, 0.237371
5047.86, 0.233969
5052.78, 0.230339
5057.71, 0.226710
5062.65, 0.222968
5067.6, 0.219112
5072.56, 0.215256
5077.53, 0.211400
5082.5, 0.207770
5087.49, 0.204255
5092.49, 0.200626
5097.5, 0.196996
5102.51, 0.193481
5107.54, 0.189965
5112.58, 0.186789
5117.62, 0.183614
5122.68, 0.180665
5127.75, 0.177830
5132.82, 0.175108
5137.91, 0.172386
5143.01, 0.169778
5148.12, 0.167396
5153.23, 0.164787
5158.36, 0.162292
5163.5, 0.160024
5168.65, 0.157983
5173.81, 0.156168
5178.98, 0.154353
5184.15, 0.152539
5189.34, 0.150611
5194.54, 0.148910
5199.75, 0.147209
5204.98, 0.145507
5210.21, 0.143920
5215.45, 0.142218
5220.7, 0.140517
5225.96, 0.139043
5231.23, 0.137455
5236.52, 0.135981
5241.81, 0.134393
5247.12, 0.133145
5252.44, 0.132011
5257.76, 0.130877
5263.1, 0.130083
5268.45, 0.129403
5273.81, 0.128836
5279.18, 0.128382
5284.56, 0.127929
5289.95, 0.127702
5295.36, 0.127248
5300.77, 0.126908
5306.2, 0.126794
5311.63, 0.126794
5317.08, 0.126681
5322.54, 0.126681
5328.01, 0.126681
5333.49, 0.126794
5338.98, 0.126681
5344.49, 0.126341
5350.0, 0.126114
5355.53, 0.125207
5361.07, 0.123846
5366.62, 0.122598
5372.18, 0.121351
5377.75, 0.119990
5383.34, 0.118742
5388.93, 0.117381
5394.54, 0.116134
5400.16, 0.115000
5405.79, 0.113752
5411.44, 0.112731
5417.09, 0.112278
5422.76, 0.111711
5428.43, 0.110236
5434.12, 0.109216
5439.83, 0.108195
5445.54, 0.107174
5451.26, 0.105927
5457.0, 0.104793
5462.75, 0.103772
5468.52, 0.102411
5474.29, 0.101390
5480.08, 0.100256
5485.88, 0.0987820
5491.69, 0.0978740
5497.51, 0.0970810
5503.35, 0.0964000
5509.2, 0.0958330
5515.06, 0.0954930
5520.93, 0.0952660
5526.82, 0.0949260
5532.71, 0.0948120
5538.63, 0.0945850
5544.55, 0.0944720
5550.49, 0.0944720
5556.44, 0.0940180
5562.4, 0.0935650
5568.37, 0.0934510
5574.36, 0.0934510
5580.36, 0.0932250
5586.37, 0.0924310
5592.4, 0.0918640
5598.44, 0.0915230
5604.49, 0.0911830
5610.56, 0.0907290
5616.63, 0.0903890
5622.73, 0.0901620
5628.83, 0.0900490
5634.95, 0.0903890
5641.08, 0.0910700
5647.23, 0.0907290
5653.39, 0.0906160
5659.56, 0.0906160
5665.74, 0.0907290
5671.94, 0.0912970
5678.15, 0.0916370
5684.38, 0.0920900
5690.62, 0.0929980
5696.87, 0.0936780
5703.14, 0.0946990
5709.42, 0.0960600
5715.72, 0.0969670
5722.03, 0.0977610
5728.35, 0.0986680
5734.69, 0.0999160
5741.03, 0.101504
5747.4, 0.103318
5753.78, 0.104452
5760.17, 0.106721
5766.58, 0.109783
5773.0, 0.111030
5779.44, 0.112618
5785.88, 0.114659
5792.35, 0.117268
5798.83, 0.120217
5805.32, 0.123619
5811.83, 0.127361
5818.35, 0.132125
5824.89, 0.135867
5831.45, 0.138476
5838.01, 0.141311
5844.59, 0.144487
5851.19, 0.148229
5857.8, 0.152199
5864.43, 0.155601
5871.07, 0.158550
5877.73, 0.163653
5884.4, 0.166035
5891.09, 0.167169
5897.79, 0.169437
5904.5, 0.169437
5911.23, 0.170458
5917.98, 0.172046
5924.75, 0.173634
5931.53, 0.176696
5938.32, 0.178737
5945.13, 0.177376
5951.96, 0.177149
5958.8, 0.177943
5965.65, 0.179985
5972.53, 0.180438
5979.42, 0.180211
5986.32, 0.181346
5993.24, 0.181346
6000.18, 0.180438
6007.13, 0.180778
6014.1, 0.181232
6021.08, 0.180438
6028.09, 0.180098
6035.1, 0.180438
6042.14, 0.183274
6049.19, 0.185542
6056.25, 0.181799
6063.34, 0.180325
6070.44, 0.181346
6077.55, 0.180211
6084.69, 0.178283
6091.84, 0.177716
6099.0, 0.177603
6106.19, 0.178624
6113.39, 0.179418
6120.61, 0.177376
6127.84, 0.175675
6135.09, 0.175221
6142.36, 0.174994
6149.65, 0.174654
6156.95, 0.174881
6164.27, 0.174087
6171.61, 0.172953
6178.97, 0.173747
6186.34, 0.173974
6193.73, 0.171819
6201.14, 0.170685
6208.57, 0.170231
6216.01, 0.169778
6223.47, 0.169324
6230.95, 0.168757
6238.45, 0.168190
6245.97, 0.167509
6253.5, 0.166602
6261.06, 0.165695
6268.63, 0.164674
6276.21, 0.163880
6283.82, 0.162973
6291.45, 0.161952
6299.1, 0.160478
6306.76, 0.159344
6314.44, 0.158096
6322.14, 0.156849
6329.86, 0.155488
6337.6, 0.155374
6345.35, 0.154694
6353.13, 0.151632
6360.92, 0.149930
6368.74, 0.149250
6376.57, 0.147209
6384.43, 0.145507
6392.3, 0.144033
6400.19, 0.143126
6408.1, 0.144487
6416.03, 0.144033
6423.98, 0.140404
6431.95, 0.138249
6439.94, 0.136321
6447.95, 0.135187
6455.98, 0.134166
6464.03, 0.133259
6472.1, 0.132919
6480.19, 0.133032
6488.31, 0.133713
6496.44, 0.132805
6504.59, 0.129857
6512.76, 0.128609
6520.95, 0.128155
6529.16, 0.126454
6537.4, 0.125207
6545.65, 0.124640
6553.92, 0.123732
6562.22, 0.122825
6570.54, 0.122258
6578.88, 0.120103
6587.23, 0.118289
6595.61, 0.116814
6604.02, 0.115113
6612.44, 0.113979
6620.89, 0.112731
6629.35, 0.112958
6637.84, 0.112505
6646.35, 0.110009
6654.88, 0.108081
6663.44, 0.107514
6672.01, 0.107174
6680.61, 0.106607
6689.23, 0.105133
6697.88, 0.104225
6706.54, 0.104112
6715.23, 0.103885
6723.94, 0.102978
6732.67, 0.101957
6741.42, 0.101163
6750.2, 0.100710
6759.0, 0.100256
6767.82, 0.100143
6776.67, 0.100143
6785.54, 0.100710
6794.44, 0.100483
6803.35, 0.0993490
6812.29, 0.0990090
6821.26, 0.0995760
6830.24, 0.0996890
6839.25, 0.0993490
6848.29, 0.0999160
6857.35, 0.101390
6866.43, 0.101730
6875.54, 0.100710
6884.67, 0.100369
6893.82, 0.100596
6903.0, 0.101163
6912.2, 0.101277
6921.43, 0.101390
6930.69, 0.101504
6939.96, 0.101390
6949.27, 0.101617
6958.59, 0.102071
6967.95, 0.101390
6977.33, 0.100369
6986.73, 0.0998020
6996.16, 0.0990090
7005.61, 0.0978740
7015.09, 0.0967400
7024.6, 0.0954930
7034.13, 0.0945850
7043.69, 0.0937920
7053.27, 0.0920900
7062.88, 0.0906160
7072.52, 0.0891420
7082.18, 0.0880080
7091.87, 0.0869870
7101.58, 0.0859660
7111.32, 0.0850590
7121.09, 0.0840380
7130.88, 0.0829040
7140.71, 0.0822240
7150.56, 0.0814300
7160.43, 0.0805220
7170.33, 0.0796150
7180.27, 0.0784810
7190.23, 0.0775740
7200.21, 0.0770070
7210.23, 0.0763260
7220.27, 0.0756460
7230.34, 0.0750790
7240.44, 0.0746250
7250.56, 0.0741710
7260.72, 0.0739450
7270.9, 0.0739450
7281.12, 0.0738310
7291.36, 0.0736040
7301.63, 0.0738310
7311.93, 0.0739450
7322.25, 0.0739450
7332.61, 0.0741710
7343.0, 0.0743980
7353.41, 0.0745120
7363.86, 0.0746250
7374.33, 0.0747380
7384.83, 0.0749650
7395.37, 0.0749650
7405.93, 0.0749650
7416.53, 0.0749650
7427.15, 0.0748520
7437.81, 0.0748520
7448.5, 0.0747380
7459.22, 0.0747380
7469.96, 0.0747380
7480.74, 0.0746250
7491.55, 0.0743980
7502.39, 0.0742850
7513.27, 0.0740580
7524.17, 0.0739450
7535.11, 0.0738310
7546.08, 0.0737180
7557.08, 0.0737180
7568.11, 0.0736040
7579.17, 0.0738310
7590.27, 0.0739450
7601.4, 0.0740580
7612.56, 0.0739450
7623.76, 0.0737180
7634.98, 0.0737180
7646.24, 0.0738310
7657.54, 0.0741710
7668.87, 0.0742850
7680.23, 0.0740580
7691.62, 0.0738310
7703.05, 0.0734910
7714.51, 0.0731510
7726.01, 0.0728100
7737.54, 0.0722430
7749.11, 0.0713360
7760.71, 0.0704290
7772.35, 0.0696350
7784.02, 0.0687280
7795.72, 0.0674800
7807.46, 0.0662330
7819.23, 0.0653250
7831.04, 0.0644180
7842.89, 0.0632840
7854.77, 0.0621500
7866.69, 0.0611290
7878.65, 0.0599950
7890.64, 0.0589740
7902.67, 0.0579530
7914.74, 0.0571600
7926.84, 0.0562520
7938.98, 0.0551180
7951.16, 0.0542110
7963.37, 0.0534170
7975.62, 0.0523960
7987.91, 0.0513760
8000.24, 0.0506950
8012.6, 0.0499010
8025.01, 0.0491070
8037.45, 0.0482000
8049.93, 0.0474060
8062.45, 0.0466120
8075.01, 0.0461590
8087.61, 0.0455920
8100.24, 0.0450240
8112.91, 0.0443440
8125.63, 0.0440040
8138.39, 0.0436640
8151.18, 0.0434370
8164.02, 0.0429830
8176.9, 0.0424160
8189.81, 0.0416220
8202.77, 0.0409420
8215.77, 0.0402610
8228.82, 0.0400340
8241.9, 0.0393540
8255.02, 0.0384470
8268.19, 0.0376530
8281.39, 0.0370860
8294.65, 0.0362920
8307.94, 0.0353840
8321.28, 0.0347040
8334.66, 0.0341370
8348.08, 0.0335700
8361.54, 0.0327760
8375.05, 0.0319820
8388.6, 0.0313020
8402.2, 0.0307350
8415.84, 0.0301680
8429.52, 0.0296000
8443.25, 0.0290330
8457.02, 0.0284660
8470.84, 0.0278990
8484.7, 0.0275590
8498.61, 0.0271050
8512.57, 0.0266520
8526.57, 0.0265380
8540.62, 0.0261980
8554.71, 0.0256310
8568.85, 0.0249510
8583.04, 0.0240430
8597.27, 0.0233630
8611.55, 0.0225690
8625.88, 0.0217750
8640.26, 0.0214350
8654.68, 0.0213210
8669.16, 0.0217750
8683.68, 0.0220020
8698.25, 0.0222290
8712.87, 0.0224560
8727.53, 0.0225690
8742.25, 0.0227960
8757.02, 0.0227960
8771.83, 0.0226820
8786.7, 0.0225690
8801.62, 0.0231360
8816.59, 0.0238160
8831.61, 0.0241570
8846.68, 0.0246100
8861.8, 0.0248370
8876.97, 0.0250640
8892.2, 0.0256310
8907.48, 0.0260850
8922.81, 0.0264250
8938.2, 0.0266520
8953.63, 0.0268790
8969.13, 0.0274460
8984.67, 0.0282400
9000.27, 0.0289200
9015.92, 0.0296000
9031.63, 0.0303940
9047.39, 0.0311880
9063.21, 0.0323220
9079.08, 0.0333430
9095.01, 0.0345910
9111.0, 0.0362920
9127.04, 0.0381060
9143.13, 0.0395810
9159.28, 0.0416220
9175.49, 0.0438900
9191.76, 0.0464990
9208.09, 0.0496740
9224.47, 0.0537570
9240.92, 0.0588610
9257.42, 0.0644180
9273.98, 0.0708820
9290.6, 0.0781410
9307.28, 0.0857390
9324.02, 0.0941320
9340.82, 0.103091
9357.68, 0.112731
9374.6, 0.123392
9391.58, 0.134733
9408.62, 0.147095
9425.73, 0.160364
9442.9, 0.174314
9460.13, 0.188831
9477.42, 0.203801
9494.78, 0.219338
9512.2, 0.235216
9529.69, 0.251094
9547.24, 0.267312
9564.86, 0.284437
9582.54, 0.302016
9600.28, 0.320162
9618.1, 0.338988
9635.97, 0.358041
9653.92, 0.376754
9671.93, 0.394106
9690.01, 0.409870
9708.16, 0.423933
9726.37, 0.436636
9744.65, 0.447636
9763.0, 0.457163
9781.43, 0.464988
9799.92, 0.471793
9818.48, 0.477577
9837.1, 0.482794
9855.8, 0.487331
9874.58, 0.491073
9893.42, 0.494249
9912.34, 0.497651
9931.33, 0.500373
9950.39, 0.502414
9969.52, 0.503549
9988.74, 0.504796
10008.0, 0.505023
10027.4, 0.504796
10046.8, 0.504342
10066.3, 0.503889
10085.9, 0.502755
10105.6, 0.501394
10125.3, 0.499239
10145.1, 0.496857
10165.0, 0.493682
10185.0, 0.490053
10205.0, 0.485743
10225.2, 0.480526
10245.4, 0.474061
10265.7, 0.465896
10286.0, 0.455008
10306.5, 0.441626
10327.0, 0.424727
10347.6, 0.403973
10368.3, 0.378569
10389.1, 0.348288
10409.9, 0.314264
10430.9, 0.279220
10451.9, 0.245763
10473.0, 0.215142
10494.2, 0.187923
10515.5, 0.163880
10536.9, 0.143126
10558.4, 0.124980
10579.9, 0.109442
10601.5, 0.0969670
10623.3, 0.0873270
10645.1, 0.0813160
10667.0, 0.0800690
10689.0, 0.0852860
10711.1, 0.0971940
10733.2, 0.116814
10755.5, 0.143012
10777.9, 0.173747
10800.3, 0.206750
10822.9, 0.239072
10845.5, 0.269126
10868.2, 0.296118
10891.1, 0.319254
10914.0, 0.338534
10937.0, 0.354525
10960.2, 0.367114
10983.4, 0.376641
11006.7, 0.382878
11030.1, 0.385827
11053.6, 0.385147
11077.3, 0.379930
11101.0, 0.369042
11124.8, 0.352257
11148.7, 0.329802
11172.7, 0.303944
11196.9, 0.279447
11221.1, 0.261301
11245.4, 0.254496
11269.9, 0.260167
11294.4, 0.276044
11319.1, 0.297026
11343.9, 0.318347
11368.8, 0.336039
11393.7, 0.348628
11418.8, 0.354752
11444.0, 0.353958
11469.4, 0.346813
11494.8, 0.334905
11520.3, 0.319595
11546.0, 0.302923
11571.8, 0.286705
11597.7, 0.271508
11623.7, 0.257331
11649.8, 0.245310
11676.0, 0.234195
11702.4, 0.224102
11728.9, 0.215029
11755.5, 0.207544
11782.2, 0.200172
11809.0, 0.193594
11836.0, 0.187810
11863.0, 0.182366
11890.3, 0.176696
11917.6, 0.171479
11945.0, 0.167056
11972.6, 0.162746
12000.4, 0.158323
12028.2, 0.154694
12056.2, 0.151178
12084.3, 0.147549
12112.5, 0.144373
12140.9, 0.141425
12169.4, 0.138476
12198.0, 0.135867
12226.8, 0.133486
12255.7, 0.131331
12284.7, 0.129063
12313.9, 0.126908
12343.2, 0.125207
12372.7, 0.124073
12402.3, 0.122258
12432.0, 0.120784
12461.9, 0.119196
12491.9, 0.117381
12522.1, 0.115680
12552.4, 0.113865
12582.9, 0.112391
12613.5, 0.110917
12644.3, 0.109669
12675.2, 0.108081
12706.3, 0.106721
12737.5, 0.106153
12768.9, 0.105360
12800.4, 0.104793
12832.1, 0.103772
12863.9, 0.102411
12895.9, 0.101390
12928.1, 0.100256
12960.4, 0.0990090
12992.9, 0.0977610
13025.5, 0.0966270
13058.3, 0.0952660
13091.3, 0.0940180
13124.4, 0.0933380
13157.8, 0.0923170
13191.2, 0.0915230
13224.9, 0.0907290
13258.7, 0.0898220
13292.7, 0.0886880
13326.9, 0.0872140
13361.2, 0.0865330
13395.7, 0.0859660
13430.4, 0.0850590
13465.3, 0.0840380
13500.4, 0.0830170
13535.7, 0.0822240
13571.1, 0.0814300
13606.7, 0.0807490
13642.5, 0.0797290
13678.5, 0.0789350
13714.7, 0.0788210
13751.1, 0.0785940
13787.6, 0.0775740
13824.4, 0.0763260
13861.4, 0.0751920
13898.5, 0.0746250
13935.9, 0.0740580
13973.5, 0.0733770
14011.2, 0.0725840
14049.2, 0.0713360
14087.4, 0.0705420
14125.8, 0.0698620
14164.3, 0.0689540
14203.2, 0.0681610
14242.2, 0.0671400
14281.4, 0.0658920
14320.9, 0.0652120
14360.5, 0.0646450
14400.4, 0.0638510
14440.5, 0.0635110
14480.9, 0.0629440
14521.4, 0.0619230
14562.2, 0.0609020
14603.3, 0.0593140
14644.5, 0.0581800
14686.0, 0.0576130
14727.7, 0.0567060
14769.7, 0.0554580
14811.9, 0.0539840
14854.3, 0.0526230
14897.0, 0.0514890
14939.9, 0.0502410
14983.1, 0.0485400
15026.5, 0.0468390
15070.2, 0.0452510
15114.2, 0.0435500
15158.3, 0.0419620
15202.8, 0.0403750
15247.5, 0.0383330
15292.5, 0.0366320
15337.7, 0.0354980
15383.2, 0.0336830
15429.0, 0.0327760
15475.1, 0.0323220
15521.4, 0.0326630
15568.0, 0.0333430
15614.9, 0.0337970
15662.1, 0.0342500
15709.6, 0.0332300
15757.3, 0.0314150
15805.4, 0.0299410
15853.7, 0.0288070
15902.3, 0.0280130
15951.2, 0.0268790
16000.5, 0.0264250
16050.0, 0.0267650
16099.8, 0.0277860
16150.0, 0.0306210
16200.5, 0.0351580
16251.3, 0.0423030
16302.4, 0.0530770
16353.8, 0.0682740
16405.5, 0.0869870
16457.6, 0.108649
16510.0, 0.132805
16562.8, 0.159684
16615.9, 0.187356
16669.3, 0.214235
16723.1, 0.239299
16777.2, 0.262548
16831.7, 0.282282
16886.5, 0.299634
16941.7, 0.313811
16997.2, 0.325152
17053.1, 0.333771
17109.4, 0.340349
17166.1, 0.345339
17223.1, 0.347380
17280.5, 0.346246
17338.3, 0.341937
17396.5, 0.331956
17455.1, 0.318687
17514.0, 0.300541
17573.4, 0.277292
17633.2, 0.249846
17693.4, 0.219906
17754.0, 0.189058
17815.0, 0.160137
17876.4, 0.135073
17938.3, 0.114092
18000.5, 0.0967400
18063.3, 0.0825640
18126.4, 0.0703150
18190.0, 0.0643050
18254.1, 0.0666860
18318.6, 0.0775740
18383.5, 0.0993490
18449.0, 0.132352
18514.9, 0.173747
18581.2, 0.217070
18648.0, 0.252455
18715.4, 0.275704
18783.2, 0.286365
18851.5, 0.285798
18920.3, 0.275931
18989.6, 0.266404
19059.4, 0.264590
19129.7, 0.278086
19200.6, 0.309954
19272.0, 0.353391
19343.9, 0.398189
19416.3, 0.439924
19489.3, 0.473608
19562.8, 0.500146
19637.0, 0.522375
19711.6, 0.542108
19786.8, 0.555718
19862.6, 0.565585
19939.0, 0.573410
20016.0, 0.578741
20093.6, 0.582937
20171.8, 0.586679
20250.6, 0.587927
20330.0, 0.589061
20410.0, 0.591443
20490.7, 0.593257
20572.0, 0.593597
20654.0, 0.593824
20736.6, 0.591216
20819.9, 0.585318
20903.8, 0.576586
20988.5, 0.566492
21073.8, 0.550501
21159.8, 0.528272
21246.5, 0.494816
21334.0, 0.455235
21422.1, 0.420304
21511.0, 0.401364
21600.7, 0.405901
21691.0, 0.435388
21782.1, 0.472700
21874.0, 0.502868
21966.7, 0.518746
22060.2, 0.523169
22154.5, 0.518519
22249.6, 0.508539
22345.5, 0.489485
22442.2, 0.462947
22539.8, 0.432893
22638.2, 0.403973
22737.5, 0.374713
22837.7, 0.352938
22938.7, 0.332410
23040.7, 0.312109
23143.5, 0.293963
23247.3, 0.278086
23352.1, 0.266178
23457.7, 0.255857
23564.4, 0.243609
23672.0, 0.230339
23780.5, 0.220132
23890.1, 0.213554
24000.7, 0.205389
24112.3, 0.199265
24225.0, 0.190192
24338.7, 0.179985
24453.5, 0.169097
24569.4, 0.157983
24686.4, 0.152539
