Database of Origin, USGS Spectral Database
Sample Description, See USGS database for additional info
Date Added,2016-08-03 20:55:25.289177

Data ID,USGS_alu15          
Sample ID, alunite_hs295.1411
Mineral Name, alunite
Material Class,Sulfate

Wavelength
248.1, 0.0946520
253.6, 0.0963090
258.6, 0.0919160
263.6, 0.0847360
268.6, 0.106048
273.1, 0.0930100
277.1, 0.0813160
281.1, 0.0829500
285.1, 0.0918230
289.1, 0.105419
293.1, 0.0961670
297.1, 0.106470
301.1, 0.104244
305.1, 0.130350
309.1, 0.130835
313.1, 0.135755
317.1, 0.127054
321.1, 0.161453
325.1, 0.161556
329.1, 0.186034
333.1, 0.204030
337.1, 0.205036
341.1, 0.219699
345.1, 0.244532
349.1, 0.253177
353.1, 0.279135
357.1, 0.297792
360.6, 0.311594
363.6, 0.318929
366.6, 0.331553
369.6, 0.347898
372.6, 0.358590
375.6, 0.370434
378.6, 0.377597
381.1, 0.383708
383.1, 0.395141
385.1, 0.397453
387.1, 0.407912
389.1, 0.414204
391.1, 0.416222
393.1, 0.422901
395.1, 0.432149
397.1, 0.432799
399.1, 0.438726
401.1, 0.443169
403.1, 0.446987
405.1, 0.453881
407.1, 0.453641
409.1, 0.452054
411.1, 0.458568
412.8, 0.463002
415.8, 0.468377
418.8, 0.471118
421.8, 0.470476
424.8, 0.475487
427.8, 0.483212
430.8, 0.481952
433.8, 0.484584
436.8, 0.482739
439.8, 0.492382
442.8, 0.494923
445.8, 0.489641
448.8, 0.502123
451.3, 0.503328
453.3, 0.501078
455.3, 0.502625
457.3, 0.499676
459.3, 0.504933
461.3, 0.504893
463.3, 0.508694
465.3, 0.506667
467.3, 0.509679
469.3, 0.510494
471.3, 0.510130
473.3, 0.514908
475.3, 0.513556
477.3, 0.515040
479.3, 0.516931
481.3, 0.518138
483.3, 0.518749
485.3, 0.524473
487.3, 0.525236
489.3, 0.530553
491.3, 0.529384
493.3, 0.535664
495.3, 0.538283
497.3, 0.539496
499.3, 0.542755
501.3, 0.545047
503.3, 0.544808
505.3, 0.545219
507.3, 0.552551
509.3, 0.555291
511.3, 0.556872
513.3, 0.561409
515.3, 0.562523
517.3, 0.567913
519.3, 0.572700
521.3, 0.570319
523.3, 0.573776
525.3, 0.581655
527.3, 0.582180
529.3, 0.585440
531.3, 0.587056
533.3, 0.591233
535.3, 0.598802
537.3, 0.600722
539.3, 0.598866
541.3, 0.607288
543.3, 0.613983
545.3, 0.612015
547.3, 0.619772
549.3, 0.625000
551.3, 0.625540
553.3, 0.630667
555.3, 0.632115
557.3, 0.633907
559.3, 0.643074
561.3, 0.647267
563.3, 0.646960
565.3, 0.652432
567.3, 0.655270
569.3, 0.664707
571.3, 0.667909
573.3, 0.670598
575.3, 0.679842
577.3, 0.679771
579.3, 0.687731
581.3, 0.692020
583.3, 0.695046
585.3, 0.699541
587.3, 0.703763
589.3, 0.707319
591.3, 0.716948
593.3, 0.718135
595.3, 0.715486
597.3, 0.725214
599.3, 0.727417
601.1, 0.734197
602.7, 0.737448
604.3, 0.736255
605.9, 0.743284
607.5, 0.742854
609.1, 0.743903
610.7, 0.749106
612.3, 0.757312
613.9, 0.759748
615.5, 0.752095
617.1, 0.757662
618.7, 0.765116
620.3, 0.760865
621.9, 0.769066
623.5, 0.771875
625.1, 0.769385
626.7, 0.770187
628.3, 0.779088
629.9, 0.778903
631.7, 0.781452
633.7, 0.778696
635.7, 0.784706
637.7, 0.792563
639.7, 0.793670
641.7, 0.791545
643.7, 0.789592
645.7, 0.798090
647.7, 0.802358
649.7, 0.799952
651.7, 0.807619
653.7, 0.806173
655.7, 0.809842
657.7, 0.813426
659.7, 0.812659
661.7, 0.820750
663.7, 0.819387
665.7, 0.822233
667.7, 0.820186
670.2, 0.823196
673.2, 0.827934
676.2, 0.826234
679.2, 0.832377
682.2, 0.835043
685.2, 0.837902
688.2, 0.836303
691.2, 0.840400
694.2, 0.839500
697.2, 0.842378
700.2, 0.844197
702.0, 0.851327
704.0, 0.852343
706.0, 0.849317
708.0, 0.853964
710.0, 0.850642
712.0, 0.854463
714.0, 0.854575
716.0, 0.858369
718.0, 0.861726
720.0, 0.864461
722.0, 0.865325
724.0, 0.864616
726.0, 0.862219
728.0, 0.866145
730.0, 0.861988
732.0, 0.863579
734.0, 0.865319
736.0, 0.866275
738.0, 0.863758
740.0, 0.867983
742.0, 0.865821
744.0, 0.866269
746.0, 0.868943
748.0, 0.872186
750.5, 0.869958
753.5, 0.874983
756.5, 0.871763
759.5, 0.874614
762.5, 0.877666
765.5, 0.868992
768.5, 0.865878
771.5, 0.868944
774.5, 0.868525
777.5, 0.870172
781.0, 0.872693
785.0, 0.869605
789.0, 0.873115
793.0, 0.873577
797.0, 0.871475
801.5, 0.873822
806.5, 0.877075
811.5, 0.881956
816.5, 0.879110
822.0, 0.878696
828.0, 0.876866
835.0, 0.876822
843.0, 0.871198
851.0, 0.892405
859.0, 0.881702
871.0, 0.886351
883.0, 0.874011
894.0, 0.875229
904.0, 0.879059
914.0, 0.877610
924.0, 0.878011
933.0, 0.876458
941.0, 0.878313
949.0, 0.877587
957.0, 0.873471
964.0, 0.872309
970.0, 0.863825
976.0, 0.854539
982.0, 0.850887
988.0, 0.835412
994.0, 0.826083
1000.0, 0.817279
1006.0, 0.822838
1012.0, 0.827884
1018.0, 0.844882
1023.5, 0.858877
1028.5, 0.874129
1033.5, 0.880084
1038.5, 0.879644
1043.5, 0.886211
1048.5, 0.884321
1053.5, 0.886170
1058.5, 0.884782
1063.5, 0.891098
1068.5, 0.888013
1073.5, 0.883541
1078.5, 0.886056
1083.5, 0.886474
1088.5, 0.880880
1093.5, 0.885292
1098.5, 0.881327
1103.5, 0.882481
1108.5, 0.883146
1113.5, 0.881437
1118.5, 0.885301
1123.5, 0.886321
1128.5, 0.889259
1133.5, 0.888731
1138.5, 0.891382
1143.5, 0.892119
1148.5, 0.886232
1153.5, 0.887353
1158.5, 0.886958
1163.5, 0.881966
1168.5, 0.880505
1173.5, 0.874782
1178.5, 0.872016
1183.5, 0.874937
1188.5, 0.870082
1193.5, 0.866611
1198.5, 0.865925
1203.5, 0.863079
1208.5, 0.854243
1213.5, 0.853488
1218.5, 0.844190
1223.5, 0.830779
1228.5, 0.821349
1233.5, 0.810889
1238.5, 0.801387
1243.5, 0.796498
1248.5, 0.791412
1253.5, 0.780401
1258.5, 0.749029
1263.5, 0.721285
1268.5, 0.713950
1273.5, 0.728247
1278.5, 0.762928
1283.5, 0.786951
1288.5, 0.816128
1293.5, 0.829012
1298.5, 0.827257
1303.5, 0.826246
1308.5, 0.822455
1313.5, 0.813704
1318.5, 0.794514
1323.5, 0.783210
1328.5, 0.781565
1333.5, 0.748847
1338.5, 0.734912
1343.5, 0.742501
1348.5, 0.743944
1353.5, 0.741431
1358.5, 0.739716
1363.5, 0.751338
1368.5, 0.763085
1373.5, 0.756305
1378.5, 0.747671
1383.5, 0.739968
1388.5, 0.738774
1393.5, 0.714203
1398.5, 0.695541
1403.5, 0.671009
1408.5, 0.631168
1413.5, 0.591579
1418.5, 0.509677
1423.5, 0.350588
1428.5, 0.313877
1433.5, 0.377167
1438.5, 0.453984
1443.5, 0.470347
1448.5, 0.443554
1453.5, 0.407439
1458.5, 0.385298
1463.5, 0.381569
1468.5, 0.356430
1473.5, 0.266079
1478.5, 0.202597
1483.5, 0.324332
1488.5, 0.429859
1493.5, 0.468041
1498.5, 0.482119
1503.5, 0.507127
1508.5, 0.539371
1513.5, 0.563387
1518.5, 0.574870
1523.5, 0.584207
1528.5, 0.590157
1534.0, 0.594353
1540.0, 0.592995
1546.0, 0.598932
1552.0, 0.599044
1558.0, 0.598141
1564.0, 0.596694
1570.5, 0.597711
1577.5, 0.595983
1584.5, 0.592596
1591.5, 0.591474
1598.5, 0.591092
1605.5, 0.587585
1612.5, 0.585053
1619.5, 0.587521
1626.5, 0.582238
1633.5, 0.582139
1640.5, 0.577000
1647.5, 0.574431
1654.5, 0.568031
1661.5, 0.561015
1668.5, 0.555230
1676.0, 0.545705
1684.0, 0.540386
1692.0, 0.526719
1700.0, 0.520389
1708.0, 0.511439
1716.0, 0.499727
1724.0, 0.474530
1732.0, 0.439447
1740.0, 0.402007
1748.0, 0.368644
1756.0, 0.347085
1764.0, 0.329044
1772.0, 0.338534
1780.0, 0.370850
1788.0, 0.426311
1796.0, 0.468164
1805.0, 0.490511
1815.0, 0.495808
1825.0, 0.492564
1835.0, 0.487905
1845.0, 0.482419
1855.0, 0.475254
1865.0, 0.464490
1875.0, 0.449783
1885.0, 0.424014
1895.0, 0.397958
1905.0, 0.370808
1915.0, 0.339436
1925.0, 0.323262
1935.0, 0.315769
1945.0, 0.302950
1955.0, 0.295518
1965.0, 0.296570
1975.0, 0.295179
1985.0, 0.294859
1995.0, 0.280472
2005.0, 0.265388
2015.0, 0.260152
2025.0, 0.261172
2035.0, 0.257432
2045.0, 0.246802
2055.0, 0.242393
2065.0, 0.235050
2075.0, 0.236195
2085.0, 0.233658
2095.0, 0.224538
2105.0, 0.202729
2115.0, 0.170399
2125.0, 0.129260
2135.0, 0.112731
2145.0, 0.0952210
2155.0, 0.0800940
2165.0, 0.0810140
2175.0, 0.0827180
2185.0, 0.0914630
2195.0, 0.121028
2205.0, 0.125395
2215.0, 0.147073
2225.0, 0.234480
2235.0, 0.275000
2245.0, 0.297535
2255.0, 0.295100
2265.0, 0.301175
2275.0, 0.284503
2285.0, 0.279517
2295.0, 0.255148
2305.0, 0.216034
2315.0, 0.156511
2325.0, 0.151747
2335.0, 0.192385
2345.0, 0.220422
2355.0, 0.232485
2365.0, 0.217519
2375.0, 0.180172
2386.0, 0.133817
2400.0, 0.107848
2418.0, 0.0855020
2440.0, 0.0751780
2466.0, 0.0748330
2496.0, 0.0624890
2528.0, 0.0559010
2560.0, 0.0684690
2592.0, 0.0742830
2624.0, 0.0954020
2656.0, 0.0901330
2688.0, 0.0637200
2720.0, 0.0390450
2752.0, 0.0263520
2848.0, 0.0297450
2880.0, 0.0491340
2944.0, 0.0322620
2976.0, 0.0362540
