Database of Origin, USGS Spectral Database
Sample Description, See USGS database for additional info
Date Added,2016-08-03 21:04:03.884382

Data ID,USGS_aug04          
Sample ID, augite_ws592.3247
Mineral Name, augite
Material Class,Inosilicate

Wavelength
221.1, 0.0244140
229.1, 0.0241040
236.1, 0.0252240
242.1, 0.0240770
248.1, 0.0252930
253.6, 0.0261080
258.6, 0.0272700
263.6, 0.0271920
268.6, 0.0291050
273.1, 0.0296730
277.1, 0.0307690
281.1, 0.0330140
285.1, 0.0352900
289.1, 0.0366950
293.1, 0.0398590
297.1, 0.0416160
301.1, 0.0453440
305.1, 0.0479740
309.1, 0.0492660
313.1, 0.0543250
317.1, 0.0580990
321.1, 0.0624740
325.1, 0.0688980
329.1, 0.0723290
333.1, 0.0767530
337.1, 0.0818270
341.1, 0.0854830
345.1, 0.0900810
349.1, 0.0950550
353.1, 0.100909
357.1, 0.106824
360.6, 0.110864
363.6, 0.117003
366.6, 0.121547
369.6, 0.124597
372.6, 0.129644
375.6, 0.132322
378.6, 0.138221
381.1, 0.140512
383.1, 0.143531
385.1, 0.145015
387.1, 0.149176
389.1, 0.151659
391.1, 0.153158
393.1, 0.157966
395.1, 0.159176
397.1, 0.162667
399.1, 0.163785
401.1, 0.166948
403.1, 0.168349
405.1, 0.168709
407.1, 0.172540
409.1, 0.173716
411.1, 0.176884
412.8, 0.177089
415.8, 0.180226
418.8, 0.184615
421.8, 0.183561
424.8, 0.190318
427.8, 0.191427
430.8, 0.193831
433.8, 0.197276
436.8, 0.200065
439.8, 0.202034
442.8, 0.202825
445.8, 0.208910
448.8, 0.209787
451.3, 0.211960
453.3, 0.211872
455.3, 0.214427
457.3, 0.216344
459.3, 0.216792
461.3, 0.215060
463.3, 0.220289
465.3, 0.222859
467.3, 0.223882
469.3, 0.222772
471.3, 0.227273
473.3, 0.228328
475.3, 0.231038
477.3, 0.229720
479.3, 0.232470
481.3, 0.235417
483.3, 0.239724
485.3, 0.240843
487.3, 0.241780
489.3, 0.241819
491.3, 0.247792
493.3, 0.249115
495.3, 0.252438
497.3, 0.255810
499.3, 0.256839
501.3, 0.257050
503.3, 0.261311
505.3, 0.264440
507.3, 0.267013
509.3, 0.269426
511.3, 0.271140
513.3, 0.276358
515.3, 0.278234
517.3, 0.284011
519.3, 0.282745
521.3, 0.287643
523.3, 0.289506
525.3, 0.293541
527.3, 0.293731
529.3, 0.298782
531.3, 0.298164
533.3, 0.300794
535.3, 0.301979
537.3, 0.301786
539.3, 0.306166
541.3, 0.306226
543.3, 0.308834
545.3, 0.308181
547.3, 0.311339
549.3, 0.312398
551.3, 0.312344
553.3, 0.314145
555.3, 0.315838
557.3, 0.316209
559.3, 0.317829
561.3, 0.316716
563.3, 0.319832
565.3, 0.319435
567.3, 0.319705
569.3, 0.316734
571.3, 0.317828
573.3, 0.318697
575.3, 0.318088
577.3, 0.317891
579.3, 0.319108
581.3, 0.318378
583.3, 0.318094
585.3, 0.317291
587.3, 0.317210
589.3, 0.314933
591.3, 0.318045
593.3, 0.312463
595.3, 0.315078
597.3, 0.314272
599.3, 0.313964
601.1, 0.311026
602.7, 0.312741
604.3, 0.311936
605.9, 0.311901
607.5, 0.310492
609.1, 0.310882
610.7, 0.311576
612.3, 0.309167
613.9, 0.310254
615.5, 0.309231
617.1, 0.307541
618.7, 0.305963
620.3, 0.305478
621.9, 0.305230
623.5, 0.306216
625.1, 0.305162
626.7, 0.304835
628.3, 0.306960
629.9, 0.305570
631.7, 0.304047
633.7, 0.304422
635.7, 0.304298
637.7, 0.304267
639.7, 0.303402
641.7, 0.305965
643.7, 0.307613
645.7, 0.306535
647.7, 0.304953
649.7, 0.304906
651.7, 0.305381
653.7, 0.305566
655.7, 0.305122
657.7, 0.305534
659.7, 0.306764
661.7, 0.309180
663.7, 0.308118
665.7, 0.307099
667.7, 0.309878
670.2, 0.309807
673.2, 0.313442
676.2, 0.312065
679.2, 0.313727
682.2, 0.318601
685.2, 0.316935
688.2, 0.316817
691.2, 0.317473
694.2, 0.319430
697.2, 0.320477
700.2, 0.323166
702.0, 0.322715
704.0, 0.324259
706.0, 0.325823
708.0, 0.327294
710.0, 0.328334
712.0, 0.330864
714.0, 0.330654
716.0, 0.331674
718.0, 0.334067
720.0, 0.334933
722.0, 0.335565
724.0, 0.337134
726.0, 0.339006
728.0, 0.340686
730.0, 0.339565
732.0, 0.342911
734.0, 0.343455
736.0, 0.343783
738.0, 0.345292
740.0, 0.344350
742.0, 0.349551
744.0, 0.348105
746.0, 0.349685
748.0, 0.350797
750.5, 0.351392
753.5, 0.353369
756.5, 0.355620
759.5, 0.355537
762.5, 0.357535
765.5, 0.357589
768.5, 0.359202
771.5, 0.359626
774.5, 0.361499
777.5, 0.362830
781.0, 0.364041
785.0, 0.366550
789.0, 0.368136
793.0, 0.368922
797.0, 0.369904
801.5, 0.373630
806.5, 0.373120
811.5, 0.374480
816.5, 0.376794
822.0, 0.379163
828.0, 0.379566
835.0, 0.379617
843.0, 0.380363
851.0, 0.377365
859.0, 0.370298
871.0, 0.366689
883.0, 0.353368
894.0, 0.342254
904.0, 0.328396
914.0, 0.323247
924.0, 0.309228
933.0, 0.302725
941.0, 0.289307
949.0, 0.279171
957.0, 0.271928
964.0, 0.265323
970.0, 0.259981
976.0, 0.256649
982.0, 0.252348
988.0, 0.249680
994.0, 0.248187
1000.0, 0.242020
1006.0, 0.242471
1012.0, 0.239114
1018.0, 0.240097
1023.5, 0.239855
1028.5, 0.236998
1033.5, 0.241641
1038.5, 0.242228
1043.5, 0.244289
1048.5, 0.247132
1053.5, 0.249736
1058.5, 0.252345
1063.5, 0.256958
1068.5, 0.260555
1073.5, 0.263763
1078.5, 0.267575
1083.5, 0.273104
1088.5, 0.279770
1093.5, 0.284820
1098.5, 0.285029
1103.5, 0.293785
1108.5, 0.300125
1113.5, 0.305556
1118.5, 0.313480
1123.5, 0.319884
1128.5, 0.324634
1133.5, 0.330601
1138.5, 0.336122
1143.5, 0.339521
1148.5, 0.342924
1153.5, 0.351232
1158.5, 0.356164
1163.5, 0.361454
1168.5, 0.365777
1173.5, 0.370223
1178.5, 0.375329
1183.5, 0.377222
1188.5, 0.382798
1193.5, 0.383997
1198.5, 0.384599
1203.5, 0.391056
1208.5, 0.394216
1213.5, 0.400370
1218.5, 0.400033
1223.5, 0.402788
1228.5, 0.405361
1233.5, 0.409469
1238.5, 0.411849
1243.5, 0.414276
1248.5, 0.415838
1253.5, 0.420889
1258.5, 0.424064
1263.5, 0.424998
1268.5, 0.425247
1273.5, 0.430534
1278.5, 0.432497
1283.5, 0.435141
1288.5, 0.437642
1293.5, 0.438444
1298.5, 0.442102
1303.5, 0.443538
1308.5, 0.447379
1313.5, 0.451669
1318.5, 0.453508
1323.5, 0.453193
1328.5, 0.456625
1333.5, 0.456245
1338.5, 0.459959
1343.5, 0.461681
1348.5, 0.466190
1353.5, 0.463562
1358.5, 0.467019
1363.5, 0.470746
1368.5, 0.473714
1373.5, 0.477356
1378.5, 0.474172
1383.5, 0.476435
1388.5, 0.475841
1393.5, 0.478694
1398.5, 0.485312
1403.5, 0.484968
1408.5, 0.481620
1413.5, 0.487330
1418.5, 0.488410
1423.5, 0.494088
1428.5, 0.495768
1433.5, 0.495289
1438.5, 0.498482
1443.5, 0.501108
1448.5, 0.505594
1453.5, 0.505374
1458.5, 0.507541
1463.5, 0.512366
1468.5, 0.511614
1473.5, 0.515070
1478.5, 0.514792
1483.5, 0.519637
1488.5, 0.520257
1493.5, 0.522871
1498.5, 0.527894
1503.5, 0.525795
1508.5, 0.525591
1513.5, 0.528920
1518.5, 0.530397
1523.5, 0.532374
1528.5, 0.532093
1534.0, 0.535013
1540.0, 0.539179
1546.0, 0.541510
1552.0, 0.542052
1558.0, 0.544132
1564.0, 0.545796
1570.5, 0.545860
1577.5, 0.546206
1584.5, 0.547210
1591.5, 0.550318
1598.5, 0.551399
1605.5, 0.551822
1612.5, 0.553690
1619.5, 0.554896
1626.5, 0.554743
1633.5, 0.552095
1640.5, 0.555525
1647.5, 0.555198
1654.5, 0.553602
1661.5, 0.556407
1668.5, 0.556146
1676.0, 0.554885
1684.0, 0.556100
1692.0, 0.554668
1700.0, 0.551434
1708.0, 0.557762
1716.0, 0.554575
1724.0, 0.554471
1732.0, 0.552681
1740.0, 0.550891
1748.0, 0.550344
1756.0, 0.547160
1764.0, 0.543626
1772.0, 0.546538
1780.0, 0.542208
1788.0, 0.535237
1796.0, 0.538774
1805.0, 0.533004
1815.0, 0.528200
1825.0, 0.526977
1835.0, 0.524391
1845.0, 0.521495
1855.0, 0.516902
1865.0, 0.511699
1875.0, 0.499044
1885.0, 0.494861
1895.0, 0.476657
1905.0, 0.464712
1915.0, 0.459528
1925.0, 0.462265
1935.0, 0.459720
1945.0, 0.454879
1955.0, 0.451750
1965.0, 0.455013
1975.0, 0.452578
1985.0, 0.444943
1995.0, 0.441620
2005.0, 0.437402
2015.0, 0.437488
2025.0, 0.434406
2035.0, 0.429936
2045.0, 0.429221
2055.0, 0.426791
2065.0, 0.419936
2075.0, 0.419646
2085.0, 0.412917
2095.0, 0.410340
2105.0, 0.406012
2115.0, 0.403986
2125.0, 0.401958
2135.0, 0.395912
2145.0, 0.393176
2155.0, 0.393127
2165.0, 0.387209
2175.0, 0.384972
2185.0, 0.379893
2195.0, 0.375086
2205.0, 0.374097
2215.0, 0.372812
2225.0, 0.371229
2235.0, 0.365823
2245.0, 0.365886
2255.0, 0.362196
2265.0, 0.361083
2275.0, 0.359961
2285.0, 0.361409
2295.0, 0.345387
2305.0, 0.352686
2315.0, 0.353035
2325.0, 0.353572
2335.0, 0.355692
2345.0, 0.359748
2355.0, 0.358647
2365.0, 0.358240
2375.0, 0.366170
2386.0, 0.360502
2400.0, 0.364946
2418.0, 0.367420
2440.0, 0.371058
2466.0, 0.380538
2496.0, 0.389693
2528.0, 0.397517
2560.0, 0.406036
2592.0, 0.422933
2624.0, 0.437123
2656.0, 0.434945
2688.0, 0.344071
2720.0, 0.198395
2752.0, 0.128779
2784.0, 0.126526
2816.0, 0.137472
2848.0, 0.133273
2880.0, 0.129425
2912.0, 0.129315
2944.0, 0.138089
2976.0, 0.128195
