Database of Origin, USGS Spectral Database
Sample Description, See USGS database for additional info
Date Added,2016-08-10 05:03:02.794694

Data ID,USGS_lep04          
Sample ID, lepidolite_hs167.12668
Mineral Name, lepidolite
Material Class,Phyllosilicate

Wavelength
1592.67, 0.485569
1593.16, 0.486557
1593.65, 0.487414
1594.14, 0.487216
1594.63, 0.487084
1595.12, 0.487809
1595.61, 0.488732
1596.11, 0.489391
1596.6, 0.489457
1597.09, 0.489984
1597.58, 0.490445
1598.08, 0.491170
1598.57, 0.491368
1599.06, 0.491566
1599.55, 0.491895
1600.05, 0.492752
1600.54, 0.493082
1601.04, 0.493741
1601.53, 0.494136
1602.03, 0.494466
1602.52, 0.494927
1603.02, 0.495520
1603.51, 0.495520
1604.01, 0.496047
1604.5, 0.496311
1605.0, 0.496772
1605.5, 0.497102
1606.0, 0.497233
1606.49, 0.497761
1606.99, 0.498288
1607.49, 0.498420
1607.99, 0.499211
1608.49, 0.499804
1608.99, 0.500001
1609.49, 0.500265
1609.99, 0.500792
1610.49, 0.500990
1610.99, 0.501913
1611.49, 0.502637
1611.99, 0.503099
1612.49, 0.503165
1612.99, 0.503296
1613.49, 0.503296
1614.0, 0.503692
1614.5, 0.504153
1615.0, 0.505208
1615.51, 0.505669
1616.01, 0.505735
1616.51, 0.505603
1617.02, 0.505669
1617.52, 0.506328
1618.03, 0.507382
1618.53, 0.507580
1619.04, 0.507975
1619.54, 0.508371
1620.05, 0.509030
1620.55, 0.509228
1621.06, 0.509491
1621.57, 0.509953
1622.08, 0.510150
1622.58, 0.510414
1623.09, 0.511205
1623.6, 0.511468
1624.11, 0.511930
1624.62, 0.512259
1625.13, 0.512457
1625.64, 0.512259
1626.15, 0.513050
1626.66, 0.513643
1627.17, 0.514170
1627.68, 0.514302
1628.19, 0.514632
1628.7, 0.514763
1629.21, 0.515027
1629.72, 0.515488
1630.24, 0.516279
1630.75, 0.516543
1631.26, 0.516806
1631.78, 0.517004
1632.29, 0.517202
1632.8, 0.517400
1633.32, 0.517927
1633.83, 0.518190
1634.35, 0.518849
1634.86, 0.519179
1635.38, 0.519377
1635.9, 0.519640
1636.41, 0.520497
1636.93, 0.520958
1637.45, 0.521024
1637.96, 0.521090
1638.48, 0.521420
1639.0, 0.521486
1639.52, 0.522210
1640.04, 0.522606
1640.56, 0.522672
1641.08, 0.523067
1641.59, 0.523529
1642.11, 0.524056
1642.63, 0.524188
1643.16, 0.523990
1643.68, 0.524781
1644.2, 0.525308
1644.72, 0.525637
1645.24, 0.525572
1645.76, 0.526165
1646.29, 0.526428
1646.81, 0.526560
1647.33, 0.526692
1647.86, 0.527153
1648.38, 0.527219
1648.9, 0.527746
1649.43, 0.528339
1649.95, 0.528471
1650.48, 0.528537
1651.0, 0.528801
1651.53, 0.528998
1652.06, 0.529657
1652.58, 0.529657
1653.11, 0.529789
1653.64, 0.529855
1654.17, 0.530580
1654.69, 0.530712
1655.22, 0.530646
1655.75, 0.530844
1656.28, 0.531569
1656.81, 0.531766
1657.34, 0.531766
1657.87, 0.531635
1658.4, 0.532359
1658.93, 0.532755
1659.46, 0.533216
1659.99, 0.533414
1660.52, 0.533480
1661.05, 0.533480
1661.59, 0.534007
1662.12, 0.534139
1662.65, 0.534007
1663.19, 0.534139
1663.72, 0.534996
1664.26, 0.535457
1664.79, 0.535918
1665.32, 0.535918
1665.86, 0.536379
1666.39, 0.536577
1666.93, 0.536775
1667.47, 0.536775
1668.0, 0.537170
1668.54, 0.537302
1669.08, 0.537236
1669.61, 0.537566
1670.15, 0.538488
1670.69, 0.538488
1671.23, 0.538620
1671.77, 0.538884
1672.31, 0.539279
1672.85, 0.539345
1673.39, 0.540070
1673.93, 0.540663
1674.47, 0.540531
1675.01, 0.540597
1675.55, 0.540861
1676.09, 0.540597
1676.64, 0.540729
1677.18, 0.540993
1677.72, 0.541652
1678.26, 0.541915
1678.81, 0.541981
1679.35, 0.542047
1679.89, 0.542179
1680.44, 0.542113
1680.98, 0.542377
1681.53, 0.543036
1682.07, 0.543036
1682.62, 0.543102
1683.17, 0.543695
1683.71, 0.543761
1684.26, 0.544090
1684.81, 0.543892
1685.36, 0.544090
1685.9, 0.544354
1686.45, 0.544288
1687.0, 0.544420
1687.55, 0.545210
1688.1, 0.545606
1688.65, 0.545738
1689.2, 0.545935
1689.75, 0.546133
1690.3, 0.545935
1690.85, 0.546001
1691.41, 0.546001
1691.96, 0.546199
1692.51, 0.546726
1693.06, 0.546990
1693.61, 0.547122
1694.17, 0.547781
1694.72, 0.547846
1695.28, 0.547978
1695.83, 0.548044
1696.39, 0.548308
1696.94, 0.548637
1697.5, 0.548901
1698.05, 0.549296
1698.61, 0.549626
1699.17, 0.549362
1699.72, 0.549560
1700.28, 0.549889
1700.84, 0.549955
1701.4, 0.550153
1701.95, 0.550548
1702.51, 0.550746
1703.07, 0.551207
1703.63, 0.551405
1704.19, 0.551669
1704.75, 0.551735
1705.31, 0.551801
1705.88, 0.551998
1706.44, 0.552130
1707.0, 0.552262
1707.56, 0.552723
1708.12, 0.552921
1708.69, 0.553185
1709.25, 0.553185
1709.81, 0.553448
1710.38, 0.553778
1710.94, 0.553975
1711.51, 0.553778
1712.07, 0.553844
1712.64, 0.554371
1713.2, 0.554766
1713.77, 0.554634
1714.34, 0.554898
1714.9, 0.555030
1715.47, 0.555162
1716.04, 0.555030
1716.61, 0.555293
1717.18, 0.555689
1717.74, 0.556018
1718.31, 0.556282
1718.88, 0.556612
1719.45, 0.556743
1720.02, 0.556875
1720.59, 0.557139
1721.17, 0.557600
1721.74, 0.557666
1722.31, 0.557666
1722.88, 0.557732
1723.45, 0.557930
1724.03, 0.558061
1724.6, 0.558259
1725.18, 0.558325
1725.75, 0.558589
1726.33, 0.558391
1726.9, 0.558589
1727.48, 0.558984
1728.05, 0.559445
1728.63, 0.559643
1729.2, 0.559577
1729.78, 0.559643
1730.36, 0.560236
1730.94, 0.560434
1731.51, 0.560500
1732.09, 0.560434
1732.67, 0.560368
1733.25, 0.560038
1733.83, 0.560829
1734.41, 0.561422
1734.99, 0.561225
1735.57, 0.561225
1736.15, 0.561356
1736.73, 0.561620
1737.32, 0.561818
1737.9, 0.561752
1738.48, 0.561818
1739.07, 0.562015
1739.65, 0.562477
1740.23, 0.562213
1740.82, 0.562674
1741.4, 0.563136
1741.99, 0.563268
1742.57, 0.563136
1743.16, 0.563004
1743.74, 0.562938
1744.33, 0.563268
1744.92, 0.563597
1745.51, 0.563993
1746.09, 0.564256
1746.68, 0.564388
1747.27, 0.564190
1747.86, 0.564454
1748.45, 0.564454
1749.04, 0.564520
1749.63, 0.564783
1750.22, 0.564718
1750.81, 0.564783
1751.4, 0.565245
1751.99, 0.565179
1752.59, 0.565377
1753.18, 0.565640
1753.77, 0.565904
1754.37, 0.565574
1754.96, 0.565574
1755.56, 0.565904
1756.15, 0.566036
1756.74, 0.565772
1757.34, 0.566036
1757.94, 0.566036
1758.53, 0.566299
1759.13, 0.566365
1759.73, 0.566233
1760.32, 0.566167
1760.92, 0.566431
1761.52, 0.566892
1762.12, 0.567485
1762.72, 0.567749
1763.32, 0.567749
1763.92, 0.567354
1764.52, 0.567485
1765.12, 0.567815
1765.72, 0.568079
1766.32, 0.568079
1766.92, 0.568079
1767.53, 0.567947
1768.13, 0.567881
1768.73, 0.568144
1769.34, 0.568342
1769.94, 0.568540
1770.55, 0.569067
1771.15, 0.569001
1771.76, 0.569001
1772.36, 0.568935
1772.97, 0.569265
1773.57, 0.569528
1774.18, 0.569660
1774.79, 0.569396
1775.4, 0.569462
1776.0, 0.569726
1776.61, 0.570121
1777.22, 0.569924
1777.83, 0.569990
1778.44, 0.570121
1779.05, 0.570781
1779.66, 0.570912
1780.27, 0.570781
1780.88, 0.570781
1781.5, 0.570846
1782.11, 0.570912
1782.72, 0.570978
1783.33, 0.571176
1783.95, 0.571440
1784.56, 0.571637
1785.18, 0.571901
1785.79, 0.572164
1786.41, 0.572230
1787.02, 0.572099
1787.64, 0.572494
1788.26, 0.572692
1788.87, 0.572955
1789.49, 0.572889
1790.11, 0.572955
1790.73, 0.573021
1791.35, 0.573219
1791.96, 0.573087
1792.58, 0.573285
1793.21, 0.573614
1793.83, 0.573614
1794.45, 0.573614
1795.07, 0.574010
1795.69, 0.574010
1796.31, 0.574273
1796.93, 0.574339
1797.56, 0.574339
1798.18, 0.574339
1798.8, 0.574537
1799.43, 0.574932
1800.05, 0.575262
1800.68, 0.574866
1801.3, 0.574801
1801.93, 0.574866
1802.56, 0.575064
1803.18, 0.575328
1803.81, 0.575525
1804.44, 0.575657
1805.07, 0.575591
1805.7, 0.575460
1806.33, 0.575723
1806.95, 0.575855
1807.58, 0.575921
1808.22, 0.575987
1808.85, 0.576382
1809.48, 0.576250
1810.11, 0.576316
1810.74, 0.576250
1811.38, 0.576053
1812.01, 0.576119
1812.64, 0.576514
1813.28, 0.576712
1813.91, 0.576844
1814.55, 0.576712
1815.18, 0.576646
1815.82, 0.576712
1816.45, 0.577173
1817.09, 0.577239
1817.73, 0.577437
1818.36, 0.577371
1819.0, 0.577502
1819.64, 0.577634
1820.28, 0.577568
1820.92, 0.577437
1821.56, 0.577766
1822.2, 0.577700
1822.84, 0.577502
1823.48, 0.577568
1824.12, 0.577766
1824.76, 0.577898
1825.41, 0.578162
1826.05, 0.577898
1826.69, 0.577437
1827.34, 0.577568
1827.98, 0.578227
1828.63, 0.578425
1829.27, 0.578491
1829.92, 0.578096
1830.56, 0.578096
1831.21, 0.577964
1831.86, 0.578096
1832.5, 0.578293
1833.15, 0.578162
1833.8, 0.578162
1834.45, 0.578557
1835.1, 0.578425
1835.75, 0.578557
1836.4, 0.578359
1837.05, 0.578821
1837.7, 0.578952
1838.35, 0.578755
1839.01, 0.578952
1839.66, 0.579084
1840.31, 0.578689
1840.96, 0.578952
1841.62, 0.579018
1842.27, 0.578821
1842.93, 0.579084
1843.58, 0.579611
1844.24, 0.579941
1844.9, 0.579743
1845.55, 0.579546
1846.21, 0.580007
1846.87, 0.580139
1847.53, 0.579809
1848.18, 0.579677
1848.84, 0.579875
1849.5, 0.580073
1850.16, 0.580139
1850.82, 0.580139
1851.48, 0.580402
1852.14, 0.580732
1852.81, 0.580798
1853.47, 0.580864
1854.13, 0.580864
1854.8, 0.580929
1855.46, 0.581259
1856.12, 0.581325
1856.79, 0.580995
1857.45, 0.580666
1858.12, 0.580666
1858.79, 0.581259
1859.45, 0.581654
1860.12, 0.581127
1860.79, 0.580995
1861.46, 0.581061
1862.12, 0.581391
1862.79, 0.581588
1863.46, 0.581918
1864.13, 0.581588
1864.8, 0.581325
1865.48, 0.581457
1866.15, 0.581786
1866.82, 0.582116
1867.49, 0.582182
1868.16, 0.581786
1868.84, 0.581786
1869.51, 0.582116
1870.19, 0.582709
1870.86, 0.582379
1871.54, 0.581852
1872.21, 0.582313
1872.89, 0.582577
1873.56, 0.582379
1874.24, 0.582445
1874.92, 0.582577
1875.6, 0.582445
1876.28, 0.582643
1876.96, 0.582907
1877.64, 0.582775
1878.32, 0.582972
1879.0, 0.582907
1879.68, 0.583368
1880.36, 0.583302
1881.04, 0.583170
1881.73, 0.583368
1882.41, 0.583368
1883.09, 0.583368
1883.78, 0.583434
1884.46, 0.583368
1885.15, 0.583632
1885.83, 0.583566
1886.52, 0.583434
1887.21, 0.583302
1887.89, 0.583566
1888.58, 0.583763
1889.27, 0.584093
1889.96, 0.583829
1890.65, 0.583829
1891.34, 0.583895
1892.03, 0.583895
1892.72, 0.583763
1893.41, 0.584027
1894.1, 0.584159
1894.79, 0.584290
1895.49, 0.584093
1896.18, 0.584027
1896.87, 0.583961
1897.57, 0.583895
1898.26, 0.583763
1898.96, 0.584159
1899.65, 0.583961
1900.35, 0.583434
1901.05, 0.583302
1901.74, 0.583566
1902.44, 0.583961
1903.14, 0.583763
1903.84, 0.583961
1904.54, 0.584620
1905.24, 0.584422
1905.94, 0.584159
1906.64, 0.583829
1907.34, 0.583566
1908.04, 0.583829
1908.75, 0.583895
1909.45, 0.583895
1910.15, 0.584225
1910.86, 0.584290
1911.56, 0.584225
1912.27, 0.583961
1912.97, 0.583961
1913.68, 0.583895
1914.39, 0.584093
1915.09, 0.584027
1915.8, 0.583961
1916.51, 0.584027
1917.22, 0.584290
1917.93, 0.584488
1918.64, 0.584949
1919.35, 0.585015
1920.06, 0.584686
1920.77, 0.584488
1921.48, 0.584686
1922.19, 0.584752
1922.91, 0.585015
1923.62, 0.584752
1924.33, 0.584818
1925.05, 0.585015
1925.76, 0.585279
1926.48, 0.585411
1927.19, 0.585477
1927.91, 0.585411
1928.63, 0.585279
1929.35, 0.585213
1930.07, 0.585477
1930.78, 0.585543
1931.5, 0.585345
1932.22, 0.585147
1932.94, 0.585411
1933.66, 0.585477
1934.39, 0.585477
1935.11, 0.585609
1935.83, 0.585740
1936.55, 0.585411
1937.28, 0.585543
1938.0, 0.585674
1938.73, 0.585609
1939.45, 0.585609
1940.18, 0.585674
1940.9, 0.585543
1941.63, 0.585477
1942.36, 0.585609
1943.09, 0.585806
1943.81, 0.585806
1944.54, 0.586004
1945.27, 0.586004
1946.0, 0.585938
1946.73, 0.586070
1947.47, 0.586333
1948.2, 0.586136
1948.93, 0.585872
1949.66, 0.585806
1950.4, 0.586004
1951.13, 0.585938
1951.86, 0.586465
1952.6, 0.586531
1953.34, 0.586333
1954.07, 0.586202
1954.81, 0.586202
1955.55, 0.586070
1956.29, 0.586202
1957.02, 0.586333
1957.76, 0.586399
1958.5, 0.586136
1959.24, 0.586070
1959.98, 0.586136
1960.72, 0.586663
1961.47, 0.586729
1962.21, 0.586399
1962.95, 0.586202
1963.7, 0.586268
1964.44, 0.586268
1965.18, 0.586333
1965.93, 0.586399
1966.67, 0.586531
1967.42, 0.586399
1968.17, 0.586333
1968.92, 0.586202
1969.66, 0.586268
1970.41, 0.586399
1971.16, 0.586597
1971.91, 0.586268
1972.66, 0.586202
1973.41, 0.586268
1974.16, 0.586597
1974.92, 0.586465
1975.67, 0.586399
1976.42, 0.586399
1977.18, 0.586597
1977.93, 0.586729
1978.69, 0.587190
1979.44, 0.587190
1980.2, 0.587058
1980.95, 0.586993
1981.71, 0.586927
1982.47, 0.586795
1983.23, 0.586993
1983.99, 0.587058
1984.74, 0.586993
1985.51, 0.586927
1986.27, 0.587058
1987.03, 0.587124
1987.79, 0.587322
1988.55, 0.587322
1989.32, 0.587454
1990.08, 0.587388
1990.84, 0.587520
1991.61, 0.587454
1992.37, 0.587388
1993.14, 0.587454
1993.9, 0.587586
1994.67, 0.587520
1995.44, 0.587586
1996.21, 0.587520
1996.98, 0.587388
1997.75, 0.587388
1998.52, 0.587520
1999.29, 0.587586
2000.06, 0.587520
2000.83, 0.587256
2001.6, 0.587520
2002.38, 0.587652
2003.15, 0.587717
2003.93, 0.587652
2004.7, 0.587849
2005.48, 0.587783
2006.25, 0.587849
2007.03, 0.587783
2007.81, 0.587783
2008.58, 0.587849
2009.36, 0.588047
2010.14, 0.587981
2010.92, 0.587981
2011.7, 0.587981
2012.48, 0.588113
2013.26, 0.587915
2014.05, 0.587849
2014.83, 0.588047
2015.61, 0.588311
2016.4, 0.588047
2017.18, 0.587981
2017.97, 0.587915
2018.75, 0.588113
2019.54, 0.588179
2020.32, 0.588245
2021.11, 0.588245
2021.9, 0.588047
2022.69, 0.587915
2023.48, 0.588245
2024.27, 0.588245
2025.06, 0.588508
2025.85, 0.588574
2026.64, 0.588772
2027.44, 0.588574
2028.23, 0.588376
2029.02, 0.588376
2029.82, 0.588442
2030.61, 0.588508
2031.41, 0.588508
2032.2, 0.588245
2033.0, 0.588311
2033.8, 0.588376
2034.6, 0.588311
2035.4, 0.588179
2036.2, 0.588113
2037.0, 0.588311
2037.8, 0.588442
2038.6, 0.588442
2039.4, 0.588311
2040.2, 0.588047
2041.01, 0.587981
2041.81, 0.587981
2042.61, 0.588113
2043.42, 0.588179
2044.22, 0.588311
2045.03, 0.587915
2045.84, 0.587783
2046.65, 0.588047
2047.46, 0.588113
2048.26, 0.588113
2049.07, 0.588245
2049.88, 0.587849
2050.69, 0.587652
2051.51, 0.587849
2052.32, 0.587783
2053.13, 0.587717
2053.94, 0.587849
2054.76, 0.587717
2055.57, 0.587652
2056.39, 0.587717
2057.2, 0.587586
2058.02, 0.587652
2058.84, 0.587717
2059.66, 0.587322
2060.48, 0.587388
2061.29, 0.587388
2062.11, 0.587454
2062.94, 0.587190
2063.76, 0.587058
2064.58, 0.587388
2065.4, 0.587454
2066.22, 0.587058
2067.05, 0.586993
2067.87, 0.586861
2068.7, 0.586795
2069.52, 0.586729
2070.35, 0.586663
2071.18, 0.586399
2072.0, 0.586333
2072.83, 0.586070
2073.66, 0.586004
2074.49, 0.585938
2075.32, 0.585872
2076.15, 0.585411
2076.98, 0.585015
2077.82, 0.584949
2078.65, 0.584686
2079.48, 0.584225
2080.32, 0.583895
2081.15, 0.583632
2081.99, 0.583368
2082.83, 0.583038
2083.66, 0.583038
2084.5, 0.583104
2085.34, 0.583104
2086.18, 0.582775
2087.02, 0.582709
2087.86, 0.583038
2088.7, 0.583368
2089.54, 0.583302
2090.39, 0.583236
2091.23, 0.583104
2092.07, 0.582841
2092.92, 0.582577
2093.76, 0.582445
2094.61, 0.582379
2095.45, 0.582445
2096.3, 0.582313
2097.15, 0.582116
2098.0, 0.581984
2098.85, 0.581852
2099.7, 0.581720
2100.55, 0.581523
2101.4, 0.581325
2102.25, 0.581259
2103.1, 0.580929
2103.96, 0.580929
2104.81, 0.580666
2105.67, 0.580468
2106.52, 0.580534
2107.38, 0.580666
2108.24, 0.580336
2109.09, 0.580139
2109.95, 0.579941
2110.81, 0.579875
2111.67, 0.579743
2112.53, 0.579480
2113.39, 0.579414
2114.25, 0.579414
2115.12, 0.579018
2115.98, 0.578821
2116.84, 0.578887
2117.71, 0.579018
2118.58, 0.578887
2119.44, 0.578952
2120.31, 0.578821
2121.18, 0.578887
2122.04, 0.578821
2122.91, 0.578952
2123.78, 0.579018
2124.65, 0.579018
2125.52, 0.579150
2126.4, 0.579611
2127.27, 0.579809
2128.14, 0.579809
2129.02, 0.579809
2129.89, 0.580007
2130.77, 0.580007
2131.64, 0.580139
2132.52, 0.580073
2133.4, 0.580073
2134.27, 0.580073
2135.15, 0.580073
2136.03, 0.580007
2136.91, 0.580139
2137.79, 0.580139
2138.68, 0.580205
2139.56, 0.579875
2140.44, 0.579480
2141.33, 0.579348
2142.21, 0.579282
2143.1, 0.579018
2143.99, 0.578887
2144.87, 0.578689
2145.76, 0.578425
2146.65, 0.577964
2147.54, 0.577634
2148.43, 0.577437
2149.32, 0.576975
2150.21, 0.576514
2151.1, 0.576185
2151.99, 0.575855
2152.89, 0.575525
2153.78, 0.574998
2154.68, 0.574339
2155.57, 0.573812
2156.47, 0.573153
2157.37, 0.572560
2158.27, 0.571967
2159.16, 0.571044
2160.06, 0.570253
2160.96, 0.569462
2161.86, 0.568672
2162.77, 0.567947
2163.67, 0.567354
2164.57, 0.566299
2165.48, 0.565113
2166.38, 0.563795
2167.29, 0.562477
2168.2, 0.561093
2169.1, 0.559775
2170.01, 0.557930
2170.92, 0.555952
2171.83, 0.553909
2172.74, 0.551867
2173.65, 0.549494
2174.56, 0.547188
2175.47, 0.544288
2176.39, 0.541322
2177.3, 0.538291
2178.22, 0.534996
2179.13, 0.531503
2180.05, 0.527944
2180.96, 0.524253
2181.88, 0.520761
2182.8, 0.516872
2183.72, 0.512721
2184.64, 0.508832
2185.56, 0.505208
2186.48, 0.501649
2187.41, 0.498024
2188.33, 0.494531
2189.25, 0.491566
2190.18, 0.488996
2191.1, 0.486755
2192.03, 0.484844
2192.96, 0.483460
2193.89, 0.482340
2194.82, 0.481812
2195.74, 0.482010
2196.68, 0.482801
2197.61, 0.483526
2198.54, 0.484778
2199.47, 0.486557
2200.4, 0.488864
2201.34, 0.491170
2202.28, 0.493807
2203.21, 0.496640
2204.15, 0.500067
2205.08, 0.503626
2206.02, 0.507185
2206.96, 0.510743
2207.9, 0.514763
2208.84, 0.518784
2209.78, 0.522935
2210.73, 0.527153
2211.67, 0.531107
2212.61, 0.534732
2213.56, 0.538620
2214.5, 0.541915
2215.45, 0.544947
2216.4, 0.547715
2217.35, 0.550285
2218.3, 0.552526
2219.24, 0.554371
2220.2, 0.555755
2221.15, 0.557205
2222.1, 0.558984
2223.05, 0.560434
2224.0, 0.561620
2224.96, 0.562806
2225.91, 0.563663
2226.87, 0.564520
2227.83, 0.565508
2228.79, 0.566365
2229.74, 0.566958
2230.7, 0.567683
2231.66, 0.568474
2232.63, 0.569133
2233.59, 0.569726
2234.55, 0.570121
2235.51, 0.570583
2236.48, 0.571176
2237.44, 0.571901
2238.41, 0.572494
2239.38, 0.572824
2240.34, 0.573153
2241.31, 0.573548
2242.28, 0.573812
2243.25, 0.573746
2244.22, 0.574010
2245.19, 0.574273
2246.17, 0.574603
2247.14, 0.574866
2248.12, 0.574932
2249.09, 0.575064
2250.07, 0.575328
2251.04, 0.575591
2252.02, 0.575789
2253.0, 0.575921
2253.98, 0.576185
2254.96, 0.576185
2255.94, 0.576382
2256.92, 0.576580
2257.91, 0.576580
2258.89, 0.576580
2259.88, 0.576778
2260.86, 0.576644
2261.85, 0.576778
2262.83, 0.576978
2263.82, 0.577312
2264.81, 0.577512
2265.8, 0.577245
2266.79, 0.576978
2267.78, 0.577178
2268.78, 0.577045
2269.77, 0.577112
2270.76, 0.577245
2271.76, 0.577178
2272.75, 0.576911
2273.75, 0.576978
2274.75, 0.576778
2275.75, 0.576177
2276.75, 0.575776
2277.75, 0.575909
2278.75, 0.575776
2279.75, 0.575843
2280.75, 0.575776
2281.76, 0.575509
2282.76, 0.575108
2283.77, 0.574774
2284.77, 0.574640
2285.78, 0.574774
2286.79, 0.574574
2287.8, 0.574039
2288.81, 0.573438
2289.82, 0.573038
2290.83, 0.572971
2291.84, 0.572503
2292.86, 0.571501
2293.87, 0.571101
2294.89, 0.570299
2295.91, 0.569832
2296.92, 0.569498
2297.94, 0.568830
2298.96, 0.567895
2299.98, 0.567227
2301.0, 0.566492
2302.02, 0.565557
2303.04, 0.564756
2304.07, 0.564155
2305.09, 0.563220
2306.12, 0.561951
2307.15, 0.560548
2308.17, 0.559680
2309.2, 0.558945
2310.23, 0.557877
2311.26, 0.556341
2312.29, 0.555072
2313.32, 0.554003
2314.35, 0.553135
2315.39, 0.551933
2316.42, 0.550597
2317.46, 0.549061
2318.5, 0.547725
2319.53, 0.546590
2320.57, 0.545454
2321.61, 0.544052
2322.65, 0.542516
2323.69, 0.540913
2324.73, 0.539510
2325.78, 0.537974
2326.82, 0.536572
2327.86, 0.535169
2328.91, 0.533566
2329.96, 0.531963
2331.01, 0.530694
2332.05, 0.529425
2333.1, 0.528490
2334.15, 0.527288
2335.21, 0.525752
2336.26, 0.524483
2337.31, 0.523414
2338.36, 0.522613
2339.42, 0.521478
2340.48, 0.520342
2341.53, 0.519674
2342.59, 0.518739
2343.65, 0.518138
2344.71, 0.517403
2345.77, 0.516869
2346.83, 0.516469
2347.9, 0.516201
2348.96, 0.515801
2350.02, 0.515734
2351.09, 0.516268
2352.16, 0.516936
2353.23, 0.517403
2354.29, 0.517804
2355.36, 0.518472
2356.43, 0.519941
2357.51, 0.520876
2358.58, 0.521745
2359.65, 0.522413
2360.73, 0.523414
2361.8, 0.524283
2362.88, 0.525017
2363.96, 0.525351
2365.03, 0.525819
2366.11, 0.526286
2367.19, 0.526620
2368.27, 0.526687
2369.36, 0.526687
2370.44, 0.527021
2371.53, 0.527422
2372.61, 0.527355
2373.7, 0.527288
2374.78, 0.526954
2375.87, 0.527021
2376.96, 0.527021
2378.05, 0.527021
2379.14, 0.526887
2380.24, 0.526687
2381.33, 0.526821
2382.42, 0.526620
2383.52, 0.526286
2384.61, 0.526420
2385.71, 0.526754
2386.81, 0.527221
2387.91, 0.527555
2389.01, 0.527822
2390.11, 0.527622
2391.22, 0.527622
2392.32, 0.527622
2393.42, 0.527555
2394.53, 0.527288
2395.64, 0.527088
2396.74, 0.527021
2397.85, 0.526821
2398.96, 0.526487
2400.07, 0.526286
2401.18, 0.525552
2402.3, 0.525017
2403.41, 0.524082
2404.52, 0.523348
2405.64, 0.522413
2406.76, 0.521411
2407.88, 0.520209
2408.99, 0.518873
2410.11, 0.517537
2411.23, 0.516335
2412.36, 0.515266
2413.48, 0.513931
2414.6, 0.512595
2415.73, 0.511393
2416.85, 0.509790
2417.98, 0.508654
2419.11, 0.507452
2420.24, 0.506183
2421.37, 0.504914
2422.5, 0.503912
2423.64, 0.502577
2424.77, 0.501374
2425.9, 0.500306
2427.04, 0.499438
2428.18, 0.498436
2429.31, 0.497434
2430.45, 0.496499
2431.59, 0.495764
2432.73, 0.495096
2433.88, 0.494696
2435.02, 0.494228
2436.16, 0.493627
2437.31, 0.492959
2438.45, 0.492692
2439.6, 0.492826
2440.75, 0.492959
2441.9, 0.493093
2443.05, 0.493160
2444.2, 0.493761
2445.35, 0.494095
2446.51, 0.494362
2447.67, 0.494829
2448.82, 0.495030
2449.98, 0.495364
2451.14, 0.496098
2452.3, 0.496633
2453.46, 0.496833
2454.62, 0.497100
2455.78, 0.497634
2456.94, 0.498235
2458.11, 0.498903
2459.28, 0.499571
2460.44, 0.500172
2461.61, 0.500373
2462.78, 0.500707
2463.95, 0.501508
2465.12, 0.502042
2466.3, 0.502710
2467.47, 0.503044
2468.65, 0.503445
2469.82, 0.503779
2471.0, 0.504113
2472.18, 0.504580
2473.36, 0.504847
2474.54, 0.505181
2475.72, 0.505449
2476.9, 0.505449
2478.08, 0.505849
2479.27, 0.506183
2480.46, 0.506384
2481.64, 0.506918
2482.83, 0.507185
2484.02, 0.507586
2485.21, 0.507986
2486.4, 0.508254
2487.6, 0.508320
2488.79, 0.508254
2489.99, 0.508588
2491.18, 0.508922
2492.38, 0.509322
2493.58, 0.509790
2494.78, 0.510057
2495.98, 0.510391
2497.18, 0.511059
2498.39, 0.511660
2499.59, 0.512261
2500.8, 0.512662
2502.01, 0.513263
2503.21, 0.513663
2504.42, 0.514398
2505.63, 0.515066
2506.84, 0.515734
2508.06, 0.516535
2509.27, 0.517203
2510.49, 0.517604
2511.7, 0.518472
2512.92, 0.519006
2514.14, 0.519541
2515.36, 0.520075
2516.58, 0.520743
2517.8, 0.521411
2519.03, 0.522212
2520.25, 0.522813
2521.48, 0.523481
2522.7, 0.524149
2523.93, 0.524617
2525.16, 0.525084
2526.39, 0.525418
2527.62, 0.525752
2528.86, 0.526153
2530.09, 0.526754
2531.33, 0.527221
2532.56, 0.527422
2533.8, 0.527689
2535.04, 0.528290
2536.28, 0.528090
2537.52, 0.527889
2538.76, 0.528090
2540.01, 0.527756
2541.25, 0.528090
2542.5, 0.528357
2543.75, 0.528090
2544.99, 0.527689
2546.24, 0.527756
2547.49, 0.527488
2548.75, 0.526887
2550.0, 0.526687
2551.26, 0.526487
2552.51, 0.526219
2553.77, 0.525685
2555.03, 0.525351
2556.29, 0.525084
2557.55, 0.524750
2558.81, 0.524884
2560.08, 0.525418
2561.34, 0.525218
2562.61, 0.524416
2563.88, 0.523748
2565.14, 0.522546
2566.41, 0.522079
2567.68, 0.522413
2568.96, 0.522947
2570.23, 0.521411
2571.51, 0.521077
2572.78, 0.522479
2574.06, 0.520876
2575.34, 0.520676
2576.62, 0.521144
2577.9, 0.519875
2579.18, 0.520075
2580.47, 0.520810
2581.75, 0.520409
2583.04, 0.521611
2584.32, 0.520209
2585.61, 0.519207
2586.9, 0.519741
2588.2, 0.518472
2589.49, 0.517671
2590.78, 0.516802
2592.08, 0.517070
2593.37, 0.519741
2594.67, 0.519207
2595.97, 0.513263
2597.27, 0.511059
2598.57, 0.510391
2599.88, 0.510124
2601.18, 0.509456
2602.49, 0.508721
2603.79, 0.508988
2605.1, 0.509055
2606.41, 0.506718
2607.72, 0.505916
2609.03, 0.505382
2610.35, 0.504514
2611.66, 0.504246
2612.98, 0.504380
2614.3, 0.503846
2615.62, 0.505582
2616.94, 0.504781
2618.26, 0.503245
2619.58, 0.505048
2620.91, 0.503578
2622.23, 0.502109
2623.56, 0.502710
2624.89, 0.503979
2626.22, 0.504981
2627.55, 0.503245
2628.88, 0.504781
2630.21, 0.505716
2631.55, 0.503578
2632.89, 0.503979
2634.22, 0.504046
2635.56, 0.503245
2636.9, 0.503445
2638.25, 0.503245
2639.59, 0.503178
2640.93, 0.503044
2642.28, 0.502844
2643.63, 0.502510
2644.98, 0.502643
2646.33, 0.501308
2647.68, 0.500439
2649.03, 0.499772
2650.39, 0.499571
2651.74, 0.499037
2653.1, 0.497367
2654.46, 0.495764
2655.82, 0.494295
2657.18, 0.492492
2658.54, 0.492091
2659.9, 0.490221
2661.27, 0.488151
2662.64, 0.486681
2664.01, 0.487483
2665.38, 0.485947
2666.74, 0.482340
2668.12, 0.479134
2669.49, 0.480470
2670.87, 0.476129
2672.24, 0.471854
2673.62, 0.471186
2675.0, 0.470652
2676.38, 0.468916
2677.76, 0.466311
2679.15, 0.464040
2680.54, 0.460901
2681.92, 0.459165
2683.31, 0.456827
2684.7, 0.453688
2686.09, 0.450549
2687.48, 0.446876
2688.88, 0.442334
2690.27, 0.436190
2691.67, 0.429979
2693.07, 0.421630
2694.47, 0.408874
2695.87, 0.393846
2697.27, 0.377951
2698.67, 0.361388
2700.08, 0.344891
2701.49, 0.328528
2702.9, 0.314837
2704.31, 0.304551
2705.72, 0.296938
2707.13, 0.291327
2708.54, 0.286252
2709.96, 0.279974
2711.38, 0.270890
2712.8, 0.259737
2714.22, 0.247782
2715.64, 0.233890
2717.06, 0.219598
2718.49, 0.205706
2719.91, 0.192348
2721.34, 0.178456
2722.77, 0.167303
2724.2, 0.157686
2725.63, 0.148736
2727.07, 0.141456
2728.5, 0.135712
2729.94, 0.131171
2731.38, 0.127765
2732.82, 0.125227
2734.26, 0.123423
2735.7, 0.121553
2737.15, 0.120218
2738.59, 0.119216
2740.04, 0.118214
2741.49, 0.117079
2742.94, 0.116144
2744.39, 0.115810
2745.84, 0.115609
2747.3, 0.115142
2748.76, 0.114140
2750.21, 0.112470
2751.67, 0.110934
2753.14, 0.109999
2754.6, 0.109866
2756.06, 0.110133
2757.53, 0.111001
2759.0, 0.112337
2760.46, 0.114140
2761.94, 0.116745
2763.41, 0.120819
2764.88, 0.125494
2766.36, 0.130436
2767.83, 0.135913
2769.31, 0.142057
2770.79, 0.148936
2772.27, 0.156283
2773.76, 0.164030
2775.24, 0.172379
2776.73, 0.180861
2778.22, 0.188809
2779.71, 0.196957
2781.2, 0.204704
2782.69, 0.211984
2784.18, 0.218930
2785.68, 0.225742
2787.18, 0.231753
2788.68, 0.236829
2790.18, 0.241370
2791.68, 0.246112
2793.19, 0.250988
2794.69, 0.256464
2796.2, 0.262275
2797.71, 0.268219
2799.22, 0.273696
2800.73, 0.278905
2802.24, 0.283447
2803.76, 0.285450
2805.28, 0.286051
2806.8, 0.288389
2808.32, 0.294066
2809.84, 0.302347
2811.36, 0.310896
2812.89, 0.318310
2814.42, 0.324254
2815.94, 0.328729
2817.48, 0.332669
2819.01, 0.336008
2820.54, 0.338413
2822.08, 0.340149
2823.61, 0.341819
2825.15, 0.343355
2826.69, 0.344624
2828.23, 0.345559
2829.78, 0.346227
2831.32, 0.346761
2832.87, 0.347028
2834.42, 0.347496
2835.97, 0.348297
2837.52, 0.349232
2839.08, 0.350234
2840.63, 0.351436
2842.19, 0.352572
2843.75, 0.353640
2845.31, 0.354442
2846.87, 0.355110
2848.44, 0.355377
2850.0, 0.355510
2851.57, 0.356178
2853.14, 0.357180
2854.71, 0.357848
2856.28, 0.357915
2857.86, 0.358048
2859.43, 0.358115
2861.01, 0.358182
2862.59, 0.358449
2864.17, 0.358716
2865.76, 0.358917
2867.34, 0.358850
2868.93, 0.358983
2870.52, 0.359317
2872.11, 0.359651
2873.7, 0.359584
2875.29, 0.359518
2876.89, 0.359718
2878.49, 0.359852
2880.08, 0.360119
2881.69, 0.360519
2883.29, 0.361054
2884.89, 0.361588
2886.5, 0.361989
2888.11, 0.362523
2889.72, 0.362924
2891.33, 0.363124
2892.94, 0.363258
2894.56, 0.363592
2896.17, 0.363992
2897.79, 0.364460
2899.42, 0.364727
2901.04, 0.364994
2902.66, 0.365462
2904.29, 0.366130
2905.92, 0.366597
2907.55, 0.366864
2909.18, 0.367332
2910.81, 0.367866
2912.45, 0.368534
2914.08, 0.369335
2915.72, 0.369870
2917.36, 0.370471
2919.01, 0.371205
2920.65, 0.371873
2922.3, 0.372541
2923.94, 0.373009
2925.59, 0.373409
2927.25, 0.373877
2928.9, 0.374411
2930.56, 0.374545
2932.21, 0.374545
2933.87, 0.374745
2935.53, 0.375213
2937.2, 0.375280
2938.86, 0.375079
2940.53, 0.374812
2942.2, 0.374678
2943.87, 0.374278
2945.54, 0.373610
2947.22, 0.372808
2948.89, 0.372140
2950.57, 0.371272
2952.25, 0.370270
2953.93, 0.369068
2955.62, 0.368066
2957.3, 0.367399
2958.99, 0.366731
2960.68, 0.365996
2962.37, 0.365529
2964.07, 0.365395
2965.76, 0.365328
2967.46, 0.365128
2969.16, 0.364527
2970.86, 0.364059
2972.56, 0.363458
2974.27, 0.362991
2975.98, 0.362256
2977.69, 0.361321
2979.4, 0.360519
2981.11, 0.359584
2982.83, 0.358516
2984.54, 0.357247
2986.26, 0.355844
2987.98, 0.354509
2989.71, 0.353173
2991.43, 0.351703
2993.16, 0.350167
2994.89, 0.348898
2996.62, 0.347496
2998.35, 0.345960
3000.09, 0.344424
3001.83, 0.342821
3003.57, 0.341418
3005.31, 0.340016
3007.05, 0.338613
3008.79, 0.337478
3010.54, 0.336342
3012.29, 0.335140
3014.04, 0.334005
3015.8, 0.333070
3017.55, 0.332268
3019.31, 0.331467
3021.07, 0.330732
3022.83, 0.330064
3024.59, 0.329597
3026.36, 0.329129
3028.13, 0.328662
3029.9, 0.328395
3031.67, 0.328395
3033.44, 0.328395
3035.22, 0.328395
3037.0, 0.328461
3038.78, 0.328595
3040.56, 0.329063
3042.34, 0.329530
3044.13, 0.329998
3045.92, 0.330732
3047.71, 0.331534
3049.5, 0.332335
3051.3, 0.333270
3053.09, 0.334272
3054.89, 0.335140
3056.69, 0.336342
3058.5, 0.337545
3060.3, 0.338680
3062.11, 0.339949
3063.92, 0.341285
3065.73, 0.342554
3067.55, 0.343823
3069.36, 0.345158
3071.18, 0.346494
3073.0, 0.347629
3074.82, 0.348898
3076.65, 0.350368
3078.48, 0.351770
3080.31, 0.353240
3082.14, 0.354776
3083.97, 0.356245
3085.8, 0.357581
3087.64, 0.358983
3089.48, 0.360586
3091.33, 0.362189
3093.17, 0.363658
3095.02, 0.365128
3096.87, 0.366597
3098.72, 0.368133
3100.57, 0.369669
3102.43, 0.371005
3104.28, 0.372541
3106.14, 0.373944
3108.01, 0.375280
3109.87, 0.376415
3111.74, 0.377550
3113.61, 0.378752
3115.48, 0.380088
3117.35, 0.381290
3119.23, 0.382559
3121.1, 0.383561
3122.98, 0.384563
3124.87, 0.385698
3126.75, 0.386767
3128.64, 0.387502
3130.53, 0.388370
3132.42, 0.389372
3134.31, 0.390307
3136.21, 0.391175
3138.11, 0.392043
3140.01, 0.392845
3141.91, 0.393646
3143.82, 0.394648
3145.73, 0.395650
3147.64, 0.396384
3149.55, 0.397119
3151.46, 0.397787
3153.38, 0.398588
3155.3, 0.399189
3157.22, 0.399924
3159.14, 0.400592
3161.07, 0.401260
3163.0, 0.401794
3164.93, 0.402395
3166.86, 0.402996
3168.8, 0.403731
3170.74, 0.404399
3172.68, 0.405067
3174.62, 0.405601
3176.56, 0.406069
3178.51, 0.406536
3180.46, 0.407338
3182.42, 0.407939
3184.37, 0.408473
3186.33, 0.409208
3188.29, 0.409742
3190.25, 0.410209
3192.21, 0.410677
3194.18, 0.411211
3196.15, 0.411879
3198.12, 0.412614
3200.09, 0.413282
3202.07, 0.413883
3204.05, 0.414417
3206.03, 0.414951
3208.02, 0.415486
3210.0, 0.416154
3211.99, 0.416821
3213.98, 0.417356
3215.98, 0.418024
3217.97, 0.418558
3219.97, 0.419159
3221.97, 0.419626
3223.98, 0.420094
3225.98, 0.420561
3227.99, 0.420895
3230.0, 0.421229
3232.02, 0.421563
3234.03, 0.421830
3236.05, 0.422031
3238.07, 0.422365
3240.1, 0.422498
3242.12, 0.422565
3244.15, 0.422565
3246.18, 0.422365
3248.22, 0.422164
3250.25, 0.421964
3252.29, 0.421697
3254.33, 0.421430
3256.38, 0.421163
3258.43, 0.420895
3260.47, 0.420695
3262.53, 0.420495
3264.58, 0.420361
3266.64, 0.420228
3268.7, 0.420027
3270.76, 0.419894
3272.82, 0.419894
3274.89, 0.419827
3276.96, 0.420027
3279.04, 0.420228
3281.11, 0.420361
3283.19, 0.420361
3285.27, 0.420561
3287.35, 0.420895
3289.44, 0.421229
3291.53, 0.421563
3293.62, 0.421964
3295.71, 0.422432
3297.81, 0.422899
3299.91, 0.423433
3302.01, 0.424101
3304.11, 0.424636
3306.22, 0.425237
3308.33, 0.425971
3310.44, 0.426906
3312.56, 0.427574
3314.68, 0.428175
3316.8, 0.428910
3318.92, 0.429778
3321.05, 0.430513
3323.18, 0.431381
3325.31, 0.432249
3327.44, 0.433184
3329.58, 0.434053
3331.72, 0.434988
3333.86, 0.435989
3336.01, 0.436991
3338.16, 0.437926
3340.31, 0.438995
3342.46, 0.439997
3344.61, 0.440932
3346.77, 0.441733
3348.94, 0.442668
3351.1, 0.443670
3353.27, 0.444471
3355.44, 0.445139
3357.61, 0.445874
3359.79, 0.446609
3361.97, 0.447410
3364.15, 0.448011
3366.33, 0.448612
3368.52, 0.449347
3370.71, 0.450215
3372.9, 0.451083
3375.1, 0.452018
3377.3, 0.453154
3379.5, 0.454222
3381.71, 0.455224
3383.91, 0.456560
3386.12, 0.457829
3388.34, 0.459031
3390.55, 0.460233
3392.77, 0.461302
3394.99, 0.462237
3397.22, 0.463105
3399.45, 0.463706
3401.68, 0.464441
3403.91, 0.465042
3406.15, 0.465843
3408.39, 0.466578
3410.63, 0.467246
3412.87, 0.467914
3415.12, 0.468849
3417.37, 0.469851
3419.63, 0.471186
3421.88, 0.472389
3424.14, 0.473858
3426.41, 0.475327
3428.67, 0.476730
3430.94, 0.478066
3433.21, 0.479335
3435.49, 0.480470
3437.77, 0.481405
3440.05, 0.482140
3442.33, 0.482941
3444.62, 0.483676
3446.91, 0.484410
3449.2, 0.485212
3451.5, 0.485947
3453.8, 0.486614
3456.1, 0.487216
3458.41, 0.487883
3460.72, 0.488551
3463.03, 0.489086
3465.34, 0.489420
3467.66, 0.489820
3469.98, 0.490087
3472.31, 0.490288
3474.63, 0.490355
3476.96, 0.490622
3479.3, 0.490889
3481.64, 0.491022
3483.97, 0.491290
3486.32, 0.491557
3488.66, 0.491423
3491.01, 0.491156
3493.36, 0.490956
3495.72, 0.490555
3498.08, 0.490221
3500.44, 0.489954
3502.81, 0.489753
3505.18, 0.489420
3507.55, 0.489286
3509.92, 0.489420
3512.3, 0.489486
3514.68, 0.489353
3517.06, 0.489420
3519.45, 0.489553
3521.84, 0.489753
3524.24, 0.489820
3526.64, 0.490021
3529.04, 0.490221
3531.44, 0.490555
3533.85, 0.490889
3536.26, 0.491423
3538.67, 0.491891
3541.09, 0.492358
3543.51, 0.492826
3545.93, 0.493427
3548.36, 0.494161
3550.79, 0.495030
3553.22, 0.495898
3555.66, 0.496766
3558.1, 0.497501
3560.54, 0.498436
3562.99, 0.499304
3565.44, 0.500106
3567.9, 0.500974
3570.35, 0.501842
3572.81, 0.502577
3575.28, 0.503245
3577.75, 0.503979
3580.22, 0.504714
3582.69, 0.505382
3585.17, 0.506116
3587.65, 0.506718
3590.14, 0.507385
3592.62, 0.507986
3595.11, 0.508588
3597.61, 0.508922
3600.11, 0.509255
3602.61, 0.509656
3605.11, 0.510190
3607.62, 0.510591
3610.14, 0.511059
3612.65, 0.511459
3615.17, 0.511727
3617.69, 0.511994
3620.22, 0.512261
3622.75, 0.512461
3625.28, 0.512662
3627.82, 0.512862
3630.36, 0.512996
3632.9, 0.513062
3635.45, 0.513196
3638.0, 0.513263
3640.56, 0.513396
3643.12, 0.513530
3645.68, 0.513530
3648.24, 0.513597
3650.81, 0.513663
3653.39, 0.513797
3655.96, 0.513797
3658.54, 0.513663
3661.13, 0.513663
3663.71, 0.513730
3666.3, 0.513663
3668.9, 0.513530
3671.5, 0.513463
3674.1, 0.513263
3676.7, 0.513129
3679.31, 0.512862
3681.93, 0.512461
3684.54, 0.512261
3687.17, 0.511994
3689.79, 0.511593
3692.42, 0.511326
3695.05, 0.510925
3697.69, 0.510391
3700.32, 0.509990
3702.97, 0.509589
3705.61, 0.509389
3708.27, 0.509189
3710.92, 0.508922
3713.58, 0.508788
3716.24, 0.508721
3718.91, 0.508588
3721.58, 0.508588
3724.25, 0.508654
3726.93, 0.508654
3729.61, 0.508588
3732.29, 0.508521
3734.98, 0.508721
3737.67, 0.509122
3740.37, 0.509790
3743.07, 0.510324
3745.78, 0.510925
3748.49, 0.511526
3751.2, 0.512194
3753.91, 0.512728
3756.63, 0.513263
3759.36, 0.513730
3762.09, 0.514331
3764.82, 0.514866
3767.55, 0.515333
3770.29, 0.515801
3773.04, 0.516268
3775.78, 0.516535
3778.54, 0.516936
3781.29, 0.517203
3784.05, 0.517470
3786.82, 0.517671
3789.59, 0.517938
3792.36, 0.518138
3795.13, 0.518272
3797.92, 0.518339
3800.7, 0.518339
3803.49, 0.518205
3806.28, 0.518005
3809.08, 0.517737
3811.88, 0.517604
3814.68, 0.517337
3817.49, 0.517136
3820.31, 0.516802
3823.12, 0.516535
3825.94, 0.516268
3828.77, 0.516001
3831.6, 0.515667
3834.43, 0.515333
3837.27, 0.514866
3840.11, 0.514598
3842.96, 0.514265
3845.81, 0.513997
3848.67, 0.513663
3851.53, 0.513530
3854.39, 0.513329
3857.26, 0.513196
3860.13, 0.512996
3863.01, 0.512795
3865.89, 0.512728
3868.77, 0.512728
3871.66, 0.512595
3874.55, 0.512728
3877.45, 0.512795
3880.35, 0.512795
3883.26, 0.512662
3886.17, 0.512795
3889.09, 0.512929
3892.01, 0.512929
3894.93, 0.512862
3897.86, 0.512795
3900.79, 0.512662
3903.73, 0.512662
3906.67, 0.512728
3909.62, 0.512662
3912.57, 0.512461
3915.52, 0.512261
3918.48, 0.512127
3921.45, 0.512060
3924.42, 0.511793
3927.39, 0.511459
3930.37, 0.510992
3933.35, 0.510725
3936.34, 0.510391
3939.33, 0.509990
3942.32, 0.509589
3945.32, 0.509322
3948.33, 0.508855
3951.34, 0.508320
3954.35, 0.507853
3957.37, 0.507385
3960.39, 0.506918
3963.42, 0.506584
3966.45, 0.506050
3969.49, 0.505649
3972.53, 0.505248
3975.58, 0.504847
3978.63, 0.504514
3981.68, 0.504313
3984.75, 0.503979
3987.81, 0.503712
3990.88, 0.503445
3993.95, 0.503178
3997.03, 0.502977
4000.12, 0.502911
4003.21, 0.502777
4006.3, 0.502710
4009.4, 0.502577
4012.5, 0.502577
4015.61, 0.502643
4018.72, 0.502710
4021.84, 0.502643
4024.96, 0.502710
4028.09, 0.502577
4031.22, 0.502510
4034.36, 0.502643
4037.5, 0.502777
4040.65, 0.502777
4043.8, 0.502777
4046.96, 0.502710
4050.12, 0.502710
4053.29, 0.502643
4056.46, 0.502443
4059.64, 0.502243
4062.82, 0.502109
4066.0, 0.501775
4069.19, 0.501441
4072.39, 0.501107
4075.59, 0.500707
4078.8, 0.500106
4082.01, 0.499504
4085.23, 0.498970
4088.45, 0.498369
4091.68, 0.497701
4094.91, 0.496900
4098.15, 0.496232
4101.39, 0.495564
4104.63, 0.494696
4107.89, 0.493961
4111.14, 0.493160
4114.41, 0.492358
4117.67, 0.491623
4120.95, 0.490889
4124.23, 0.490087
4127.51, 0.489353
4130.8, 0.488551
4134.09, 0.487817
4137.39, 0.487216
4140.7, 0.486614
4144.01, 0.485947
4147.32, 0.485345
4150.64, 0.484544
4153.97, 0.483943
4157.3, 0.483208
4160.64, 0.482741
4163.98, 0.482073
4167.33, 0.481405
4170.68, 0.480537
4174.04, 0.479869
4177.4, 0.479134
4180.77, 0.478266
4184.14, 0.477264
4187.52, 0.476329
4190.91, 0.475528
4194.3, 0.475060
4197.69, 0.474726
4201.1, 0.474459
4204.5, 0.474392
4207.92, 0.474459
4211.34, 0.474459
4214.76, 0.474526
4218.19, 0.474526
4221.62, 0.474459
4225.06, 0.474192
4228.51, 0.473791
4231.96, 0.473257
4235.42, 0.472789
4238.88, 0.472255
4242.35, 0.471854
4245.83, 0.471253
4249.31, 0.470452
4252.79, 0.469383
4256.28, 0.468515
4259.78, 0.467981
4263.29, 0.467446
4266.79, 0.466511
4270.31, 0.465376
4273.83, 0.464174
4277.35, 0.463172
4280.89, 0.462037
4284.42, 0.460768
4287.97, 0.459699
4291.52, 0.458964
4295.07, 0.458096
4298.63, 0.457428
4302.2, 0.456827
4305.78, 0.456293
4309.35, 0.455625
4312.94, 0.455024
4316.53, 0.454289
4320.13, 0.453555
4323.73, 0.452553
4327.34, 0.451551
4330.96, 0.450349
4334.58, 0.449080
4338.21, 0.447610
4341.84, 0.446008
4345.48, 0.444204
4349.12, 0.442267
4352.77, 0.440130
4356.43, 0.437926
4360.1, 0.435455
4363.76, 0.432917
4367.44, 0.430112
4371.12, 0.427240
4374.81, 0.424235
4378.51, 0.421096
4382.21, 0.417756
4385.92, 0.414551
4389.63, 0.411345
4393.35, 0.408139
4397.08, 0.404933
4400.81, 0.401794
4404.55, 0.398722
4408.29, 0.395716
4412.04, 0.392978
4415.8, 0.390307
4419.57, 0.387635
4423.34, 0.385031
4427.12, 0.382426
4430.9, 0.379955
4434.69, 0.377751
4438.49, 0.375814
4442.29, 0.373810
4446.1, 0.371473
4449.92, 0.368935
4453.74, 0.365929
4457.57, 0.362991
4461.41, 0.360386
4465.25, 0.358182
4469.1, 0.356713
4472.95, 0.355711
4476.82, 0.355176
4480.69, 0.354642
4484.56, 0.354175
4488.44, 0.353640
4492.33, 0.353373
4496.23, 0.353440
4500.13, 0.354041
4504.04, 0.355110
4507.96, 0.356379
4511.88, 0.357781
4515.81, 0.359317
4519.75, 0.360519
4523.69, 0.361521
4527.65, 0.362323
4531.6, 0.362924
4535.57, 0.363191
4539.54, 0.363458
4543.52, 0.363458
4547.5, 0.363325
4551.5, 0.362991
4555.5, 0.362456
4559.5, 0.361521
4563.52, 0.360519
4567.54, 0.359250
4571.56, 0.357915
4575.6, 0.356445
4579.64, 0.354976
4583.69, 0.353373
4587.75, 0.351770
4591.81, 0.349967
4595.88, 0.348030
4599.96, 0.346093
4604.04, 0.344023
4608.14, 0.341619
4612.24, 0.339081
4616.34, 0.336276
4620.46, 0.333337
4624.58, 0.330131
4628.71, 0.326858
4632.84, 0.323185
4636.99, 0.319579
4641.14, 0.315772
4645.3, 0.312165
4649.47, 0.308826
4653.64, 0.305754
4657.82, 0.302681
4662.01, 0.299476
4666.21, 0.296069
4670.41, 0.292864
4674.62, 0.289858
4678.84, 0.287253
4683.07, 0.285183
4687.3, 0.283981
4691.54, 0.283513
4695.79, 0.283380
4700.05, 0.283246
4704.31, 0.282845
4708.59, 0.282178
4712.87, 0.281176
4717.15, 0.279840
4721.45, 0.278237
4725.76, 0.276434
4730.07, 0.274631
4734.39, 0.272694
4738.72, 0.270824
4743.05, 0.268954
4747.39, 0.267084
4751.75, 0.265013
4756.1, 0.262943
4760.47, 0.260672
4764.85, 0.258468
4769.23, 0.256398
4773.62, 0.254661
4778.02, 0.253125
4782.43, 0.252056
4786.85, 0.251255
4791.27, 0.250854
4795.7, 0.250453
4800.14, 0.250186
4804.59, 0.249719
4809.05, 0.249318
4813.51, 0.248717
4817.99, 0.247849
4822.47, 0.246713
4826.96, 0.245444
4831.46, 0.243775
4835.96, 0.241971
4840.48, 0.239901
4845.0, 0.237363
4849.54, 0.234558
4854.08, 0.231753
4858.63, 0.228748
4863.18, 0.225608
4867.75, 0.222202
4872.33, 0.218796
4876.91, 0.215123
4881.5, 0.211116
4886.1, 0.206841
4890.71, 0.202233
4895.33, 0.197491
4899.96, 0.193016
4904.59, 0.188875
4909.24, 0.185269
4913.89, 0.182397
4918.55, 0.180393
4923.22, 0.178991
4927.9, 0.177989
4932.59, 0.177054
4937.29, 0.176319
4942.0, 0.175518
4946.71, 0.174449
4951.44, 0.172913
4956.17, 0.171177
4960.91, 0.169039
4965.67, 0.166769
4970.43, 0.164565
4975.2, 0.162427
4979.98, 0.160624
4984.76, 0.159288
4989.56, 0.158287
4994.37, 0.157686
4999.18, 0.157285
5004.01, 0.156884
5008.84, 0.156684
5013.69, 0.156550
5018.54, 0.156617
5023.4, 0.156684
5028.28, 0.156684
5033.16, 0.156617
5038.05, 0.156417
5042.95, 0.156283
5047.86, 0.156149
5052.78, 0.156149
5057.71, 0.156149
5062.65, 0.156083
5067.6, 0.156083
5072.56, 0.156083
5077.53, 0.156083
5082.5, 0.156149
5087.49, 0.156149
5092.49, 0.156216
5097.5, 0.156016
5102.51, 0.155615
5107.54, 0.154814
5112.58, 0.154146
5117.62, 0.153278
5122.68, 0.152276
5127.75, 0.151140
5132.82, 0.150005
5137.91, 0.148936
5143.01, 0.147935
5148.12, 0.146732
5153.23, 0.145330
5158.36, 0.143927
5163.5, 0.142525
5168.65, 0.140989
5173.81, 0.139319
5178.98, 0.137649
5184.15, 0.136046
5189.34, 0.134510
5194.54, 0.132974
5199.75, 0.131171
5204.98, 0.129234
5210.21, 0.127230
5215.45, 0.124893
5220.7, 0.122288
5225.96, 0.119884
5231.23, 0.117479
5236.52, 0.115209
5241.81, 0.112938
5247.12, 0.110934
5252.44, 0.108997
5257.76, 0.107261
5263.1, 0.105725
5268.45, 0.104389
5273.81, 0.103120
5279.18, 0.101985
5284.56, 0.100916
5289.95, 0.0999810
5295.36, 0.0989790
5300.77, 0.0981780
5306.2, 0.0974430
5311.63, 0.0967750
5317.08, 0.0961740
5322.54, 0.0957070
5328.01, 0.0952390
5333.49, 0.0947720
5338.98, 0.0944380
5344.49, 0.0942370
5350.0, 0.0939700
5355.53, 0.0935030
5361.07, 0.0932350
5366.62, 0.0930350
5372.18, 0.0929020
5377.75, 0.0930350
5383.34, 0.0930350
5388.93, 0.0931020
5394.54, 0.0933020
5400.16, 0.0937030
5405.79, 0.0940370
5411.44, 0.0943040
5417.09, 0.0949720
5422.76, 0.0952390
5428.43, 0.0953060
5434.12, 0.0955060
5439.83, 0.0954390
5445.54, 0.0953060
5451.26, 0.0949050
5457.0, 0.0944380
5462.75, 0.0939700
5468.52, 0.0931020
5474.29, 0.0923000
5480.08, 0.0913650
5485.88, 0.0904970
5491.69, 0.0898290
5497.51, 0.0889610
5503.35, 0.0880930
5509.2, 0.0872910
5515.06, 0.0865570
5520.93, 0.0856880
5526.82, 0.0848870
5532.71, 0.0842190
5538.63, 0.0836180
5544.55, 0.0830170
5550.49, 0.0825490
5556.44, 0.0819480
5562.4, 0.0815480
5568.37, 0.0813470
5574.36, 0.0813470
5580.36, 0.0811470
5586.37, 0.0809470
5592.4, 0.0810130
5598.44, 0.0812140
5604.49, 0.0811470
5610.56, 0.0812810
5616.63, 0.0814810
5622.73, 0.0816140
5628.83, 0.0818820
5634.95, 0.0824830
5641.08, 0.0830840
5647.23, 0.0833510
5653.39, 0.0841520
5659.56, 0.0849540
5665.74, 0.0858890
5671.94, 0.0868910
5678.15, 0.0876250
5684.38, 0.0883600
5690.62, 0.0891610
5696.87, 0.0896960
5703.14, 0.0904300
5709.42, 0.0909650
5715.72, 0.0911650
5722.03, 0.0914320
5728.35, 0.0916330
5734.69, 0.0918330
5741.03, 0.0920330
5747.4, 0.0921670
5753.78, 0.0920330
5760.17, 0.0924340
5766.58, 0.0923670
5773.0, 0.0916990
5779.44, 0.0913650
5785.88, 0.0909650
5792.35, 0.0905640
5798.83, 0.0901630
5805.32, 0.0896290
5811.83, 0.0892280
5818.35, 0.0889610
5824.89, 0.0881600
5831.45, 0.0870910
5838.01, 0.0860890
5844.59, 0.0850870
5851.19, 0.0842190
5857.8, 0.0834840
5864.43, 0.0825490
5871.07, 0.0817480
5877.73, 0.0812140
5884.4, 0.0798780
5891.09, 0.0792100
5897.79, 0.0784750
5904.5, 0.0773400
5911.23, 0.0766720
5917.98, 0.0761380
5924.75, 0.0758040
5931.53, 0.0760040
5938.32, 0.0756700
5945.13, 0.0753360
5951.96, 0.0755370
5958.8, 0.0758040
5965.65, 0.0764050
5972.53, 0.0768730
5979.42, 0.0774070
5986.32, 0.0781410
5993.24, 0.0786090
6000.18, 0.0791430
6007.13, 0.0800780
6014.1, 0.0809470
6021.08, 0.0814810
6028.09, 0.0820150
6035.1, 0.0826830
6042.14, 0.0839520
6049.19, 0.0847530
6056.25, 0.0844860
6063.34, 0.0850870
6070.44, 0.0856880
6077.55, 0.0856880
6084.69, 0.0856880
6091.84, 0.0858890
6099.0, 0.0858220
6106.19, 0.0859560
6113.39, 0.0858220
6120.61, 0.0851540
6127.84, 0.0848200
6135.09, 0.0844200
6142.36, 0.0838850
6149.65, 0.0834180
6156.95, 0.0829500
6164.27, 0.0824160
6171.61, 0.0820820
6178.97, 0.0820150
6186.34, 0.0815480
6193.73, 0.0810800
6201.14, 0.0810130
6208.57, 0.0809470
6216.01, 0.0809470
6223.47, 0.0810130
6230.95, 0.0810130
6238.45, 0.0810130
6245.97, 0.0811470
6253.5, 0.0813470
6261.06, 0.0814810
6268.63, 0.0816140
6276.21, 0.0818150
6283.82, 0.0819480
6291.45, 0.0820820
6299.1, 0.0822820
6306.76, 0.0825490
6314.44, 0.0829500
6322.14, 0.0834180
6329.86, 0.0838850
6337.6, 0.0847530
6345.35, 0.0851540
6353.13, 0.0850870
6360.92, 0.0856220
6368.74, 0.0862230
6376.57, 0.0865570
6384.43, 0.0870910
6392.3, 0.0874920
6400.19, 0.0881600
6408.1, 0.0890280
6416.03, 0.0890280
6423.98, 0.0883600
6431.95, 0.0879590
6439.94, 0.0872910
6447.95, 0.0866900
6455.98, 0.0857550
6464.03, 0.0848870
6472.1, 0.0839520
6480.19, 0.0829500
6488.31, 0.0820820
6496.44, 0.0804120
6504.59, 0.0784750
6512.76, 0.0774740
6520.95, 0.0762710
6529.16, 0.0749360
6537.4, 0.0740010
6545.65, 0.0734660
6553.92, 0.0730660
6562.22, 0.0728650
6570.54, 0.0728650
6578.88, 0.0725310
6587.23, 0.0723310
6595.61, 0.0720640
6604.02, 0.0718630
6612.44, 0.0719300
6620.89, 0.0719300
6629.35, 0.0721970
6637.84, 0.0720640
6646.35, 0.0712620
6654.88, 0.0707950
6663.44, 0.0703940
6672.01, 0.0699930
6680.61, 0.0694590
6689.23, 0.0686580
6697.88, 0.0681230
6706.54, 0.0678560
6715.23, 0.0673890
6723.94, 0.0669210
6732.67, 0.0663200
6741.42, 0.0659190
6750.2, 0.0655850
6759.0, 0.0651180
6767.82, 0.0648510
6776.67, 0.0646500
6785.54, 0.0643830
6794.44, 0.0637150
6803.35, 0.0631810
6812.29, 0.0627800
6821.26, 0.0623130
6830.24, 0.0615110
6839.25, 0.0607100
6848.29, 0.0601760
6857.35, 0.0597080
6866.43, 0.0587060
6875.54, 0.0577710
6884.67, 0.0570370
6893.82, 0.0563020
6903.0, 0.0554340
6912.2, 0.0544320
6921.43, 0.0536300
6930.69, 0.0526290
6939.96, 0.0516270
6949.27, 0.0506920
6958.59, 0.0498240
6967.95, 0.0488890
6977.33, 0.0480870
6986.73, 0.0473520
6996.16, 0.0466850
7005.61, 0.0461500
7015.09, 0.0457500
7024.6, 0.0452820
7034.13, 0.0450150
7043.69, 0.0448810
7053.27, 0.0444810
7062.88, 0.0440800
7072.52, 0.0439460
7082.18, 0.0437460
7091.87, 0.0435460
7101.58, 0.0434790
7111.32, 0.0432780
7121.09, 0.0430780
7130.88, 0.0428780
7140.71, 0.0426770
7150.56, 0.0423430
7160.43, 0.0420760
7170.33, 0.0417420
7180.27, 0.0413420
7190.23, 0.0409410
7200.21, 0.0405400
7210.23, 0.0402060
7220.27, 0.0398050
7230.34, 0.0393380
7240.44, 0.0387370
7250.56, 0.0382030
7260.72, 0.0378020
7270.9, 0.0372010
7281.12, 0.0366660
7291.36, 0.0360650
7301.63, 0.0355310
7311.93, 0.0349300
7322.25, 0.0344620
7332.61, 0.0339280
7343.0, 0.0334610
7353.41, 0.0330600
7363.86, 0.0326590
7374.33, 0.0321920
7384.83, 0.0316570
7395.37, 0.0311900
7405.93, 0.0307890
7416.53, 0.0302550
7427.15, 0.0297870
7437.81, 0.0292530
7448.5, 0.0289190
7459.22, 0.0287190
7469.96, 0.0283180
7480.74, 0.0278500
7491.55, 0.0275830
7502.39, 0.0273830
7513.27, 0.0270490
7524.17, 0.0266480
7535.11, 0.0263810
7546.08, 0.0260470
7557.08, 0.0257800
7568.11, 0.0255800
7579.17, 0.0254460
7590.27, 0.0253130
7601.4, 0.0253130
7612.56, 0.0251120
7623.76, 0.0252460
7634.98, 0.0255800
7646.24, 0.0259140
7657.54, 0.0261810
7668.87, 0.0267150
7680.23, 0.0272490
7691.62, 0.0277170
7703.05, 0.0283180
7714.51, 0.0290530
7726.01, 0.0298540
7737.54, 0.0307220
7749.11, 0.0317240
7760.71, 0.0326590
7772.35, 0.0335940
7784.02, 0.0344620
7795.72, 0.0354640
7807.46, 0.0363990
7819.23, 0.0376680
7831.04, 0.0392040
7842.89, 0.0409410
7854.77, 0.0429440
7866.69, 0.0453490
7878.65, 0.0478870
7890.64, 0.0507590
7902.67, 0.0539640
7914.74, 0.0575040
7926.84, 0.0613110
7938.98, 0.0653180
7951.16, 0.0695930
7963.37, 0.0740010
7975.62, 0.0783420
7987.91, 0.0826160
8000.24, 0.0868240
8012.6, 0.0909650
8025.01, 0.0951720
8037.45, 0.0997140
8049.93, 0.104523
8062.45, 0.109665
8075.01, 0.115008
8087.61, 0.120685
8100.24, 0.126563
8112.91, 0.132373
8125.63, 0.138451
8138.39, 0.144528
8151.18, 0.150139
8164.02, 0.155148
8176.9, 0.158954
8189.81, 0.161760
8202.77, 0.163696
8215.77, 0.165032
8228.82, 0.165700
8241.9, 0.166168
8255.02, 0.166435
8268.19, 0.166835
8281.39, 0.167236
8294.65, 0.167837
8307.94, 0.168305
8321.28, 0.169106
8334.66, 0.170108
8348.08, 0.171110
8361.54, 0.172178
8375.05, 0.173447
8388.6, 0.174984
8402.2, 0.176653
8415.84, 0.178590
8429.52, 0.180794
8443.25, 0.183332
8457.02, 0.186003
8470.84, 0.188875
8484.7, 0.192215
8498.61, 0.195621
8512.57, 0.199161
8526.57, 0.202500
8540.62, 0.205572
8554.71, 0.208110
8568.85, 0.209579
8583.04, 0.209246
8597.27, 0.206975
8611.55, 0.204971
8625.88, 0.208377
8640.26, 0.219865
8654.68, 0.235894
8669.16, 0.250721
8683.68, 0.262342
8698.25, 0.271291
8712.87, 0.278371
8727.53, 0.283714
8742.25, 0.287988
8757.02, 0.291595
8771.83, 0.295001
8786.7, 0.298607
8801.62, 0.302681
8816.59, 0.306355
8831.61, 0.310295
8846.68, 0.314169
8861.8, 0.317909
8876.97, 0.321382
8892.2, 0.324588
8907.48, 0.327393
8922.81, 0.329797
8938.2, 0.331400
8953.63, 0.332669
8969.13, 0.333070
8984.67, 0.332535
9000.27, 0.331534
9015.92, 0.330131
9031.63, 0.327860
9047.39, 0.325122
9063.21, 0.321649
9079.08, 0.317308
9095.01, 0.312032
9111.0, 0.306488
9127.04, 0.301012
9143.13, 0.296203
9159.28, 0.293064
9175.49, 0.292663
9191.76, 0.295335
9208.09, 0.301145
9224.47, 0.309093
9240.92, 0.317976
9257.42, 0.326257
9273.98, 0.333337
9290.6, 0.338413
9307.28, 0.340750
9324.02, 0.340350
9340.82, 0.337812
9357.68, 0.333404
9374.6, 0.327393
9391.58, 0.320313
9408.62, 0.313100
9425.73, 0.306488
9442.9, 0.301546
9460.13, 0.298541
9477.42, 0.298006
9494.78, 0.299810
9512.2, 0.303483
9529.69, 0.307891
9547.24, 0.311965
9564.86, 0.314436
9582.54, 0.315171
9600.28, 0.313234
9618.1, 0.308893
9635.97, 0.302414
9653.92, 0.294333
9671.93, 0.285183
9690.01, 0.275365
9708.16, 0.265481
9726.37, 0.255997
9744.65, 0.247181
9763.0, 0.239567
9781.43, 0.233222
9799.92, 0.228280
9818.48, 0.224807
9837.1, 0.222803
9855.8, 0.221334
9874.58, 0.219865
9893.42, 0.218329
9912.34, 0.216859
9931.33, 0.215390
9950.39, 0.214121
9969.52, 0.212451
9988.74, 0.210181
10008.0, 0.206975
10027.4, 0.203168
10046.8, 0.198426
10066.3, 0.192949
10085.9, 0.187206
10105.6, 0.181395
10125.3, 0.175585
10145.1, 0.170308
10165.0, 0.165633
10185.0, 0.162094
10205.0, 0.159556
10225.2, 0.157886
10245.4, 0.157218
10265.7, 0.157218
10286.0, 0.157686
10306.5, 0.158353
10327.0, 0.158687
10347.6, 0.158420
10368.3, 0.157151
10389.1, 0.155214
10409.9, 0.152342
10430.9, 0.148602
10451.9, 0.144194
10473.0, 0.139920
10494.2, 0.135712
10515.5, 0.132039
10536.9, 0.128833
10558.4, 0.125627
10579.9, 0.122622
10601.5, 0.120151
10623.3, 0.118281
10645.1, 0.116411
10667.0, 0.114274
10689.0, 0.112737
10711.1, 0.111535
10733.2, 0.110200
10755.5, 0.108797
10777.9, 0.107662
10800.3, 0.106660
10822.9, 0.105591
10845.5, 0.104456
10868.2, 0.103588
10891.1, 0.102719
10914.0, 0.101985
10937.0, 0.101116
10960.2, 0.100515
10983.4, 0.0999140
11006.7, 0.0993800
11030.1, 0.0988460
11053.6, 0.0983110
11077.3, 0.0977770
11101.0, 0.0973100
11124.8, 0.0969760
11148.7, 0.0965750
11172.7, 0.0959740
11196.9, 0.0956400
11221.1, 0.0952390
11245.4, 0.0947050
11269.9, 0.0940370
11294.4, 0.0931690
11319.1, 0.0921670
11343.9, 0.0912990
11368.8, 0.0903640
11393.7, 0.0894290
11418.8, 0.0885600
11444.0, 0.0874920
11469.4, 0.0864900
11494.8, 0.0856880
11520.3, 0.0848200
11546.0, 0.0839520
11571.8, 0.0829500
11597.7, 0.0819480
11623.7, 0.0809470
11649.8, 0.0802120
11676.0, 0.0794100
11702.4, 0.0786090
11728.9, 0.0782080
11755.5, 0.0781410
11782.2, 0.0778740
11809.0, 0.0774740
11836.0, 0.0770060
11863.0, 0.0764050
11890.3, 0.0756700
11917.6, 0.0746690
11945.0, 0.0731990
11972.6, 0.0715300
12000.4, 0.0699930
12028.2, 0.0683910
12056.2, 0.0667210
12084.3, 0.0649180
12112.5, 0.0629810
12140.9, 0.0606430
12169.4, 0.0585730
12198.0, 0.0565020
12226.8, 0.0542980
12255.7, 0.0521610
12284.7, 0.0507590
12313.9, 0.0503580
12343.2, 0.0520940
12372.7, 0.0569030
12402.3, 0.0632480
12432.0, 0.0691920
12461.9, 0.0728650
12491.9, 0.0744010
12522.1, 0.0740010
12552.4, 0.0721310
12582.9, 0.0695930
12613.5, 0.0678560
12644.3, 0.0682570
12675.2, 0.0712620
12706.3, 0.0759370
12737.5, 0.0805460
12768.9, 0.0837520
12800.4, 0.0854880
12832.1, 0.0849540
12863.9, 0.0821490
12895.9, 0.0778080
12928.1, 0.0729320
12960.4, 0.0689920
12992.9, 0.0665200
13025.5, 0.0645840
13058.3, 0.0627140
13091.3, 0.0607100
13124.4, 0.0589730
13157.8, 0.0580380
13191.2, 0.0571700
13224.9, 0.0564360
13258.7, 0.0561020
13292.7, 0.0562350
13326.9, 0.0565020
13361.2, 0.0567030
13395.7, 0.0567690
13430.4, 0.0567030
13465.3, 0.0561020
13500.4, 0.0551670
13535.7, 0.0544990
13571.1, 0.0534970
13606.7, 0.0522280
13642.5, 0.0514260
13678.5, 0.0508920
13714.7, 0.0504910
13751.1, 0.0502910
13787.6, 0.0498900
13824.4, 0.0493560
13861.4, 0.0487550
13898.5, 0.0480870
13935.9, 0.0474190
13973.5, 0.0464170
14011.2, 0.0454820
14049.2, 0.0448810
14087.4, 0.0438130
14125.8, 0.0425440
14164.3, 0.0416750
14203.2, 0.0406740
14242.2, 0.0399390
14281.4, 0.0393380
14320.9, 0.0396720
14360.5, 0.0414080
14400.4, 0.0426100
14440.5, 0.0426100
14480.9, 0.0423430
14521.4, 0.0416750
14562.2, 0.0410080
14603.3, 0.0402730
14644.5, 0.0395380
14686.0, 0.0392040
14727.7, 0.0388700
14769.7, 0.0383360
14811.9, 0.0374680
14854.3, 0.0370670
14897.0, 0.0370000
14939.9, 0.0368000
14983.1, 0.0367330
15026.5, 0.0364660
15070.2, 0.0364660
15114.2, 0.0368670
15158.3, 0.0372010
15202.8, 0.0372010
15247.5, 0.0364660
15292.5, 0.0355980
15337.7, 0.0345290
15383.2, 0.0329260
15429.0, 0.0315240
15475.1, 0.0306560
15521.4, 0.0301210
15568.0, 0.0297870
15614.9, 0.0299880
15662.1, 0.0305890
15709.6, 0.0315910
15757.3, 0.0333270
15805.4, 0.0357310
15853.7, 0.0386030
15902.3, 0.0420090
15951.2, 0.0456830
16000.5, 0.0496230
16050.0, 0.0530290
16099.8, 0.0563020
16150.0, 0.0593070
16200.5, 0.0627140
16251.3, 0.0663200
16302.4, 0.0707280
16353.8, 0.0776740
16405.5, 0.0867570
16457.6, 0.0973100
16510.0, 0.108263
16562.8, 0.119216
16615.9, 0.130503
16669.3, 0.141723
16723.1, 0.152276
16777.2, 0.161492
16831.7, 0.168906
16886.5, 0.174249
16941.7, 0.177789
16997.2, 0.180527
17053.1, 0.182330
17109.4, 0.183532
17166.1, 0.185803
17223.1, 0.189276
17280.5, 0.193684
17338.3, 0.199361
17396.5, 0.206173
17455.1, 0.212986
17514.0, 0.218663
17573.4, 0.223672
17633.2, 0.228146
17693.4, 0.231887
17754.0, 0.235560
17815.0, 0.239434
17876.4, 0.243040
17938.3, 0.247114
18000.5, 0.253659
18063.3, 0.261807
18126.4, 0.269688
18190.0, 0.276501
18254.1, 0.279974
18318.6, 0.279773
18383.5, 0.277770
18449.0, 0.274363
18514.9, 0.268887
18581.2, 0.262542
18648.0, 0.255396
18715.4, 0.247648
18783.2, 0.238632
18851.5, 0.229349
18920.3, 0.219932
18989.6, 0.209847
19059.4, 0.200563
19129.7, 0.192482
19200.6, 0.184267
19272.0, 0.177922
19343.9, 0.174650
19416.3, 0.172512
19489.3, 0.171844
19562.8, 0.176520
19637.0, 0.186471
19711.6, 0.202099
19786.8, 0.217928
19862.6, 0.230284
19939.0, 0.240369
20016.0, 0.250186
20093.6, 0.260739
20171.8, 0.271158
20250.6, 0.280708
20330.0, 0.290726
20410.0, 0.298340
20490.7, 0.303817
20572.0, 0.308425
20654.0, 0.311097
20736.6, 0.309561
20819.9, 0.305086
20903.8, 0.295310
20988.5, 0.285782
21073.8, 0.273170
21159.8, 0.260128
21246.5, 0.251282
21334.0, 0.248577
21422.1, 0.245140
21511.0, 0.240691
21600.7, 0.229899
21691.0, 0.219183
21782.1, 0.210235
21874.0, 0.201794
21966.7, 0.195778
22060.2, 0.194338
22154.5, 0.199216
22249.6, 0.209073
22345.5, 0.218829
22442.2, 0.226512
22539.8, 0.233210
22638.2, 0.240717
22737.5, 0.247035
22837.7, 0.249310
22938.7, 0.243396
23040.7, 0.236900
23143.5, 0.231163
23247.3, 0.226765
23352.1, 0.225653
23457.7, 0.227473
23564.4, 0.229116
23672.0, 0.228307
23780.5, 0.226993
23890.1, 0.223960
24000.7, 0.217717
24112.3, 0.208769
24225.0, 0.201617
24338.7, 0.200783
24453.5, 0.200858
24569.4, 0.201490
24686.4, 0.202653
24804.5, 0.204220
24923.8, 0.204549
25044.2, 0.202527
25165.8, 0.196865
25288.6, 0.191760
25412.5, 0.186604
25537.7, 0.179375
25664.1, 0.175660
25791.8, 0.176847
25920.8, 0.177277
26051.1, 0.180007
26182.6, 0.183293
26315.5, 0.189409
26449.8, 0.194995
26585.4, 0.196865
26722.5, 0.197345
26860.9, 0.195601
27000.8, 0.191936
27142.1, 0.188904
27285.0, 0.185845
27429.4, 0.179855
27575.3, 0.173865
27722.7, 0.170706
27871.8, 0.167647
28022.4, 0.165272
28174.7, 0.162567
28328.7, 0.160444
28484.4, 0.161228
28641.7, 0.160596
28800.9, 0.155945
28961.8, 0.153949
29124.5, 0.154707
29289.0, 0.157487
29455.4, 0.165777
29623.8, 0.176089
29794.0, 0.179249
29966.3, 0.182003
30140.5, 0.188727
30316.7, 0.191102
30495.1, 0.189940
30675.5, 0.191001
30858.1, 0.194464
31042.8, 0.194717
31229.8, 0.192745
31419.1, 0.195728
31610.7, 0.199671
31804.6, 0.201339
32000.9, 0.201617
32199.7, 0.200783
32400.9, 0.202678
32604.8, 0.203765
32811.1, 0.201440
33020.1, 0.200125
33231.8, 0.201440
33446.2, 0.201516
33663.4, 0.200176
33883.4, 0.199393
34106.3, 0.199873
34332.1, 0.200176
34561.0, 0.200050
34792.9, 0.199974
35028.0, 0.197244
35266.3, 0.194565
35507.8, 0.190294
35752.7, 0.188449
36001.0, 0.189358
36252.8, 0.188120
36508.1, 0.185618
36767.0, 0.184657
37029.7, 0.184986
37296.1, 0.185239
37566.3, 0.186300
37840.5, 0.187488
38118.8, 0.190774
38401.2, 0.194843
38687.8, 0.197421
38978.6, 0.197446
39273.9, 0.198407
39573.7, 0.202274
39878.1, 0.206293
40187.3, 0.207202
40501.2, 0.213925
40820.0, 0.219461
41144.0, 0.219132
41473.2, 0.219157
41807.6, 0.223808
42147.5, 0.228231
42493.0, 0.229924
42844.2, 0.231315
43201.2, 0.234904
43564.3, 0.239680
43933.5, 0.244154
44309.0, 0.241980
44691.0, 0.241450
45079.6, 0.244483
45475.0, 0.240515
45877.5, 0.241121
46287.1, 0.242082
46704.2, 0.235283
47128.7, 0.232705
47561.1, 0.235763
48001.5, 0.237684
48450.1, 0.239377
48907.2, 0.241778
49373.0, 0.241905
49847.7, 0.241652
50331.5, 0.239605
50825.0, 0.234954
51328.2, 0.236420
51841.5, 0.243143
52365.1, 0.245721
52899.4, 0.252242
53444.8, 0.262529
54001.5, 0.267912
54570.1, 0.269454
55150.6, 0.270440
55743.6, 0.270516
56349.5, 0.269960
56968.7, 0.272715
57601.7, 0.275621
58248.9, 0.271931
58910.9, 0.262984
59588.1, 0.262327
60281.0, 0.262630
60990.2, 0.266775
61716.3, 0.269757
62459.8, 0.273245
63221.6, 0.272159
64002.1, 0.271375
64802.1, 0.274231
65622.1, 0.275192
66463.4, 0.265688
67326.6, 0.268721
68212.4, 0.246328
69121.9, 0.247415
70056.0, 0.252116
71015.7, 0.257752
72002.0, 0.264172
73016.3, 0.261392
74059.4, 0.256994
75132.7, 0.262933
76237.6, 0.267584
77375.5, 0.267331
78547.9, 0.266168
79756.3, 0.263464
81002.5, 0.256387
82288.5, 0.258030
83615.7, 0.254618
84986.5, 0.248729
86402.9, 0.238669
87867.4, 0.262984
89382.4, 0.269732
90950.5, 0.268064
92574.6, 0.279463
94257.2, 0.264627
96002.7, 0.291014
97814.1, 0.316187
99695.1, 0.340603
101650.0, 0.346846
103683.0, 0.344748
105799.0, 0.346618
108003.0, 0.354782
110301.0, 0.367520
112699.0, 0.391683
115204.0, 0.395019
117822.0, 0.388018
120562.0, 0.396662
123433.0, 0.427573
126443.0, 0.431288
129604.0, 0.409148
132926.0, 0.398254
136424.0, 0.446024
140111.0, 0.493161
144003.0, 0.478856
148118.0, 0.474812
152474.0, 0.519042
157095.0, 0.542573
162004.0, 0.566306
167231.0, 0.584175
172805.0, 0.574293
178764.0, 0.571664
185148.0, 0.610866
192005.0, 0.671601
199390.0, 0.737088
207366.0, 0.781495
216006.0, 0.909133
