Database of Origin, USGS Spectral Database
Sample Description, See USGS database for additional info
Date Added,2016-08-03 20:58:06.586559

Data ID,USGS_ana02          
Sample ID, analcime_gds1.1942
Mineral Name, analcime
Material Class,Tectosilicate

Wavelength
1389.48, 0.684880
1389.85, 0.684120
1390.23, 0.682218
1390.6, 0.680772
1390.97, 0.680468
1391.35, 0.680163
1391.72, 0.678261
1392.09, 0.677044
1392.47, 0.675751
1392.84, 0.675066
1393.21, 0.673773
1393.59, 0.672936
1393.96, 0.671566
1394.34, 0.670273
1394.71, 0.668903
1395.09, 0.667990
1395.46, 0.665936
1395.84, 0.665099
1396.22, 0.663958
1396.59, 0.662589
1396.97, 0.660687
1397.35, 0.659469
1397.72, 0.657263
1398.1, 0.655665
1398.48, 0.654068
1398.85, 0.652546
1399.23, 0.650264
1399.61, 0.649122
1399.99, 0.647220
1400.37, 0.645775
1400.74, 0.643721
1401.12, 0.641286
1401.5, 0.638547
1401.88, 0.636569
1402.26, 0.634287
1402.64, 0.632308
1403.02, 0.629494
1403.4, 0.626755
1403.78, 0.623483
1404.16, 0.621353
1404.54, 0.618614
1404.92, 0.616027
1405.3, 0.612832
1405.68, 0.609789
1406.06, 0.606213
1406.44, 0.603246
1406.83, 0.600354
1407.21, 0.597083
1407.59, 0.593355
1407.97, 0.589855
1408.35, 0.585975
1408.74, 0.582780
1409.12, 0.578291
1409.5, 0.573954
1409.89, 0.570226
1410.27, 0.566499
1410.65, 0.562010
1411.04, 0.557217
1411.42, 0.553032
1411.81, 0.548772
1412.19, 0.543522
1412.58, 0.539033
1412.96, 0.534164
1413.35, 0.529219
1413.73, 0.523817
1414.12, 0.519024
1414.5, 0.513546
1414.89, 0.508677
1415.28, 0.503351
1415.66, 0.498482
1416.05, 0.493537
1416.44, 0.488516
1416.82, 0.483570
1417.21, 0.479005
1417.6, 0.474060
1417.98, 0.469419
1418.37, 0.465387
1418.76, 0.461507
1419.15, 0.457551
1419.54, 0.454355
1419.93, 0.451388
1420.32, 0.448573
1420.71, 0.444997
1421.09, 0.442487
1421.48, 0.440052
1421.88, 0.437998
1422.27, 0.436476
1422.66, 0.435791
1423.05, 0.434802
1423.44, 0.434042
1423.83, 0.433281
1424.22, 0.433281
1424.61, 0.433585
1425.0, 0.434422
1425.39, 0.435487
1425.78, 0.436857
1426.18, 0.437846
1426.57, 0.439519
1426.96, 0.440965
1427.36, 0.442943
1427.75, 0.445378
1428.14, 0.448041
1428.54, 0.450551
1428.93, 0.453975
1429.32, 0.456790
1429.72, 0.459605
1430.11, 0.462268
1430.51, 0.465159
1430.9, 0.468126
1431.3, 0.471626
1431.69, 0.474517
1432.09, 0.478169
1432.48, 0.481897
1432.88, 0.485548
1433.28, 0.488516
1433.67, 0.491559
1434.07, 0.494754
1434.46, 0.498178
1434.86, 0.500993
1435.26, 0.504569
1435.66, 0.508144
1436.05, 0.511568
1436.45, 0.514763
1436.85, 0.518035
1437.25, 0.521154
1437.65, 0.524654
1438.05, 0.527621
1438.44, 0.530740
1438.84, 0.533708
1439.24, 0.536751
1439.64, 0.538957
1440.04, 0.542000
1440.44, 0.544968
1440.84, 0.547250
1441.24, 0.549837
1441.65, 0.552576
1442.05, 0.555010
1442.45, 0.557369
1442.85, 0.559499
1443.25, 0.561553
1443.65, 0.563455
1444.05, 0.565814
1444.46, 0.568172
1444.86, 0.570683
1445.26, 0.572052
1445.67, 0.574107
1446.07, 0.575933
1446.47, 0.578063
1446.88, 0.579737
1447.28, 0.580954
1447.68, 0.582628
1448.09, 0.584606
1448.49, 0.585747
1448.9, 0.586812
1449.3, 0.588029
1449.71, 0.590160
1450.11, 0.591453
1450.52, 0.592214
1450.93, 0.593051
1451.33, 0.594192
1451.74, 0.595029
1452.14, 0.595790
1452.55, 0.596398
1452.96, 0.597768
1453.36, 0.598376
1453.77, 0.598909
1454.18, 0.599822
1454.59, 0.600126
1455.0, 0.600126
1455.41, 0.600659
1455.81, 0.600659
1456.22, 0.600963
1456.63, 0.600963
1457.04, 0.601800
1457.45, 0.601876
1457.86, 0.601876
1458.27, 0.601724
1458.68, 0.601572
1459.09, 0.600811
1459.5, 0.600202
1459.91, 0.599289
1460.32, 0.598529
1460.74, 0.597159
1461.15, 0.595638
1461.56, 0.594268
1461.97, 0.592670
1462.39, 0.590921
1462.8, 0.589095
1463.21, 0.586736
1463.62, 0.584149
1464.04, 0.581106
1464.45, 0.578519
1464.86, 0.575400
1465.28, 0.572128
1465.69, 0.568705
1466.11, 0.566422
1466.52, 0.563760
1466.94, 0.561934
1467.35, 0.560945
1467.77, 0.560869
1468.18, 0.561021
1468.6, 0.562010
1469.02, 0.563303
1469.43, 0.565814
1469.85, 0.568324
1470.27, 0.571063
1470.68, 0.574563
1471.1, 0.577911
1471.52, 0.580726
1471.94, 0.583921
1472.35, 0.586964
1472.77, 0.590388
1473.19, 0.593279
1473.61, 0.596018
1474.03, 0.598833
1474.45, 0.600963
1474.87, 0.602941
1475.29, 0.605376
1475.71, 0.607658
1476.13, 0.609789
1476.55, 0.611386
1476.97, 0.613516
1477.39, 0.614734
1477.81, 0.616408
1478.23, 0.617701
1478.65, 0.619375
1479.07, 0.620364
1479.5, 0.621657
1479.92, 0.622494
1480.34, 0.623331
1480.76, 0.624396
1481.19, 0.625918
1481.61, 0.626602
1482.03, 0.627896
1482.46, 0.629417
1482.88, 0.630939
1483.31, 0.631624
1483.73, 0.632917
1484.16, 0.634058
1484.58, 0.634819
1485.01, 0.635580
1485.43, 0.636569
1485.86, 0.637710
1486.28, 0.639080
1486.71, 0.639688
1487.14, 0.640525
1487.56, 0.641590
1487.99, 0.642732
1488.42, 0.643949
1488.84, 0.644938
1489.27, 0.645470
1489.7, 0.646079
1490.13, 0.646460
1490.56, 0.647372
1490.98, 0.648209
1491.41, 0.649122
1491.84, 0.649883
1492.27, 0.650720
1492.7, 0.650720
1493.13, 0.651481
1493.56, 0.652089
1493.99, 0.652470
1494.42, 0.653155
1494.85, 0.654296
1495.29, 0.654981
1495.72, 0.655589
1496.15, 0.655437
1496.58, 0.656274
1497.01, 0.656959
1497.44, 0.657339
1497.88, 0.657643
1498.31, 0.658100
1498.74, 0.658709
1499.18, 0.659926
1499.61, 0.660458
1500.04, 0.660458
1500.48, 0.660763
1500.91, 0.661143
1501.35, 0.661600
1501.78, 0.662360
1502.22, 0.662969
1502.65, 0.663426
1503.09, 0.663578
1503.53, 0.664110
1503.96, 0.664339
1504.4, 0.664643
1504.83, 0.664871
1505.27, 0.665099
1505.71, 0.665328
1506.15, 0.666088
1506.58, 0.666545
1507.02, 0.667154
1507.46, 0.667154
1507.9, 0.667914
1508.34, 0.667990
1508.78, 0.668143
1509.21, 0.668675
1509.66, 0.669208
1510.09, 0.669132
1510.53, 0.669588
1510.97, 0.669740
1511.42, 0.669969
1511.86, 0.670729
1512.3, 0.671110
1512.74, 0.671566
1513.18, 0.672099
1513.62, 0.672023
1514.06, 0.672023
1514.51, 0.672555
1514.95, 0.673240
1515.39, 0.673088
1515.83, 0.673392
1516.28, 0.673849
1516.72, 0.674381
1517.16, 0.674381
1517.61, 0.674533
1518.05, 0.674609
1518.5, 0.675142
1518.94, 0.675294
1519.39, 0.675903
1519.83, 0.675903
1520.28, 0.676055
1520.73, 0.676588
1521.17, 0.677120
1521.62, 0.676968
1522.07, 0.677120
1522.51, 0.677272
1522.96, 0.678033
1523.41, 0.678566
1523.85, 0.679174
1524.3, 0.679022
1524.75, 0.679250
1525.2, 0.679098
1525.65, 0.679935
1526.1, 0.680011
1526.55, 0.680239
1527.0, 0.680163
1527.45, 0.680163
1527.9, 0.680392
1528.35, 0.681000
1528.8, 0.680924
1529.25, 0.681152
1529.7, 0.681609
1530.15, 0.682141
1530.6, 0.681989
1531.05, 0.681685
1531.51, 0.681913
1531.96, 0.682674
1532.41, 0.682826
1532.87, 0.682978
1533.32, 0.683131
1533.77, 0.683891
1534.23, 0.684196
1534.68, 0.684424
1535.14, 0.684348
1535.59, 0.684576
1536.05, 0.685185
1536.5, 0.685489
1536.96, 0.685717
1537.41, 0.686326
1537.87, 0.686706
1538.32, 0.687011
1538.78, 0.686554
1539.24, 0.686782
1539.7, 0.687087
1540.15, 0.687543
1540.61, 0.687391
1541.07, 0.687771
1541.53, 0.688304
1541.98, 0.688761
1542.44, 0.688684
1542.9, 0.689293
1543.36, 0.689597
1543.82, 0.689674
1544.28, 0.689445
1544.74, 0.689902
1545.2, 0.690130
1545.66, 0.690130
1546.12, 0.690282
1546.59, 0.690967
1547.05, 0.691728
1547.51, 0.691880
1547.97, 0.691195
1548.43, 0.691271
1548.9, 0.691576
1549.36, 0.692412
1549.82, 0.692717
1550.29, 0.692869
1550.75, 0.692564
1551.21, 0.693021
1551.68, 0.693706
1552.14, 0.694086
1552.61, 0.694162
1553.07, 0.694771
1553.54, 0.694619
1554.0, 0.694847
1554.47, 0.694999
1554.93, 0.695227
1555.4, 0.695456
1555.87, 0.695532
1556.34, 0.695532
1556.8, 0.696216
1557.27, 0.696293
1557.74, 0.696901
1558.21, 0.696825
1558.68, 0.696977
1559.14, 0.697129
1559.61, 0.697510
1560.08, 0.697890
1560.55, 0.698271
1561.02, 0.698271
1561.49, 0.698271
1561.96, 0.698347
1562.43, 0.699031
1562.9, 0.699336
1563.38, 0.699564
1563.85, 0.699716
1564.32, 0.699792
1564.79, 0.700020
1565.26, 0.700020
1565.74, 0.700173
1566.21, 0.701086
1566.68, 0.701314
1567.16, 0.701010
1567.63, 0.700781
1568.1, 0.701086
1568.58, 0.701238
1569.05, 0.701999
1569.53, 0.702227
1570.0, 0.702455
1570.48, 0.702607
1570.96, 0.702607
1571.43, 0.702759
1571.91, 0.702988
1572.39, 0.703216
1572.86, 0.703368
1573.34, 0.703520
1573.82, 0.704129
1574.3, 0.704585
1574.77, 0.704661
1575.25, 0.704357
1575.73, 0.704509
1576.21, 0.704814
1576.69, 0.705346
1577.17, 0.705194
1577.65, 0.705194
1578.13, 0.705346
1578.61, 0.706107
1579.09, 0.706107
1579.57, 0.706259
1580.05, 0.706183
1580.54, 0.706411
1581.02, 0.706487
1581.5, 0.706944
1581.98, 0.706944
1582.47, 0.706944
1582.95, 0.706868
1583.43, 0.707552
1583.92, 0.707705
1584.4, 0.707933
1584.88, 0.708161
1585.37, 0.708542
1585.85, 0.708313
1586.34, 0.708466
1586.82, 0.708618
1587.31, 0.708922
1587.8, 0.708998
1588.28, 0.709150
1588.77, 0.708922
1589.26, 0.708998
1589.74, 0.709302
1590.23, 0.709835
1590.72, 0.710291
1591.21, 0.710520
1591.7, 0.710368
1592.19, 0.710596
1592.67, 0.710976
1593.16, 0.711509
1593.65, 0.711433
1594.14, 0.711433
1594.63, 0.711661
1595.12, 0.712117
1595.61, 0.711965
1596.11, 0.712269
1596.6, 0.712346
1597.09, 0.712878
1597.58, 0.713183
1598.08, 0.713259
1598.57, 0.713259
1599.06, 0.713411
1599.55, 0.713411
1600.05, 0.713487
1600.54, 0.713563
1601.04, 0.714400
1601.53, 0.714476
1602.03, 0.714172
1602.52, 0.714552
1603.02, 0.715161
1603.51, 0.715389
1604.01, 0.715693
1604.5, 0.716074
1605.0, 0.716302
1605.5, 0.716226
1606.0, 0.716606
1606.49, 0.716682
1606.99, 0.717215
1607.49, 0.717519
1607.99, 0.717291
1608.49, 0.717215
1608.99, 0.717519
1609.49, 0.717900
1609.99, 0.718584
1610.49, 0.718432
1610.99, 0.718052
1611.49, 0.718280
1611.99, 0.718965
1612.49, 0.719421
1612.99, 0.719269
1613.49, 0.719269
1614.0, 0.719725
1614.5, 0.719878
1615.0, 0.720258
1615.51, 0.720486
1616.01, 0.720791
1616.51, 0.720791
1617.02, 0.721247
1617.52, 0.721247
1618.03, 0.721475
1618.53, 0.721704
1619.04, 0.722084
1619.54, 0.722008
1620.05, 0.722388
1620.55, 0.722616
1621.06, 0.722997
1621.57, 0.723453
1622.08, 0.723377
1622.58, 0.723453
1623.09, 0.723606
1623.6, 0.723834
1624.11, 0.724366
1624.62, 0.724595
1625.13, 0.724290
1625.64, 0.723834
1626.15, 0.723910
1626.66, 0.724290
1627.17, 0.725051
1627.68, 0.725355
1628.19, 0.725355
1628.7, 0.725432
1629.21, 0.725660
1629.72, 0.725888
1630.24, 0.726268
1630.75, 0.726268
1631.26, 0.726421
1631.78, 0.726344
1632.29, 0.726344
1632.8, 0.726877
1633.32, 0.727105
1633.83, 0.726953
1634.35, 0.727333
1634.86, 0.727638
1635.38, 0.727486
1635.9, 0.727105
1636.41, 0.727638
1636.93, 0.727562
1637.45, 0.727638
1637.96, 0.727866
1638.48, 0.728094
1639.0, 0.728627
1639.52, 0.729007
1640.04, 0.729083
1640.56, 0.729007
1641.08, 0.728931
1641.59, 0.728931
1642.11, 0.729312
1642.63, 0.729388
1643.16, 0.729540
1643.68, 0.729768
1644.2, 0.729768
1644.72, 0.729768
1645.24, 0.729768
1645.76, 0.729692
1646.29, 0.729692
1646.81, 0.730377
1647.33, 0.730225
1647.86, 0.730453
1648.38, 0.730833
1648.9, 0.730909
1649.43, 0.730377
1649.95, 0.730757
1650.48, 0.730681
1651.0, 0.730757
1651.53, 0.730909
1652.06, 0.731290
1652.58, 0.731518
1653.11, 0.731670
1653.64, 0.731442
1654.17, 0.731518
1654.69, 0.731670
1655.22, 0.731898
1655.75, 0.731974
1656.28, 0.732203
1656.81, 0.731822
1657.34, 0.731898
1657.87, 0.732507
1658.4, 0.732659
1658.93, 0.732659
1659.46, 0.732811
1659.99, 0.732507
1660.52, 0.732964
1661.05, 0.733040
1661.59, 0.733116
1662.12, 0.733040
1662.65, 0.733344
1663.19, 0.733572
1663.72, 0.733953
1664.26, 0.733953
1664.79, 0.733953
1665.32, 0.733953
1665.86, 0.733877
1666.39, 0.734257
1666.93, 0.734333
1667.47, 0.734181
1668.0, 0.734561
1668.54, 0.734789
1669.08, 0.735094
1669.61, 0.734942
1670.15, 0.735018
1670.69, 0.735170
1671.23, 0.735474
1671.77, 0.735550
1672.31, 0.736007
1672.85, 0.735931
1673.39, 0.736311
1673.93, 0.736311
1674.47, 0.736539
1675.01, 0.736539
1675.55, 0.736691
1676.09, 0.736691
1676.64, 0.737072
1677.18, 0.737072
1677.72, 0.736996
1678.26, 0.737148
1678.81, 0.737376
1679.35, 0.737224
1679.89, 0.737452
1680.44, 0.737376
1680.98, 0.737300
1681.53, 0.737681
1682.07, 0.738213
1682.62, 0.738441
1683.17, 0.738441
1683.71, 0.738517
1684.26, 0.738670
1684.81, 0.738746
1685.36, 0.739202
1685.9, 0.739202
1686.45, 0.739278
1687.0, 0.738974
1687.55, 0.739202
1688.1, 0.739506
1688.65, 0.739659
1689.2, 0.739583
1689.75, 0.739506
1690.3, 0.739506
1690.85, 0.739811
1691.41, 0.739583
1691.96, 0.739735
1692.51, 0.739887
1693.06, 0.740267
1693.61, 0.740496
1694.17, 0.740496
1694.72, 0.740572
1695.28, 0.740800
1695.83, 0.740876
1696.39, 0.740952
1696.94, 0.740724
1697.5, 0.740572
1698.05, 0.740420
1698.61, 0.740343
1699.17, 0.740267
1699.72, 0.740572
1700.28, 0.740496
1700.84, 0.740648
1701.4, 0.740800
1701.95, 0.741028
1702.51, 0.740800
1703.07, 0.740876
1703.63, 0.740952
1704.19, 0.740952
1704.75, 0.740800
1705.31, 0.740800
1705.88, 0.740496
1706.44, 0.740572
1707.0, 0.740724
1707.56, 0.740876
1708.12, 0.740724
1708.69, 0.740343
1709.25, 0.739963
1709.81, 0.739887
1710.38, 0.740039
1710.94, 0.740115
1711.51, 0.740191
1712.07, 0.740191
1712.64, 0.739887
1713.2, 0.739963
1713.77, 0.739811
1714.34, 0.739887
1714.9, 0.739811
1715.47, 0.739659
1716.04, 0.739430
1716.61, 0.739354
1717.18, 0.739202
1717.74, 0.739126
1718.31, 0.738974
1718.88, 0.738898
1719.45, 0.738822
1720.02, 0.738594
1720.59, 0.738289
1721.17, 0.738061
1721.74, 0.737681
1722.31, 0.737452
1722.88, 0.737148
1723.45, 0.736996
1724.03, 0.736539
1724.6, 0.736615
1725.18, 0.736768
1725.75, 0.736920
1726.33, 0.736768
1726.9, 0.736311
1727.48, 0.735931
1728.05, 0.735855
1728.63, 0.735322
1729.2, 0.735094
1729.78, 0.734866
1730.36, 0.734866
1730.94, 0.734333
1731.51, 0.733800
1732.09, 0.733420
1732.67, 0.733420
1733.25, 0.732964
1733.83, 0.732583
1734.41, 0.732203
1734.99, 0.731974
1735.57, 0.731670
1736.15, 0.731518
1736.73, 0.731366
1737.32, 0.731214
1737.9, 0.730605
1738.48, 0.730225
1739.07, 0.729388
1739.65, 0.729007
1740.23, 0.728779
1740.82, 0.728323
1741.4, 0.727714
1741.99, 0.727105
1742.57, 0.726116
1743.16, 0.725736
1743.74, 0.725279
1744.33, 0.724975
1744.92, 0.724366
1745.51, 0.723530
1746.09, 0.722845
1746.68, 0.722312
1747.27, 0.721704
1747.86, 0.721247
1748.45, 0.720715
1749.04, 0.719878
1749.63, 0.718736
1750.22, 0.718128
1750.81, 0.717367
1751.4, 0.716530
1751.99, 0.715465
1752.59, 0.715008
1753.18, 0.714324
1753.77, 0.713639
1754.37, 0.712574
1754.96, 0.711661
1755.56, 0.710672
1756.15, 0.709683
1756.74, 0.708542
1757.34, 0.707705
1757.94, 0.706792
1758.53, 0.706183
1759.13, 0.705270
1759.73, 0.703977
1760.32, 0.702683
1760.92, 0.701618
1761.52, 0.700553
1762.12, 0.699564
1762.72, 0.698727
1763.32, 0.697814
1763.92, 0.696597
1764.52, 0.695532
1765.12, 0.694695
1765.72, 0.693858
1766.32, 0.692564
1766.92, 0.691576
1767.53, 0.690586
1768.13, 0.689750
1768.73, 0.688989
1769.34, 0.688076
1769.94, 0.686935
1770.55, 0.686250
1771.15, 0.685565
1771.76, 0.684804
1772.36, 0.683967
1772.97, 0.683054
1773.57, 0.682065
1774.18, 0.681457
1774.79, 0.680620
1775.4, 0.679707
1776.0, 0.679250
1776.61, 0.678946
1777.22, 0.678337
1777.83, 0.678033
1778.44, 0.677501
1779.05, 0.677120
1779.66, 0.676588
1780.27, 0.676283
1780.88, 0.676207
1781.5, 0.676055
1782.11, 0.675446
1782.72, 0.675446
1783.33, 0.675142
1783.95, 0.674914
1784.56, 0.675142
1785.18, 0.674914
1785.79, 0.674457
1786.41, 0.674381
1787.02, 0.674229
1787.64, 0.674153
1788.26, 0.674229
1788.87, 0.674077
1789.49, 0.673392
1790.11, 0.673012
1790.73, 0.673164
1791.35, 0.673164
1791.96, 0.672555
1792.58, 0.672327
1793.21, 0.672175
1793.83, 0.672479
1794.45, 0.672327
1795.07, 0.671794
1795.69, 0.671262
1796.31, 0.670805
1796.93, 0.670501
1797.56, 0.670577
1798.18, 0.670273
1798.8, 0.670425
1799.43, 0.670349
1800.05, 0.670121
1800.68, 0.670045
1801.3, 0.669969
1801.93, 0.669969
1802.56, 0.670121
1803.18, 0.670349
1803.81, 0.670805
1804.44, 0.671262
1805.07, 0.671794
1805.7, 0.672023
1806.33, 0.672479
1806.95, 0.673164
1807.58, 0.673925
1808.22, 0.674609
1808.85, 0.675903
1809.48, 0.676968
1810.11, 0.677577
1810.74, 0.678414
1811.38, 0.679783
1812.01, 0.680848
1812.64, 0.681837
1813.28, 0.682978
1813.91, 0.684272
1814.55, 0.685337
1815.18, 0.686554
1815.82, 0.687924
1816.45, 0.689065
1817.09, 0.689750
1817.73, 0.690891
1818.36, 0.692184
1819.0, 0.693478
1819.64, 0.694771
1820.28, 0.696216
1820.92, 0.696901
1821.56, 0.697434
1822.2, 0.697966
1822.84, 0.698879
1823.48, 0.699944
1824.12, 0.700705
1824.76, 0.701466
1825.41, 0.702379
1826.05, 0.703140
1826.69, 0.703596
1827.34, 0.703977
1827.98, 0.704890
1828.63, 0.705727
1829.27, 0.706183
1829.92, 0.706259
1830.56, 0.707020
1831.21, 0.707705
1831.86, 0.708085
1832.5, 0.707933
1833.15, 0.708313
1833.8, 0.708694
1834.45, 0.709074
1835.1, 0.709226
1835.75, 0.709683
1836.4, 0.709607
1837.05, 0.710063
1837.7, 0.710291
1838.35, 0.710139
1839.01, 0.710215
1839.66, 0.710368
1840.31, 0.709911
1840.96, 0.710139
1841.62, 0.710139
1842.27, 0.710139
1842.93, 0.709683
1843.58, 0.709607
1844.24, 0.709455
1844.9, 0.709302
1845.55, 0.709150
1846.21, 0.709531
1846.87, 0.709531
1847.53, 0.709302
1848.18, 0.708694
1848.84, 0.708085
1849.5, 0.707781
1850.16, 0.707476
1850.82, 0.706944
1851.48, 0.706640
1852.14, 0.706107
1852.81, 0.705879
1853.47, 0.705727
1854.13, 0.704966
1854.8, 0.703520
1855.46, 0.702759
1856.12, 0.702379
1856.79, 0.701846
1857.45, 0.700325
1858.12, 0.699488
1858.79, 0.699108
1859.45, 0.698423
1860.12, 0.696977
1860.79, 0.695836
1861.46, 0.694771
1862.12, 0.693630
1862.79, 0.692108
1863.46, 0.690967
1864.13, 0.689674
1864.8, 0.688304
1865.48, 0.686326
1866.15, 0.684424
1866.82, 0.682826
1867.49, 0.681761
1868.16, 0.680011
1868.84, 0.677805
1869.51, 0.675675
1870.19, 0.673849
1870.86, 0.671871
1871.54, 0.669360
1872.21, 0.667077
1872.89, 0.664795
1873.56, 0.661676
1874.24, 0.658404
1874.92, 0.655133
1875.6, 0.652089
1876.28, 0.648894
1876.96, 0.645394
1877.64, 0.641438
1878.32, 0.637254
1879.0, 0.632765
1879.68, 0.628504
1880.36, 0.623559
1881.04, 0.618690
1881.73, 0.613593
1882.41, 0.608191
1883.09, 0.602941
1883.78, 0.597463
1884.46, 0.591377
1885.15, 0.585519
1885.83, 0.579508
1886.52, 0.573650
1887.21, 0.567640
1887.89, 0.561401
1888.58, 0.554934
1889.27, 0.548848
1889.96, 0.542305
1890.65, 0.535610
1891.34, 0.528762
1892.03, 0.521991
1892.72, 0.514839
1893.41, 0.507231
1894.1, 0.499623
1894.79, 0.491863
1895.49, 0.483570
1896.18, 0.475125
1896.87, 0.466756
1897.57, 0.458235
1898.26, 0.449106
1898.96, 0.439443
1899.65, 0.429249
1900.35, 0.418217
1901.05, 0.406044
1901.74, 0.392958
1902.44, 0.379263
1903.14, 0.364808
1903.84, 0.349059
1904.54, 0.333082
1905.24, 0.316953
1905.94, 0.301965
1906.64, 0.288499
1907.34, 0.277239
1908.04, 0.268033
1908.75, 0.261262
1909.45, 0.256545
1910.15, 0.253578
1910.86, 0.252360
1911.56, 0.252665
1912.27, 0.254871
1912.97, 0.258827
1913.68, 0.263696
1914.39, 0.269403
1915.09, 0.276174
1915.8, 0.283554
1916.51, 0.291694
1917.22, 0.300444
1917.93, 0.308965
1918.64, 0.317790
1919.35, 0.326768
1920.06, 0.336049
1920.77, 0.345179
1921.48, 0.353852
1922.19, 0.362449
1922.91, 0.371275
1923.62, 0.380024
1924.33, 0.388317
1925.05, 0.396382
1925.76, 0.404370
1926.48, 0.412130
1927.19, 0.419738
1927.91, 0.427118
1928.63, 0.434118
1929.35, 0.441041
1930.07, 0.448041
1930.78, 0.454431
1931.5, 0.460518
1932.22, 0.466300
1932.94, 0.471702
1933.66, 0.476647
1934.39, 0.481440
1935.11, 0.486081
1935.83, 0.490646
1936.55, 0.495059
1937.28, 0.499776
1938.0, 0.504112
1938.73, 0.508601
1939.45, 0.512785
1940.18, 0.516970
1940.9, 0.521002
1941.63, 0.525187
1942.36, 0.529067
1943.09, 0.532719
1943.81, 0.536523
1944.54, 0.540251
1945.27, 0.543750
1946.0, 0.547478
1946.73, 0.551206
1947.47, 0.554858
1948.2, 0.558206
1948.93, 0.561249
1949.66, 0.564596
1950.4, 0.568172
1951.13, 0.571520
1951.86, 0.574563
1952.6, 0.577530
1953.34, 0.580345
1954.07, 0.583388
1954.81, 0.586584
1955.55, 0.589551
1956.29, 0.592366
1957.02, 0.595257
1957.76, 0.598072
1958.5, 0.600887
1959.24, 0.603626
1959.98, 0.606137
1960.72, 0.608799
1961.47, 0.611538
1962.21, 0.614049
1962.95, 0.616636
1963.7, 0.619375
1964.44, 0.621961
1965.18, 0.624548
1965.93, 0.626907
1966.67, 0.629494
1967.42, 0.631700
1968.17, 0.634058
1968.92, 0.636493
1969.66, 0.638699
1970.41, 0.640753
1971.16, 0.642884
1971.91, 0.644710
1972.66, 0.646992
1973.41, 0.649046
1974.16, 0.651177
1974.92, 0.653079
1975.67, 0.655133
1976.42, 0.656883
1977.18, 0.658709
1977.93, 0.660306
1978.69, 0.662132
1979.44, 0.664186
1980.2, 0.665632
1980.95, 0.666925
1981.71, 0.668751
1982.47, 0.670501
1983.23, 0.672099
1983.99, 0.673316
1984.74, 0.674686
1985.51, 0.676207
1986.27, 0.677577
1987.03, 0.678642
1987.79, 0.680011
1988.55, 0.681305
1989.32, 0.682598
1990.08, 0.683587
1990.84, 0.684804
1991.61, 0.685946
1992.37, 0.687011
1993.14, 0.687847
1993.9, 0.688913
1994.67, 0.689902
1995.44, 0.690663
1996.21, 0.691499
1996.98, 0.692412
1997.75, 0.693097
1998.52, 0.693934
1999.29, 0.694771
2000.06, 0.695608
2000.83, 0.696064
2001.6, 0.697129
2002.38, 0.697890
2003.15, 0.698347
2003.93, 0.698499
2004.7, 0.698955
2005.48, 0.699716
2006.25, 0.700477
2007.03, 0.700705
2007.81, 0.701466
2008.58, 0.701846
2009.36, 0.702075
2010.14, 0.702379
2010.92, 0.702531
2011.7, 0.702835
2012.48, 0.703216
2013.26, 0.703368
2014.05, 0.703520
2014.83, 0.703901
2015.61, 0.704281
2016.4, 0.704585
2017.18, 0.704814
2017.97, 0.704814
2018.75, 0.704814
2019.54, 0.704814
2020.32, 0.705118
2021.11, 0.705194
2021.9, 0.705346
2022.69, 0.705574
2023.48, 0.705574
2024.27, 0.705422
2025.06, 0.705879
2025.85, 0.706183
2026.64, 0.706259
2027.44, 0.706183
2028.23, 0.706107
2029.02, 0.706183
2029.82, 0.706335
2030.61, 0.706411
2031.41, 0.706716
2032.2, 0.706944
2033.0, 0.707324
2033.8, 0.707248
2034.6, 0.707476
2035.4, 0.707400
2036.2, 0.707400
2037.0, 0.707552
2037.8, 0.707705
2038.6, 0.707933
2039.4, 0.708237
2040.2, 0.708313
2041.01, 0.708389
2041.81, 0.708770
2042.61, 0.709150
2043.42, 0.708922
2044.22, 0.709074
2045.03, 0.709302
2045.84, 0.709759
2046.65, 0.709759
2047.46, 0.709683
2048.26, 0.709759
2049.07, 0.710063
2049.88, 0.710063
2050.69, 0.709987
2051.51, 0.709987
2052.32, 0.710139
2053.13, 0.710291
2053.94, 0.710215
2054.76, 0.710139
2055.57, 0.710291
2056.39, 0.710291
2057.2, 0.710291
2058.02, 0.710215
2058.84, 0.710063
2059.66, 0.710215
2060.48, 0.710368
2061.29, 0.710291
2062.11, 0.710520
2062.94, 0.710596
2063.76, 0.710139
2064.58, 0.709987
2065.4, 0.710139
2066.22, 0.710139
2067.05, 0.710444
2067.87, 0.710520
2068.7, 0.710291
2069.52, 0.710215
2070.35, 0.710444
2071.18, 0.710520
2072.0, 0.711631
2072.83, 0.711234
2073.66, 0.710202
2074.49, 0.710043
2075.32, 0.709726
2076.15, 0.709567
2076.98, 0.709726
2077.82, 0.709487
2078.65, 0.709884
2079.48, 0.710123
2080.32, 0.710361
2081.15, 0.710361
2081.99, 0.710361
2082.83, 0.710599
2083.66, 0.710123
2084.5, 0.709170
2085.34, 0.708614
2086.18, 0.708058
2087.02, 0.707582
2087.86, 0.707264
2088.7, 0.706549
2089.54, 0.707105
2090.39, 0.707026
2091.23, 0.706549
2092.07, 0.706470
2092.92, 0.706073
2093.76, 0.705755
2094.61, 0.705041
2095.45, 0.704485
2096.3, 0.704008
2097.15, 0.703929
2098.0, 0.703850
2098.85, 0.703135
2099.7, 0.702023
2100.55, 0.701785
2101.4, 0.700912
2102.25, 0.700276
2103.1, 0.700118
2103.96, 0.699959
2104.81, 0.699721
2105.67, 0.698847
2106.52, 0.698212
2107.38, 0.698371
2108.24, 0.697338
2109.09, 0.697100
2109.95, 0.696862
2110.81, 0.695671
2111.67, 0.694400
2112.53, 0.693765
2113.39, 0.692892
2114.25, 0.692336
2115.12, 0.692495
2115.98, 0.692018
2116.84, 0.691145
2117.71, 0.690430
2118.58, 0.689954
2119.44, 0.688842
2120.31, 0.687730
2121.18, 0.687730
2122.04, 0.687333
2122.91, 0.686698
2123.78, 0.686142
2124.65, 0.685666
2125.52, 0.684951
2126.4, 0.684078
2127.27, 0.683284
2128.14, 0.683681
2129.02, 0.683839
2129.89, 0.683204
2130.77, 0.682966
2131.64, 0.682807
2132.52, 0.681934
2133.4, 0.681616
2134.27, 0.681696
2135.15, 0.682172
2136.03, 0.682251
2136.91, 0.682331
2137.79, 0.682648
2138.68, 0.682887
2139.56, 0.682251
2140.44, 0.681854
2141.33, 0.682172
2142.21, 0.682172
2143.1, 0.682569
2143.99, 0.682887
2144.87, 0.682648
2145.76, 0.683442
2146.65, 0.684554
2147.54, 0.684713
2148.43, 0.684078
2149.32, 0.684157
2150.21, 0.684633
2151.1, 0.684713
2151.99, 0.685269
2152.89, 0.685666
2153.78, 0.686301
2154.68, 0.686698
2155.57, 0.687333
2156.47, 0.688127
2157.37, 0.688524
2158.27, 0.689239
2159.16, 0.689874
2160.06, 0.689795
2160.96, 0.690112
2161.86, 0.691224
2162.77, 0.691065
2163.67, 0.691145
2164.57, 0.691859
2165.48, 0.692098
2166.38, 0.692018
2167.29, 0.693050
2168.2, 0.694003
2169.1, 0.694321
2170.01, 0.693845
2170.92, 0.694321
2171.83, 0.694797
2172.74, 0.694877
2173.65, 0.694718
2174.56, 0.694956
2175.47, 0.695115
2176.39, 0.696147
2177.3, 0.695988
2178.22, 0.695750
2179.13, 0.695830
2180.05, 0.695353
2180.96, 0.694797
2181.88, 0.695750
2182.8, 0.696147
2183.72, 0.696068
2184.64, 0.695988
2185.56, 0.696385
2186.48, 0.695988
2187.41, 0.696147
2188.33, 0.696624
2189.25, 0.696703
2190.18, 0.696385
2191.1, 0.696068
2192.03, 0.695591
2192.96, 0.695274
2193.89, 0.695274
2194.82, 0.695671
2195.74, 0.695750
2196.68, 0.695353
2197.61, 0.695274
2198.54, 0.695512
2199.47, 0.695433
2200.4, 0.695274
2201.34, 0.694718
2202.28, 0.694797
2203.21, 0.694877
2204.15, 0.694797
2205.08, 0.694480
2206.02, 0.694321
2206.96, 0.693924
2207.9, 0.693845
2208.84, 0.693686
2209.78, 0.693447
2210.73, 0.694083
2211.67, 0.693765
2212.61, 0.693527
2213.56, 0.693527
2214.5, 0.693130
2215.45, 0.692018
2216.4, 0.691621
2217.35, 0.692256
2218.3, 0.692733
2219.24, 0.692415
2220.2, 0.691462
2221.15, 0.691304
2222.1, 0.691145
2223.05, 0.691145
2224.0, 0.690907
2224.96, 0.690589
2225.91, 0.690112
2226.87, 0.690192
2227.83, 0.689954
2228.79, 0.689557
2229.74, 0.689636
2230.7, 0.689715
2231.66, 0.689715
2232.63, 0.689398
2233.59, 0.688763
2234.55, 0.688127
2235.51, 0.687889
2236.48, 0.688048
2237.44, 0.687730
2238.41, 0.687651
2239.38, 0.687572
2240.34, 0.687254
2241.31, 0.686857
2242.28, 0.687095
2243.25, 0.687333
2244.22, 0.686936
2245.19, 0.686142
2246.17, 0.685904
2247.14, 0.685983
2248.12, 0.685904
2249.09, 0.685983
2250.07, 0.685507
2251.04, 0.685110
2252.02, 0.684713
2253.0, 0.684395
2253.98, 0.684236
2254.96, 0.684157
2255.94, 0.683522
2256.92, 0.683442
2257.91, 0.683601
2258.89, 0.683442
2259.88, 0.682966
2260.86, 0.682410
2261.85, 0.682490
2262.83, 0.682172
2263.82, 0.681775
2264.81, 0.681457
2265.8, 0.681298
2266.79, 0.681060
2267.78, 0.680981
2268.78, 0.680822
2269.77, 0.680028
2270.76, 0.679234
2271.76, 0.679313
2272.75, 0.678837
2273.75, 0.677963
2274.75, 0.677805
2275.75, 0.677884
2276.75, 0.677169
2277.75, 0.677487
2278.75, 0.677646
2279.75, 0.677487
2280.75, 0.676693
2281.76, 0.675502
2282.76, 0.675184
2283.77, 0.674867
2284.77, 0.673834
2285.78, 0.673358
2286.79, 0.673120
2287.8, 0.672643
2288.81, 0.671849
2289.82, 0.671214
2290.83, 0.670658
2291.84, 0.669943
2292.86, 0.669070
2293.87, 0.668911
2294.89, 0.668435
2295.91, 0.667879
2296.92, 0.667244
2297.94, 0.666767
2298.96, 0.666211
2299.98, 0.665338
2301.0, 0.664703
2302.02, 0.664623
2303.04, 0.663829
2304.07, 0.662956
2305.09, 0.662638
2306.12, 0.662003
2307.15, 0.661924
2308.17, 0.661844
2309.2, 0.660812
2310.23, 0.659859
2311.26, 0.659541
2312.29, 0.658827
2313.32, 0.658271
2314.35, 0.657715
2315.39, 0.657000
2316.42, 0.656762
2317.46, 0.656524
2318.5, 0.655889
2319.53, 0.655254
2320.57, 0.654618
2321.61, 0.653348
2322.65, 0.653030
2323.69, 0.652792
2324.73, 0.652157
2325.78, 0.651601
2326.82, 0.651045
2327.86, 0.650172
2328.91, 0.649060
2329.96, 0.648583
2331.01, 0.648107
2332.05, 0.647313
2333.1, 0.646757
2334.15, 0.645010
2335.21, 0.643898
2336.26, 0.643740
2337.31, 0.643581
2338.36, 0.642390
2339.42, 0.641675
2340.48, 0.641199
2341.53, 0.640563
2342.59, 0.639531
2343.65, 0.638658
2344.71, 0.637705
2345.77, 0.636752
2346.83, 0.635879
2347.9, 0.635323
2348.96, 0.634370
2350.02, 0.633576
2351.09, 0.632782
2352.16, 0.631591
2353.23, 0.630479
2354.29, 0.629447
2355.36, 0.628414
2356.43, 0.627938
2357.51, 0.626747
2358.58, 0.625000
2359.65, 0.623730
2360.73, 0.623094
2361.8, 0.622062
2362.88, 0.620553
2363.96, 0.619918
2365.03, 0.618727
2366.11, 0.617218
2367.19, 0.616107
2368.27, 0.614916
2369.36, 0.613645
2370.44, 0.612136
2371.53, 0.610707
2372.61, 0.609913
2373.7, 0.608881
2374.78, 0.607054
2375.87, 0.605943
2376.96, 0.604116
2378.05, 0.601972
2379.14, 0.600384
2380.24, 0.599431
2381.33, 0.597923
2382.42, 0.596335
2383.52, 0.594508
2384.61, 0.593476
2385.71, 0.591967
2386.81, 0.589903
2387.91, 0.587838
2389.01, 0.586091
2390.11, 0.584265
2391.22, 0.581962
2392.32, 0.579898
2393.42, 0.578310
2394.53, 0.576007
2395.64, 0.573942
2396.74, 0.571640
2397.85, 0.568860
2398.96, 0.566716
2400.07, 0.564573
2401.18, 0.562190
2402.3, 0.559332
2403.41, 0.556473
2404.52, 0.553615
2405.64, 0.550200
2406.76, 0.547024
2407.88, 0.543927
2408.99, 0.541386
2410.11, 0.538210
2411.23, 0.535034
2412.36, 0.531937
2413.48, 0.528602
2414.6, 0.524632
2415.73, 0.520503
2416.85, 0.516373
2417.98, 0.511768
2419.11, 0.507798
2420.24, 0.503986
2421.37, 0.499778
2422.5, 0.495807
2423.64, 0.491520
2424.77, 0.486755
2425.9, 0.481594
2427.04, 0.476353
2428.18, 0.471748
2429.31, 0.466983
2430.45, 0.461663
2431.59, 0.456978
2432.73, 0.452214
2433.88, 0.446655
2435.02, 0.441415
2436.16, 0.436889
2437.31, 0.432124
2438.45, 0.426804
2439.6, 0.421802
2440.75, 0.417355
2441.9, 0.412670
2443.05, 0.406953
2444.2, 0.401553
2445.35, 0.397106
2446.51, 0.392898
2447.67, 0.388134
2448.82, 0.383449
2449.98, 0.378764
2451.14, 0.374317
2452.3, 0.370426
2453.46, 0.366059
2454.62, 0.361453
2455.78, 0.357483
2456.94, 0.353831
2458.11, 0.349304
2459.28, 0.345493
2460.44, 0.342158
2461.61, 0.338346
2462.78, 0.334456
2463.95, 0.331121
2465.12, 0.327627
2466.3, 0.324371
2467.47, 0.321433
2468.65, 0.318177
2469.82, 0.314922
2471.0, 0.312063
2472.18, 0.308649
2473.36, 0.305234
2474.54, 0.302614
2475.72, 0.300152
2476.9, 0.297691
2478.08, 0.295309
2479.27, 0.292609
2480.46, 0.290306
2481.64, 0.288162
2482.83, 0.285780
2484.02, 0.283160
2485.21, 0.281254
2486.4, 0.279745
2487.6, 0.278237
2488.79, 0.276251
2489.99, 0.274346
2491.18, 0.272916
2492.38, 0.271805
2493.58, 0.270772
2494.78, 0.269343
2495.98, 0.267914
2497.18, 0.267120
2498.39, 0.266643
2499.59, 0.265849
2500.8, 0.265135
2502.01, 0.264261
2503.21, 0.263467
2504.42, 0.263150
2505.63, 0.262435
2506.84, 0.261561
2508.06, 0.260609
2509.27, 0.259894
2510.49, 0.259179
2511.7, 0.258544
2512.92, 0.257432
2514.14, 0.256241
2515.36, 0.255447
2516.58, 0.255209
2517.8, 0.254494
2519.03, 0.252906
2520.25, 0.251556
2521.48, 0.250603
2522.7, 0.249412
2523.93, 0.248221
2525.16, 0.247268
2526.39, 0.246236
2527.62, 0.245045
2528.86, 0.243854
2530.09, 0.242425
2531.33, 0.241154
2532.56, 0.240122
2533.8, 0.239804
2535.04, 0.238613
2536.28, 0.237740
2537.52, 0.238057
2538.76, 0.238296
2540.01, 0.238375
2541.25, 0.238137
2542.5, 0.237740
2543.75, 0.238534
2544.99, 0.239963
2546.24, 0.241234
2547.49, 0.241869
2548.75, 0.242981
2550.0, 0.244489
2551.26, 0.245760
2552.51, 0.247268
2553.77, 0.249968
2555.03, 0.252986
2556.29, 0.255606
2557.55, 0.257988
2558.81, 0.259894
2560.08, 0.260053
2561.34, 0.260529
2562.61, 0.263150
2563.88, 0.266405
2565.14, 0.270852
2566.41, 0.275060
2567.68, 0.277045
2568.96, 0.277601
2570.23, 0.280619
2571.51, 0.284033
2572.78, 0.283716
2574.06, 0.286495
2575.34, 0.289671
2576.62, 0.290783
2577.9, 0.294753
2579.18, 0.298009
2580.47, 0.298088
2581.75, 0.299200
2583.04, 0.298882
2584.32, 0.300947
2585.61, 0.304599
2586.9, 0.305314
2588.2, 0.307378
2589.49, 0.310316
2590.78, 0.312857
2592.08, 0.312619
2593.37, 0.306584
2594.67, 0.301502
2595.97, 0.308808
2597.27, 0.316907
2598.57, 0.320321
2599.88, 0.320242
2601.18, 0.319448
2602.49, 0.318892
2603.79, 0.317304
2605.1, 0.315001
2606.41, 0.317066
2607.72, 0.319607
2609.03, 0.320401
2610.35, 0.321751
2611.66, 0.322862
2612.98, 0.322465
2614.3, 0.322386
2615.62, 0.318416
2616.94, 0.315795
2618.26, 0.318336
2619.58, 0.315954
2620.91, 0.316192
2622.23, 0.320242
2623.56, 0.320957
2624.89, 0.318257
2626.22, 0.313572
2627.55, 0.314048
2628.88, 0.312301
2630.21, 0.307696
2631.55, 0.309681
2632.89, 0.309919
2634.22, 0.308808
2635.56, 0.309205
2636.9, 0.308014
2638.25, 0.306346
2639.59, 0.304599
2640.93, 0.302296
2642.28, 0.299914
2643.63, 0.297532
2644.98, 0.293721
2646.33, 0.291735
2647.68, 0.290862
2649.03, 0.289195
2650.39, 0.286257
2651.74, 0.281572
2653.1, 0.278792
2654.46, 0.276966
2655.82, 0.274346
2657.18, 0.272599
2658.54, 0.268390
2659.9, 0.264738
2661.27, 0.262355
2662.64, 0.259497
2664.01, 0.252668
2665.38, 0.246554
2666.74, 0.244330
2668.12, 0.244410
2669.49, 0.237899
2670.87, 0.234643
2672.24, 0.237502
2673.62, 0.235675
2675.0, 0.230832
2676.38, 0.225670
2677.76, 0.223288
2679.15, 0.221223
2680.54, 0.220509
2681.92, 0.217650
2683.31, 0.213680
2684.7, 0.210266
2686.09, 0.206851
2687.48, 0.203675
2688.88, 0.200419
2690.27, 0.196767
2691.67, 0.191923
2693.07, 0.185412
2694.47, 0.180727
2695.87, 0.177709
2697.27, 0.174613
2698.67, 0.170166
2700.08, 0.164449
2701.49, 0.159367
2702.9, 0.155317
2704.31, 0.150870
2705.72, 0.146106
2707.13, 0.140786
2708.54, 0.134830
2709.96, 0.128796
2711.38, 0.124428
2712.8, 0.122046
2714.22, 0.118711
2715.64, 0.114661
2717.06, 0.110294
2718.49, 0.105530
2719.91, 0.100130
2721.34, 0.0976690
2722.77, 0.0950480
2724.2, 0.0907600
2725.63, 0.0878220
2727.07, 0.0854400
2728.5, 0.0824230
2729.94, 0.0785320
2731.38, 0.0747200
2732.82, 0.0705910
2734.26, 0.0658270
2735.7, 0.0616190
2737.15, 0.0574100
2738.59, 0.0521690
2740.04, 0.0476430
2741.49, 0.0439910
2742.94, 0.0406560
2744.39, 0.0376380
2745.84, 0.0346210
2747.3, 0.0323180
2748.76, 0.0309680
2750.21, 0.0297770
2751.67, 0.0283480
2753.14, 0.0273150
2754.6, 0.0262040
2756.06, 0.0254100
2757.53, 0.0251720
2759.0, 0.0249330
2760.46, 0.0245360
2761.94, 0.0239800
2763.41, 0.0239010
2764.88, 0.0241390
2766.36, 0.0242190
2767.83, 0.0246950
2769.31, 0.0250920
2770.79, 0.0250920
2772.27, 0.0254100
2773.76, 0.0260450
2775.24, 0.0265210
2776.73, 0.0269980
2778.22, 0.0273150
2779.71, 0.0277920
2781.2, 0.0281890
2782.69, 0.0289040
2784.18, 0.0293010
2785.68, 0.0294590
2787.18, 0.0296980
2788.68, 0.0300950
2790.18, 0.0308890
2791.68, 0.0314450
2793.19, 0.0314450
2794.69, 0.0316830
2796.2, 0.0319210
2797.71, 0.0320800
2799.22, 0.0320800
2800.73, 0.0317620
2802.24, 0.0313650
2803.76, 0.0311270
2805.28, 0.0309680
2806.8, 0.0307300
2808.32, 0.0304920
2809.84, 0.0305710
2811.36, 0.0304920
2812.89, 0.0305710
2814.42, 0.0306500
2815.94, 0.0306500
2817.48, 0.0308090
2819.01, 0.0311270
2820.54, 0.0315240
2822.08, 0.0317620
2823.61, 0.0320000
2825.15, 0.0323970
2826.69, 0.0327940
2828.23, 0.0331910
2829.78, 0.0335090
2831.32, 0.0339060
2832.87, 0.0343830
2834.42, 0.0347000
2835.97, 0.0351770
2837.52, 0.0358120
2839.08, 0.0361290
2840.63, 0.0364470
2842.19, 0.0368440
2843.75, 0.0374000
2845.31, 0.0379560
2846.87, 0.0385120
2848.44, 0.0388290
2850.0, 0.0391470
2851.57, 0.0397030
2853.14, 0.0399410
2854.71, 0.0402590
2856.28, 0.0408140
2857.86, 0.0410530
2859.43, 0.0409730
2861.01, 0.0410530
2862.59, 0.0419260
2864.17, 0.0426410
2865.76, 0.0431970
2867.34, 0.0436730
2868.93, 0.0440700
2870.52, 0.0446260
2872.11, 0.0451020
2873.7, 0.0454990
2875.29, 0.0462930
2876.89, 0.0467700
2878.49, 0.0471670
2880.08, 0.0478810
2881.69, 0.0485960
2883.29, 0.0489930
2884.89, 0.0494700
2886.5, 0.0501050
2888.11, 0.0506610
2889.72, 0.0512160
2891.33, 0.0521690
2892.94, 0.0529630
2894.56, 0.0537570
2896.17, 0.0543930
2897.79, 0.0551870
2899.42, 0.0558220
2901.04, 0.0566160
2902.66, 0.0576480
2904.29, 0.0584420
2905.92, 0.0593950
2907.55, 0.0605070
2909.18, 0.0613800
2910.81, 0.0621740
2912.45, 0.0629680
2914.08, 0.0636040
2915.72, 0.0647150
2917.36, 0.0659860
2919.01, 0.0668590
2920.65, 0.0678920
2922.3, 0.0688440
2923.94, 0.0697970
2925.59, 0.0711470
2927.25, 0.0724180
2928.9, 0.0735290
2930.56, 0.0745620
2932.21, 0.0755940
2933.87, 0.0766260
2935.53, 0.0779760
2937.2, 0.0794050
2938.86, 0.0805960
2940.53, 0.0817080
2942.2, 0.0828990
2943.87, 0.0840110
2945.54, 0.0851230
2947.22, 0.0863140
2948.89, 0.0877430
2950.57, 0.0890130
2952.25, 0.0902050
2953.93, 0.0914750
2955.62, 0.0927460
2957.3, 0.0942540
2958.99, 0.0956840
2960.68, 0.0968750
2962.37, 0.0979860
2964.07, 0.0992570
2965.76, 0.100527
2967.46, 0.101798
2969.16, 0.102830
2970.86, 0.104101
2972.56, 0.105450
2974.27, 0.106721
2975.98, 0.107991
2977.69, 0.109341
2979.4, 0.110691
2981.11, 0.112041
2982.83, 0.113312
2984.54, 0.114264
2986.26, 0.115297
2987.98, 0.116647
2989.71, 0.117917
2991.43, 0.118949
2993.16, 0.120140
2994.89, 0.121173
2996.62, 0.122364
2998.35, 0.123555
3000.09, 0.124508
3001.83, 0.125778
3003.57, 0.126731
3005.31, 0.127525
3007.05, 0.128478
3008.79, 0.129590
3010.54, 0.130781
3012.29, 0.131575
3014.04, 0.132131
3015.8, 0.133163
3017.55, 0.133957
3019.31, 0.134672
3021.07, 0.135466
3022.83, 0.136101
3024.59, 0.136736
3026.36, 0.137689
3028.13, 0.138245
3029.9, 0.138642
3031.67, 0.138959
3033.44, 0.139277
3035.22, 0.139674
3037.0, 0.139992
3038.78, 0.140309
3040.56, 0.140706
3042.34, 0.141103
3044.13, 0.141580
3045.92, 0.141580
3047.71, 0.141500
3049.5, 0.141739
3051.3, 0.142056
3053.09, 0.142453
3054.89, 0.142692
3056.69, 0.143247
3058.5, 0.143883
3060.3, 0.144438
3062.11, 0.145312
3063.92, 0.146185
3065.73, 0.147297
3067.55, 0.148568
3069.36, 0.149917
3071.18, 0.151506
3073.0, 0.153173
3074.82, 0.154999
3076.65, 0.156985
3078.48, 0.158970
3080.31, 0.161272
3082.14, 0.163972
3083.97, 0.166831
3085.8, 0.169531
3087.64, 0.172389
3089.48, 0.175168
3091.33, 0.178265
3093.17, 0.181759
3095.02, 0.185094
3096.87, 0.188429
3098.72, 0.191843
3100.57, 0.195179
3102.43, 0.198593
3104.28, 0.202007
3106.14, 0.205660
3108.01, 0.209154
3109.87, 0.212489
3111.74, 0.215745
3113.61, 0.219080
3115.48, 0.222256
3117.35, 0.225591
3119.23, 0.229005
3121.1, 0.232181
3122.98, 0.234961
3124.87, 0.237660
3126.75, 0.240360
3128.64, 0.243060
3130.53, 0.245680
3132.42, 0.248301
3134.31, 0.251080
3136.21, 0.253939
3138.11, 0.256400
3140.01, 0.258623
3141.91, 0.261085
3143.82, 0.263547
3145.73, 0.266167
3147.64, 0.268470
3149.55, 0.270614
3151.46, 0.273155
3153.38, 0.275537
3155.3, 0.277840
3157.22, 0.280301
3159.14, 0.282763
3161.07, 0.285065
3163.0, 0.287686
3164.93, 0.290147
3166.86, 0.292291
3168.8, 0.294515
3170.74, 0.296976
3172.68, 0.299279
3174.62, 0.301582
3176.56, 0.303885
3178.51, 0.306267
3180.46, 0.308411
3182.42, 0.310713
3184.37, 0.312937
3186.33, 0.315001
3188.29, 0.317304
3190.25, 0.319607
3192.21, 0.321671
3194.18, 0.323895
3196.15, 0.326118
3198.12, 0.328183
3200.09, 0.330247
3202.07, 0.332312
3204.05, 0.334297
3206.03, 0.336203
3208.02, 0.338188
3210.0, 0.340252
3211.99, 0.342476
3213.98, 0.344619
3215.98, 0.346763
3217.97, 0.348828
3219.97, 0.350734
3221.97, 0.352719
3223.98, 0.354704
3225.98, 0.356927
3227.99, 0.358912
3230.0, 0.360739
3232.02, 0.362645
3234.03, 0.364789
3236.05, 0.367012
3238.07, 0.368759
3240.1, 0.370664
3242.12, 0.372570
3244.15, 0.374397
3246.18, 0.376223
3248.22, 0.377970
3250.25, 0.379955
3252.29, 0.382099
3254.33, 0.384243
3256.38, 0.386149
3258.43, 0.387895
3260.47, 0.389642
3262.53, 0.391469
3264.58, 0.393295
3266.64, 0.395439
3268.7, 0.397424
3270.76, 0.399250
3272.82, 0.401077
3274.89, 0.402982
3276.96, 0.404888
3279.04, 0.406635
3281.11, 0.408303
3283.19, 0.410129
3285.27, 0.411876
3287.35, 0.413623
3289.44, 0.415529
3291.53, 0.417355
3293.62, 0.419261
3295.71, 0.420849
3297.81, 0.422437
3299.91, 0.424422
3302.01, 0.426328
3304.11, 0.427916
3306.22, 0.429504
3308.33, 0.431171
3310.44, 0.433077
3312.56, 0.434983
3314.68, 0.436492
3316.8, 0.438080
3318.92, 0.439747
3321.05, 0.441494
3323.18, 0.443162
3325.31, 0.444829
3327.44, 0.446258
3329.58, 0.447767
3331.72, 0.449276
3333.86, 0.451102
3336.01, 0.453008
3338.16, 0.454596
3340.31, 0.456264
3342.46, 0.458010
3344.61, 0.459678
3346.77, 0.461266
3348.94, 0.462695
3351.1, 0.464363
3353.27, 0.466110
3355.44, 0.467539
3357.61, 0.468651
3359.79, 0.470001
3361.97, 0.471509
3364.15, 0.473018
3366.33, 0.474606
3368.52, 0.476194
3370.71, 0.477624
3372.9, 0.479053
3375.1, 0.480562
3377.3, 0.482070
3379.5, 0.483658
3381.71, 0.485088
3383.91, 0.486438
3386.12, 0.487867
3388.34, 0.489455
3390.55, 0.490884
3392.77, 0.492234
3394.99, 0.493505
3397.22, 0.494696
3399.45, 0.496046
3401.68, 0.497554
3403.91, 0.499142
3406.15, 0.500651
3408.39, 0.502080
3410.63, 0.503510
3412.87, 0.505098
3415.12, 0.506686
3417.37, 0.508353
3419.63, 0.509862
3421.88, 0.511212
3424.14, 0.512562
3426.41, 0.513832
3428.67, 0.514944
3430.94, 0.515976
3433.21, 0.517088
3435.49, 0.518279
3437.77, 0.519708
3440.05, 0.520741
3442.33, 0.521694
3444.62, 0.522805
3446.91, 0.523917
3449.2, 0.525029
3451.5, 0.526379
3453.8, 0.527490
3456.1, 0.528443
3458.41, 0.529555
3460.72, 0.530587
3463.03, 0.531460
3465.34, 0.532413
3467.66, 0.533287
3469.98, 0.534160
3472.31, 0.535034
3474.63, 0.536145
3476.96, 0.537416
3479.3, 0.538607
3481.64, 0.539401
3483.97, 0.540354
3486.32, 0.541386
3488.66, 0.542418
3491.01, 0.543371
3493.36, 0.544245
3495.72, 0.545356
3498.08, 0.546627
3500.44, 0.547818
3502.81, 0.549088
3505.18, 0.550200
3507.55, 0.551153
3509.92, 0.551788
3512.3, 0.552423
3514.68, 0.553138
3517.06, 0.553853
3519.45, 0.554488
3521.84, 0.555203
3524.24, 0.555917
3526.64, 0.556553
3529.04, 0.557347
3531.44, 0.558220
3533.85, 0.559014
3536.26, 0.559808
3538.67, 0.560682
3541.09, 0.561158
3543.51, 0.561635
3545.93, 0.562429
3548.36, 0.563302
3550.79, 0.563937
3553.22, 0.564573
3555.66, 0.565128
3558.1, 0.565684
3560.54, 0.566478
3562.99, 0.567034
3565.44, 0.567590
3567.9, 0.568305
3570.35, 0.568860
3572.81, 0.569416
3575.28, 0.570210
3577.75, 0.570687
3580.22, 0.570925
3582.69, 0.571481
3585.17, 0.572116
3587.65, 0.572513
3590.14, 0.572989
3592.62, 0.573704
3595.11, 0.574260
3597.61, 0.574895
3600.11, 0.575530
3602.61, 0.576086
3605.11, 0.576563
3607.62, 0.576721
3610.14, 0.577119
3612.65, 0.577913
3615.17, 0.578468
3617.69, 0.578945
3620.22, 0.579421
3622.75, 0.579977
3625.28, 0.580612
3627.82, 0.581248
3630.36, 0.581804
3632.9, 0.582042
3635.45, 0.582518
3638.0, 0.582995
3640.56, 0.583550
3643.12, 0.584106
3645.68, 0.584583
3648.24, 0.585138
3650.81, 0.585456
3653.39, 0.585853
3655.96, 0.586488
3658.54, 0.586965
3661.13, 0.587362
3663.71, 0.587918
3666.3, 0.588474
3668.9, 0.588950
3671.5, 0.589347
3674.1, 0.589903
3676.7, 0.590379
3679.31, 0.590776
3681.93, 0.591253
3684.54, 0.591570
3687.17, 0.592047
3689.79, 0.592523
3692.42, 0.593158
3695.05, 0.593635
3697.69, 0.594111
3700.32, 0.594429
3702.97, 0.594667
3705.61, 0.594985
3708.27, 0.595302
3710.92, 0.595620
3713.58, 0.596096
3716.24, 0.596573
3718.91, 0.596891
3721.58, 0.596970
3724.25, 0.596970
3726.93, 0.597367
3729.61, 0.597605
3732.29, 0.597843
3734.98, 0.598240
3737.67, 0.598479
3740.37, 0.598558
3743.07, 0.598717
3745.78, 0.598796
3748.49, 0.598876
3751.2, 0.598955
3753.91, 0.598955
3756.63, 0.598796
3759.36, 0.598479
3762.09, 0.598082
3764.82, 0.597685
3767.55, 0.597208
3770.29, 0.596652
3773.04, 0.596176
3775.78, 0.595541
3778.54, 0.595064
3781.29, 0.594508
3784.05, 0.594350
3786.82, 0.594350
3789.59, 0.594429
3792.36, 0.594508
3795.13, 0.594508
3797.92, 0.594667
3800.7, 0.594985
3803.49, 0.595064
3806.28, 0.595144
3809.08, 0.595461
3811.88, 0.595779
3814.68, 0.596017
3817.49, 0.596176
3820.31, 0.596176
3823.12, 0.596335
3825.94, 0.596573
3828.77, 0.596732
3831.6, 0.596652
3834.43, 0.596652
3837.27, 0.596732
3840.11, 0.596732
3842.96, 0.596493
3845.81, 0.596335
3848.67, 0.596255
3851.53, 0.596335
3854.39, 0.596255
3857.26, 0.595938
3860.13, 0.595779
3863.01, 0.595620
3865.89, 0.595382
3868.77, 0.595223
3871.66, 0.595223
3874.55, 0.595223
3877.45, 0.594985
3880.35, 0.594747
3883.26, 0.594429
3886.17, 0.594191
3889.09, 0.593873
3892.01, 0.593556
3894.93, 0.593397
3897.86, 0.593079
3900.79, 0.592682
3903.73, 0.592444
3906.67, 0.592126
3909.62, 0.591809
3912.57, 0.591491
3915.52, 0.591253
3918.48, 0.590856
3921.45, 0.590459
3924.42, 0.590062
3927.39, 0.589744
3930.37, 0.589347
3933.35, 0.588950
3936.34, 0.588553
3939.33, 0.588235
3942.32, 0.587997
3945.32, 0.587838
3948.33, 0.587441
3951.34, 0.586965
3954.35, 0.586488
3957.37, 0.586091
3960.39, 0.585933
3963.42, 0.585615
3966.45, 0.585297
3969.49, 0.584821
3972.53, 0.584344
3975.58, 0.584106
3978.63, 0.583947
3981.68, 0.583709
3984.75, 0.583233
3987.81, 0.582995
3990.88, 0.582518
3993.95, 0.582042
3997.03, 0.581565
4000.12, 0.581248
4003.21, 0.580930
4006.3, 0.580454
4009.4, 0.579739
4012.5, 0.579501
4015.61, 0.579024
4018.72, 0.578627
4021.84, 0.578151
4024.96, 0.577674
4028.09, 0.577039
4031.22, 0.576404
4034.36, 0.575848
4037.5, 0.575292
4040.65, 0.574736
4043.8, 0.574022
4046.96, 0.573307
4050.12, 0.572751
4053.29, 0.572195
4056.46, 0.571481
4059.64, 0.570687
4062.82, 0.569893
4066.0, 0.569019
4069.19, 0.568146
4072.39, 0.567431
4075.59, 0.566637
4078.8, 0.565843
4082.01, 0.564970
4085.23, 0.564175
4088.45, 0.563381
4091.68, 0.562508
4094.91, 0.561714
4098.15, 0.560840
4101.39, 0.559888
4104.63, 0.558855
4107.89, 0.558061
4111.14, 0.557188
4114.41, 0.556235
4117.67, 0.555441
4120.95, 0.554726
4124.23, 0.553853
4127.51, 0.553059
4130.8, 0.551868
4134.09, 0.550835
4137.39, 0.550041
4140.7, 0.549088
4144.01, 0.548056
4147.32, 0.547024
4150.64, 0.545912
4153.97, 0.544880
4157.3, 0.543848
4160.64, 0.542815
4163.98, 0.541704
4167.33, 0.540592
4170.68, 0.539322
4174.04, 0.538130
4177.4, 0.536939
4180.77, 0.535748
4184.14, 0.534398
4187.52, 0.532810
4190.91, 0.531302
4194.3, 0.529634
4197.69, 0.527490
4201.1, 0.524870
4204.5, 0.521535
4207.92, 0.517644
4211.34, 0.512880
4214.76, 0.508036
4218.19, 0.503351
4221.62, 0.498825
4225.06, 0.494855
4228.51, 0.491678
4231.96, 0.489137
4235.42, 0.487470
4238.88, 0.486835
4242.35, 0.487549
4245.83, 0.489217
4249.31, 0.491996
4252.79, 0.495649
4256.28, 0.497237
4259.78, 0.493663
4263.29, 0.488026
4266.79, 0.483420
4270.31, 0.480165
4273.83, 0.477862
4277.35, 0.476194
4280.89, 0.474447
4284.42, 0.472939
4287.97, 0.471827
4291.52, 0.471033
4295.07, 0.470398
4298.63, 0.469683
4302.2, 0.468968
4305.78, 0.468333
4309.35, 0.467777
4312.94, 0.467142
4316.53, 0.466269
4320.13, 0.465157
4323.73, 0.463886
4327.34, 0.462298
4330.96, 0.460869
4334.58, 0.459122
4338.21, 0.457058
4341.84, 0.454914
4345.48, 0.452690
4349.12, 0.450705
4352.77, 0.448402
4356.43, 0.445861
4360.1, 0.443400
4363.76, 0.440938
4367.44, 0.438238
4371.12, 0.435459
4374.81, 0.432839
4378.51, 0.430219
4382.21, 0.427519
4385.92, 0.424660
4389.63, 0.421643
4393.35, 0.418546
4397.08, 0.415767
4400.81, 0.412908
4404.55, 0.409970
4408.29, 0.407032
4412.04, 0.404253
4415.8, 0.401394
4419.57, 0.398377
4423.34, 0.395598
4427.12, 0.392739
4430.9, 0.389881
4434.69, 0.387022
4438.49, 0.384322
4442.29, 0.381702
4446.1, 0.379081
4449.92, 0.376540
4453.74, 0.374079
4457.57, 0.371538
4461.41, 0.369156
4465.25, 0.366774
4469.1, 0.364391
4472.95, 0.362089
4476.82, 0.359945
4480.69, 0.357642
4484.56, 0.355577
4488.44, 0.353434
4492.33, 0.351290
4496.23, 0.349146
4500.13, 0.347081
4504.04, 0.345096
4507.96, 0.343031
4511.88, 0.340967
4515.81, 0.338823
4519.75, 0.336520
4523.69, 0.334297
4527.65, 0.332073
4531.6, 0.329691
4535.57, 0.327547
4539.54, 0.325403
4543.52, 0.323021
4547.5, 0.320639
4551.5, 0.318336
4555.5, 0.315875
4559.5, 0.313334
4563.52, 0.311031
4567.54, 0.308649
4571.56, 0.306346
4575.6, 0.303964
4579.64, 0.301661
4583.69, 0.299358
4587.75, 0.297214
4591.81, 0.294991
4595.88, 0.292688
4599.96, 0.290465
4604.04, 0.288321
4608.14, 0.286257
4612.24, 0.284192
4616.34, 0.281969
4620.46, 0.279825
4624.58, 0.277840
4628.71, 0.275696
4632.84, 0.273552
4636.99, 0.271805
4641.14, 0.269978
4645.3, 0.267993
4649.47, 0.266167
4653.64, 0.264420
4657.82, 0.262673
4662.01, 0.261164
4666.21, 0.259576
4670.41, 0.257988
4674.62, 0.256718
4678.84, 0.255606
4683.07, 0.254336
4687.3, 0.252986
4691.54, 0.251874
4695.79, 0.251001
4700.05, 0.250127
4704.31, 0.249412
4708.59, 0.248698
4712.87, 0.247824
4717.15, 0.247268
4721.45, 0.246713
4725.76, 0.246236
4730.07, 0.245760
4734.39, 0.245442
4738.72, 0.245204
4743.05, 0.245045
4747.39, 0.244569
4751.75, 0.243933
4756.1, 0.243536
4760.47, 0.243219
4764.85, 0.242742
4769.23, 0.242266
4773.62, 0.241869
4778.02, 0.241234
4782.43, 0.240598
4786.85, 0.240122
4791.27, 0.239487
4795.7, 0.238852
4800.14, 0.238137
4804.59, 0.237343
4809.05, 0.236469
4813.51, 0.235516
4817.99, 0.234564
4822.47, 0.233611
4826.96, 0.232737
4831.46, 0.231546
4835.96, 0.230276
4840.48, 0.229005
4845.0, 0.227894
4849.54, 0.226702
4854.08, 0.225591
4858.63, 0.224479
4863.18, 0.223209
4867.75, 0.222018
4872.33, 0.220826
4876.91, 0.219794
4881.5, 0.218921
4886.1, 0.218047
4890.71, 0.217412
4895.33, 0.216936
4899.96, 0.216618
4904.59, 0.216380
4909.24, 0.216300
4913.89, 0.216142
4918.55, 0.216142
4923.22, 0.216459
4927.9, 0.216697
4932.59, 0.217094
4937.29, 0.217491
4942.0, 0.218047
4946.71, 0.218365
4951.44, 0.218603
4956.17, 0.218841
4960.91, 0.219477
4965.67, 0.220032
4970.43, 0.220429
4975.2, 0.220668
4979.98, 0.220985
4984.76, 0.221382
4989.56, 0.221700
4994.37, 0.222018
4999.18, 0.222176
5004.01, 0.222256
5008.84, 0.222335
5013.69, 0.222176
5018.54, 0.221859
5023.4, 0.222018
5028.28, 0.222097
5033.16, 0.221779
5038.05, 0.221303
5042.95, 0.220906
5047.86, 0.220668
5052.78, 0.220271
5057.71, 0.219635
5062.65, 0.218841
5067.6, 0.218127
5072.56, 0.217412
5077.53, 0.216380
5082.5, 0.215268
5087.49, 0.214633
5092.49, 0.214077
5097.5, 0.213045
5102.51, 0.212092
5107.54, 0.211218
5112.58, 0.210107
5117.62, 0.209233
5122.68, 0.208360
5127.75, 0.207328
5132.82, 0.206295
5137.91, 0.205501
5143.01, 0.204469
5148.12, 0.203357
5153.23, 0.202960
5158.36, 0.202404
5163.5, 0.201690
5168.65, 0.200975
5173.81, 0.200419
5178.98, 0.199705
5184.15, 0.199069
5189.34, 0.198593
5194.54, 0.197878
5199.75, 0.197005
5204.98, 0.196687
5210.21, 0.195655
5215.45, 0.195020
5220.7, 0.195258
5225.96, 0.194702
5231.23, 0.193670
5236.52, 0.192796
5241.81, 0.192241
5247.12, 0.191446
5252.44, 0.190573
5257.76, 0.189620
5263.1, 0.188667
5268.45, 0.187635
5273.81, 0.186285
5279.18, 0.185015
5284.56, 0.183903
5289.95, 0.182235
5295.36, 0.181283
5300.77, 0.180489
5306.2, 0.179218
5311.63, 0.177948
5317.08, 0.176677
5322.54, 0.175486
5328.01, 0.174215
5333.49, 0.172866
5338.98, 0.171754
5344.49, 0.169848
5350.0, 0.167863
5355.53, 0.167466
5361.07, 0.167069
5366.62, 0.166275
5372.18, 0.165243
5377.75, 0.164210
5383.34, 0.163099
5388.93, 0.161908
5394.54, 0.160717
5400.16, 0.159525
5405.79, 0.158176
5411.44, 0.156826
5417.09, 0.154602
5422.76, 0.152617
5428.43, 0.152617
5434.12, 0.151903
5439.83, 0.150394
5445.54, 0.148965
5451.26, 0.147615
5457.0, 0.145630
5462.75, 0.143168
5468.52, 0.141897
5474.29, 0.140627
5480.08, 0.138642
5485.88, 0.137610
5491.69, 0.136339
5497.51, 0.134672
5503.35, 0.133163
5509.2, 0.131734
5515.06, 0.129987
5520.93, 0.128319
5526.82, 0.126969
5532.71, 0.125858
5538.63, 0.124587
5544.55, 0.123237
5550.49, 0.121570
5556.44, 0.120379
5562.4, 0.119664
5568.37, 0.118711
5574.36, 0.116488
5580.36, 0.114979
5586.37, 0.115138
5592.4, 0.114820
5598.44, 0.113709
5604.49, 0.112676
5610.56, 0.111565
5616.63, 0.110453
5622.73, 0.109738
5628.83, 0.108547
5634.95, 0.106641
5641.08, 0.104339
5647.23, 0.104101
5653.39, 0.103703
5659.56, 0.103227
5665.74, 0.102671
5671.94, 0.100924
5678.15, 0.0998130
5684.38, 0.0994160
5690.62, 0.0983040
5696.87, 0.0975890
5703.14, 0.0965570
5709.42, 0.0945720
5715.72, 0.0939370
5722.03, 0.0936980
5728.35, 0.0933010
5734.69, 0.0926660
5741.03, 0.0916340
5747.4, 0.0904430
5753.78, 0.0902050
5760.17, 0.0882990
5766.58, 0.0860750
5773.0, 0.0870280
5779.44, 0.0874250
5785.88, 0.0871870
5792.35, 0.0866310
5798.83, 0.0856780
5805.32, 0.0848050
5811.83, 0.0833760
5818.35, 0.0809140
5824.89, 0.0798820
5831.45, 0.0800410
5838.01, 0.0799610
5844.59, 0.0790880
5851.19, 0.0778170
5857.8, 0.0762290
5864.43, 0.0748000
5871.07, 0.0735290
5877.73, 0.0702740
5884.4, 0.0690030
5891.09, 0.0685270
5897.79, 0.0668590
5904.5, 0.0667800
5911.23, 0.0657480
5917.98, 0.0638420
5924.75, 0.0619360
5931.53, 0.0589190
5938.32, 0.0564570
5945.13, 0.0560600
5951.96, 0.0547100
5958.8, 0.0527250
5965.65, 0.0498670
5972.53, 0.0476430
5979.42, 0.0454200
5986.32, 0.0424020
5993.24, 0.0397030
6000.18, 0.0373210
6007.13, 0.0343830
6014.1, 0.0312860
6021.08, 0.0287450
6028.09, 0.0262830
6035.1, 0.0237420
6042.14, 0.0210420
6049.19, 0.0185010
6056.25, 0.0173100
6063.34, 0.0161990
6070.44, 0.0146900
6077.55, 0.0134990
6084.69, 0.0127840
6091.84, 0.0122280
6099.0, 0.0117520
6106.19, 0.0116730
6113.39, 0.0120700
6120.61, 0.0131810
6127.84, 0.0144520
6135.09, 0.0154840
6142.36, 0.0165960
6149.65, 0.0178660
6156.95, 0.0191370
6164.27, 0.0210420
6171.61, 0.0233450
6178.97, 0.0254890
6186.34, 0.0281890
6193.73, 0.0313650
6201.14, 0.0342240
6208.57, 0.0368440
6216.01, 0.0392260
6223.47, 0.0415290
6230.95, 0.0435140
6238.45, 0.0451820
6245.97, 0.0469290
6253.5, 0.0485960
6261.06, 0.0497870
6268.63, 0.0508190
6276.21, 0.0519310
6283.82, 0.0528050
6291.45, 0.0535990
6299.1, 0.0544720
6306.76, 0.0551870
6314.44, 0.0558220
6322.14, 0.0565370
6329.86, 0.0571720
6337.6, 0.0568540
6345.35, 0.0570130
6353.13, 0.0590780
6360.92, 0.0601890
6368.74, 0.0604280
6376.57, 0.0619360
6384.43, 0.0633660
6392.3, 0.0645570
6400.19, 0.0651920
6408.1, 0.0642390
6416.03, 0.0649540
6423.98, 0.0682890
6431.95, 0.0704330
6439.94, 0.0724180
6447.95, 0.0739260
6455.98, 0.0752760
6464.03, 0.0763090
6472.1, 0.0765470
6480.19, 0.0764670
6488.31, 0.0755150
6496.44, 0.0760700
6504.59, 0.0788500
6512.76, 0.0796440
6520.95, 0.0791670
6529.16, 0.0798820
6537.4, 0.0799610
6545.65, 0.0792470
6553.92, 0.0786110
6562.22, 0.0778970
6570.54, 0.0763090
6578.88, 0.0763090
6587.23, 0.0760700
6595.61, 0.0755150
6604.02, 0.0754350
6612.44, 0.0747200
6620.89, 0.0735290
6629.35, 0.0709090
6637.84, 0.0689240
6646.35, 0.0699560
6654.88, 0.0705120
6663.44, 0.0693210
6672.01, 0.0678920
6680.61, 0.0665420
6689.23, 0.0664620
6697.88, 0.0660650
6706.54, 0.0646360
6715.23, 0.0635240
6723.94, 0.0632860
6732.67, 0.0630480
6741.42, 0.0626510
6750.2, 0.0620160
6759.0, 0.0616190
6767.82, 0.0609040
6776.67, 0.0600300
6785.54, 0.0588390
6794.44, 0.0587600
6803.35, 0.0596330
6812.29, 0.0597920
6821.26, 0.0592360
6830.24, 0.0589980
6839.25, 0.0593950
6848.29, 0.0589190
6857.35, 0.0574900
6866.43, 0.0573310
6875.54, 0.0588390
6884.67, 0.0593160
6893.82, 0.0590780
6903.0, 0.0586810
6912.2, 0.0586810
6921.43, 0.0586810
6930.69, 0.0584420
6939.96, 0.0581250
6949.27, 0.0572510
6958.59, 0.0560600
6967.95, 0.0562980
6977.33, 0.0565370
6986.73, 0.0559810
6996.16, 0.0554250
7005.61, 0.0552660
7015.09, 0.0547100
7024.6, 0.0541540
7034.13, 0.0534400
7043.69, 0.0524080
7053.27, 0.0524080
7062.88, 0.0524870
7072.52, 0.0519310
7082.18, 0.0515340
7091.87, 0.0511370
7101.58, 0.0505810
7111.32, 0.0499460
7121.09, 0.0493900
7130.88, 0.0488340
7140.71, 0.0478810
7150.56, 0.0472460
7160.43, 0.0466900
7170.33, 0.0461350
7180.27, 0.0457380
7190.23, 0.0452610
7200.21, 0.0444670
7210.23, 0.0436730
7220.27, 0.0433550
7230.34, 0.0428000
7240.44, 0.0420850
7250.56, 0.0412110
7260.72, 0.0404970
7270.9, 0.0396230
7281.12, 0.0389090
7291.36, 0.0383530
7301.63, 0.0376380
7311.93, 0.0367650
7322.25, 0.0360500
7332.61, 0.0350970
7343.0, 0.0342240
7353.41, 0.0335880
7363.86, 0.0329530
7374.33, 0.0321590
7384.83, 0.0313650
7395.37, 0.0305710
7405.93, 0.0296980
7416.53, 0.0288240
7427.15, 0.0279510
7437.81, 0.0272360
7448.5, 0.0263630
7459.22, 0.0253300
7469.96, 0.0244570
7480.74, 0.0236630
7491.55, 0.0229480
7502.39, 0.0222340
7513.27, 0.0215190
7524.17, 0.0207250
7535.11, 0.0199310
7546.08, 0.0189780
7557.08, 0.0181840
7568.11, 0.0174690
7579.17, 0.0165960
7590.27, 0.0158020
7601.4, 0.0149280
7612.56, 0.0142930
7623.76, 0.0137370
7634.98, 0.0129430
7646.24, 0.0123080
7657.54, 0.0117520
7668.87, 0.0111170
7680.23, 0.0106400
7691.62, 0.0100840
7703.05, 0.00929000
7714.51, 0.00857600
7726.01, 0.00825800
7737.54, 0.00778200
7749.11, 0.00714600
7760.71, 0.00667000
7772.35, 0.00627300
7784.02, 0.00579700
7795.72, 0.00532000
7807.46, 0.00476400
7819.23, 0.00436700
7831.04, 0.00412900
7842.89, 0.00381100
7854.77, 0.00333500
7866.69, 0.00309700
7878.65, 0.00285900
7890.64, 0.00254100
7902.67, 0.00230300
7914.74, 0.00214400
7926.84, 0.00190600
7938.98, 0.00174700
7951.16, 0.00166800
7963.37, 0.00158800
7975.62, 0.00158800
7987.91, 0.00166800
8000.24, 0.00166800
8012.6, 0.00166800
8025.01, 0.00174700
8037.45, 0.00190600
8049.93, 0.00182600
8062.45, 0.00190600
8075.01, 0.00206500
8087.61, 0.00222300
8100.24, 0.00254100
8112.91, 0.00301700
8125.63, 0.00357300
8138.39, 0.00397000
8151.18, 0.00444700
8164.02, 0.00500300
8176.9, 0.00555800
8189.81, 0.00627300
8202.77, 0.00722600
8215.77, 0.00802000
8228.82, 0.00913200
8241.9, 0.0104020
8255.02, 0.0117520
8268.19, 0.0133400
8281.39, 0.0150080
8294.65, 0.0164370
8307.94, 0.0183430
8321.28, 0.0206450
8334.66, 0.0229480
8348.08, 0.0252510
8361.54, 0.0274740
8375.05, 0.0297770
8388.6, 0.0324770
8402.2, 0.0352560
8415.84, 0.0378760
8429.52, 0.0408940
8443.25, 0.0439110
8457.02, 0.0466900
8470.84, 0.0495490
8484.7, 0.0523280
8498.61, 0.0548690
8512.57, 0.0573310
8526.57, 0.0596330
8540.62, 0.0616980
8554.71, 0.0636040
8568.85, 0.0652710
8583.04, 0.0667800
8597.27, 0.0682090
8611.55, 0.0694800
8625.88, 0.0706710
8640.26, 0.0721000
8654.68, 0.0737680
8669.16, 0.0754350
8683.68, 0.0771030
8698.25, 0.0789290
8712.87, 0.0806760
8727.53, 0.0825820
8742.25, 0.0844080
8757.02, 0.0857580
8771.83, 0.0869490
8786.7, 0.0881400
8801.62, 0.0892520
8816.59, 0.0902050
8831.61, 0.0913160
8846.68, 0.0923490
8861.8, 0.0928250
8876.97, 0.0930630
8892.2, 0.0928250
8907.48, 0.0922690
8922.81, 0.0916340
8938.2, 0.0907600
8953.63, 0.0902050
8969.13, 0.0894900
8984.67, 0.0888550
9000.27, 0.0885370
9015.92, 0.0882190
9031.63, 0.0881400
9047.39, 0.0882190
9063.21, 0.0885370
9079.08, 0.0888550
9095.01, 0.0892520
9111.0, 0.0898870
9127.04, 0.0907600
9143.13, 0.0919510
9159.28, 0.0936190
9175.49, 0.0959220
9191.76, 0.0987800
9208.09, 0.102433
9224.47, 0.106880
9240.92, 0.111962
9257.42, 0.117361
9273.98, 0.122920
9290.6, 0.128796
9307.28, 0.134672
9324.02, 0.139992
9340.82, 0.144994
9357.68, 0.149600
9374.6, 0.153570
9391.58, 0.157064
9408.62, 0.160240
9425.73, 0.162702
9442.9, 0.164290
9460.13, 0.165481
9477.42, 0.166196
9494.78, 0.166593
9512.2, 0.166275
9529.69, 0.165640
9547.24, 0.164766
9564.86, 0.163496
9582.54, 0.162146
9600.28, 0.160478
9618.1, 0.158096
9635.97, 0.155396
9653.92, 0.152935
9671.93, 0.150473
9690.01, 0.148091
9708.16, 0.145788
9726.37, 0.143644
9744.65, 0.141580
9763.0, 0.139674
9781.43, 0.137689
9799.92, 0.136101
9818.48, 0.134275
9837.1, 0.132051
9855.8, 0.129193
9874.58, 0.126493
9893.42, 0.124111
9912.34, 0.121490
9931.33, 0.118552
9950.39, 0.115694
9969.52, 0.113232
9988.74, 0.111168
10008.0, 0.109103
10027.4, 0.107038
10046.8, 0.104815
10066.3, 0.102830
10085.9, 0.100845
10105.6, 0.0987800
10125.3, 0.0968750
10145.1, 0.0951280
10165.0, 0.0932220
10185.0, 0.0912370
10205.0, 0.0890930
10225.2, 0.0871080
10245.4, 0.0849640
10265.7, 0.0828990
10286.0, 0.0810730
10306.5, 0.0797230
10327.0, 0.0786910
10347.6, 0.0774200
10368.3, 0.0767060
10389.1, 0.0764670
10409.9, 0.0762290
10430.9, 0.0755940
10451.9, 0.0753560
10473.0, 0.0750380
10494.2, 0.0749590
10515.5, 0.0752760
10536.9, 0.0755150
10558.4, 0.0756730
10579.9, 0.0759120
10601.5, 0.0766260
10623.3, 0.0771820
10645.1, 0.0776580
10667.0, 0.0784530
10689.0, 0.0794050
10711.1, 0.0799610
10733.2, 0.0803580
10755.5, 0.0812320
10777.9, 0.0821050
10800.3, 0.0825820
10822.9, 0.0831370
10845.5, 0.0841700
10868.2, 0.0849640
10891.1, 0.0855200
10914.0, 0.0860750
10937.0, 0.0867110
10960.2, 0.0874250
10983.4, 0.0880610
11006.7, 0.0886160
11030.1, 0.0894100
11053.6, 0.0901250
11077.3, 0.0907600
11101.0, 0.0913160
11124.8, 0.0917130
11148.7, 0.0921900
11172.7, 0.0925070
11196.9, 0.0928250
11221.1, 0.0933810
11245.4, 0.0937780
11269.9, 0.0940160
11294.4, 0.0941750
11319.1, 0.0944130
11343.9, 0.0946510
11368.8, 0.0945720
11393.7, 0.0942540
11418.8, 0.0941750
11444.0, 0.0940950
11469.4, 0.0940160
11494.8, 0.0940950
11520.3, 0.0935400
11546.0, 0.0927460
11571.8, 0.0924280
11597.7, 0.0918720
11623.7, 0.0913160
11649.8, 0.0908400
11676.0, 0.0901250
11702.4, 0.0894100
11728.9, 0.0887750
11755.5, 0.0876640
11782.2, 0.0863930
11809.0, 0.0853610
11836.0, 0.0842490
11863.0, 0.0828990
11890.3, 0.0818670
11917.6, 0.0804380
11945.0, 0.0788500
11972.6, 0.0773410
12000.4, 0.0759120
12028.2, 0.0742440
12056.2, 0.0724970
12084.3, 0.0704330
12112.5, 0.0675740
12140.9, 0.0650330
12169.4, 0.0632070
12198.0, 0.0613010
12226.8, 0.0589980
12255.7, 0.0571720
12284.7, 0.0549490
12313.9, 0.0519310
12343.2, 0.0493900
12372.7, 0.0470080
12402.3, 0.0445460
12432.0, 0.0420850
12461.9, 0.0391470
12491.9, 0.0358910
12522.1, 0.0326360
12552.4, 0.0299360
12582.9, 0.0277920
12613.5, 0.0254890
12644.3, 0.0234250
12675.2, 0.0214390
12706.3, 0.0203280
12737.5, 0.0191370
12768.9, 0.0179460
12800.4, 0.0170720
12832.1, 0.0162780
12863.9, 0.0164370
12895.9, 0.0169930
12928.1, 0.0182630
12960.4, 0.0196930
12992.9, 0.0212010
13025.5, 0.0227100
13058.3, 0.0235040
13091.3, 0.0237420
13124.4, 0.0242980
13157.8, 0.0247740
13191.2, 0.0247740
13224.9, 0.0248540
13258.7, 0.0256480
13292.7, 0.0266010
13326.9, 0.0269980
13361.2, 0.0279510
13395.7, 0.0296180
13430.4, 0.0312860
13465.3, 0.0324770
13500.4, 0.0331910
13535.7, 0.0338270
13571.1, 0.0343030
13606.7, 0.0344620
13642.5, 0.0348590
13678.5, 0.0353350
13714.7, 0.0359710
13751.1, 0.0363680
13787.6, 0.0364470
13824.4, 0.0362880
13861.4, 0.0362090
13898.5, 0.0364470
13935.9, 0.0361290
13973.5, 0.0356530
14011.2, 0.0355740
14049.2, 0.0358120
14087.4, 0.0354940
14125.8, 0.0351770
14164.3, 0.0352560
14203.2, 0.0354150
14242.2, 0.0354150
14281.4, 0.0350970
14320.9, 0.0347800
14360.5, 0.0347000
14400.4, 0.0347800
14440.5, 0.0352560
14480.9, 0.0360500
14521.4, 0.0364470
14562.2, 0.0366060
14603.3, 0.0367650
14644.5, 0.0366060
14686.0, 0.0360500
14727.7, 0.0358120
14769.7, 0.0355740
14811.9, 0.0351770
14854.3, 0.0347800
14897.0, 0.0343830
14939.9, 0.0337470
14983.1, 0.0335880
15026.5, 0.0338270
15070.2, 0.0332710
15114.2, 0.0324770
15158.3, 0.0321590
15202.8, 0.0322390
15247.5, 0.0325560
15292.5, 0.0320800
15337.7, 0.0308090
15383.2, 0.0303330
15429.0, 0.0296180
15475.1, 0.0288240
15521.4, 0.0285070
15568.0, 0.0277120
15614.9, 0.0269180
15662.1, 0.0258860
15709.6, 0.0254100
15757.3, 0.0247740
15805.4, 0.0245360
15853.7, 0.0242980
15902.3, 0.0238220
15951.2, 0.0236630
16000.5, 0.0239800
16050.0, 0.0239800
16099.8, 0.0240600
16150.0, 0.0236630
16200.5, 0.0234250
16251.3, 0.0237420
16302.4, 0.0239010
16353.8, 0.0239010
16405.5, 0.0242190
16457.6, 0.0251720
16510.0, 0.0253300
16562.8, 0.0241390
16615.9, 0.0234250
16669.3, 0.0241390
16723.1, 0.0242190
16777.2, 0.0234250
16831.7, 0.0232660
16886.5, 0.0231860
16941.7, 0.0235040
16997.2, 0.0236630
17053.1, 0.0231860
17109.4, 0.0228690
17166.1, 0.0219160
17223.1, 0.0214390
17280.5, 0.0215190
17338.3, 0.0212010
17396.5, 0.0210420
17455.1, 0.0203280
17514.0, 0.0203280
17573.4, 0.0197720
17633.2, 0.0191370
17693.4, 0.0186600
17754.0, 0.0188980
17815.0, 0.0195340
17876.4, 0.0186600
17938.3, 0.0179460
18000.5, 0.0182630
18063.3, 0.0175490
18126.4, 0.0177070
18190.0, 0.0171520
18254.1, 0.0173100
18318.6, 0.0169130
18383.5, 0.0164370
18449.0, 0.0163580
18514.9, 0.0168340
18581.2, 0.0156430
18648.0, 0.0144520
18715.4, 0.0138170
18783.2, 0.0142930
18851.5, 0.0148490
18920.3, 0.0146900
18989.6, 0.0138960
19059.4, 0.0138170
19129.7, 0.0134200
19200.6, 0.0131020
19272.0, 0.0133400
19343.9, 0.0143720
19416.3, 0.0147690
19489.3, 0.0159600
19562.8, 0.0158020
19637.0, 0.0161190
19711.6, 0.0163580
19786.8, 0.0162780
19862.6, 0.0165960
19939.0, 0.0186600
20016.0, 0.0196930
20093.6, 0.0208840
20171.8, 0.0219160
20250.6, 0.0235830
20330.0, 0.0258860
20410.0, 0.0279510
20490.7, 0.0301740
20572.0, 0.0336680
20654.0, 0.0377970
20736.6, 0.0423230
20819.9, 0.0452610
20903.8, 0.0495490
20988.5, 0.0554250
21073.8, 0.0620160
21159.8, 0.0673360
21246.5, 0.0741650
21334.0, 0.0807550
21422.1, 0.0855200
21511.0, 0.0901250
21600.7, 0.0940160
21691.0, 0.0979860
21782.1, 0.101976
21874.0, 0.104296
21966.7, 0.106563
22060.2, 0.106932
22154.5, 0.106194
22249.6, 0.105509
22345.5, 0.104032
22442.2, 0.102872
22539.8, 0.100078
22638.2, 0.0960700
22737.5, 0.0932230
22837.7, 0.0902180
22938.7, 0.0866850
23040.7, 0.0825190
23143.5, 0.0782480
23247.3, 0.0752430
23352.1, 0.0725540
23457.7, 0.0704450
23564.4, 0.0688630
23672.0, 0.0667540
23780.5, 0.0650660
23890.1, 0.0634850
24000.7, 0.0614810
24112.3, 0.0594240
24225.0, 0.0592140
24338.7, 0.0594240
24453.5, 0.0593190
24569.4, 0.0592660
24686.4, 0.0596880
24804.5, 0.0601630
24923.8, 0.0612170
25044.2, 0.0632210
25165.8, 0.0641170
25288.6, 0.0641170
25412.5, 0.0643810
25537.7, 0.0660680
25664.1, 0.0669650
25791.8, 0.0670170
25920.8, 0.0672810
26051.1, 0.0662790
26182.6, 0.0652250
26315.5, 0.0640120
26449.8, 0.0624300
26585.4, 0.0612700
26722.5, 0.0604260
26860.9, 0.0601630
27000.8, 0.0602680
27142.1, 0.0602680
27285.0, 0.0598990
27429.4, 0.0590550
27575.3, 0.0589500
27722.7, 0.0586340
27871.8, 0.0580540
28022.4, 0.0575260
28174.7, 0.0572100
28328.7, 0.0564190
28484.4, 0.0553640
28641.7, 0.0555750
28800.9, 0.0555750
28961.8, 0.0549950
29124.5, 0.0538350
29289.0, 0.0532550
29455.4, 0.0543100
29623.8, 0.0548370
29794.0, 0.0538350
29966.3, 0.0532030
30140.5, 0.0539410
30316.7, 0.0549950
30495.1, 0.0549950
30675.5, 0.0543100
30858.1, 0.0540460
31042.8, 0.0543100
31229.8, 0.0547320
31419.1, 0.0551530
31610.7, 0.0557860
31804.6, 0.0562080
32000.9, 0.0559440
32199.7, 0.0563130
32400.9, 0.0575260
32604.8, 0.0575790
32811.1, 0.0567880
33020.1, 0.0564720
33231.8, 0.0559970
33446.2, 0.0559440
33663.4, 0.0565240
33883.4, 0.0567880
34106.3, 0.0567350
34332.1, 0.0567880
34561.0, 0.0571570
34792.9, 0.0574210
35028.0, 0.0581590
35266.3, 0.0572630
35507.8, 0.0569460
35752.7, 0.0576320
36001.0, 0.0588440
36252.8, 0.0591080
36508.1, 0.0580010
36767.0, 0.0575790
37029.7, 0.0576320
37296.1, 0.0578430
37566.3, 0.0578950
37840.5, 0.0577900
38118.8, 0.0575260
38401.2, 0.0574210
38687.8, 0.0578430
38978.6, 0.0576840
39273.9, 0.0567350
39573.7, 0.0565770
39878.1, 0.0563660
40187.3, 0.0555230
40501.2, 0.0552060
40820.0, 0.0552590
41144.0, 0.0553120
41473.2, 0.0544680
41807.6, 0.0542040
42147.5, 0.0543100
42493.0, 0.0546790
42844.2, 0.0541520
43201.2, 0.0531500
43564.3, 0.0528330
43933.5, 0.0515680
44309.0, 0.0496700
44691.0, 0.0495120
45079.6, 0.0498810
45475.0, 0.0495120
45877.5, 0.0488260
46287.1, 0.0490370
46704.2, 0.0480350
47128.7, 0.0462950
47561.1, 0.0460320
48001.5, 0.0467170
48450.1, 0.0463480
48907.2, 0.0463480
49373.0, 0.0460320
49847.7, 0.0458210
50331.5, 0.0461370
50825.0, 0.0460320
51328.2, 0.0464530
51841.5, 0.0475080
52365.1, 0.0482460
52899.4, 0.0489320
53444.8, 0.0483520
54001.5, 0.0482460
54570.1, 0.0486680
55150.6, 0.0485100
55743.6, 0.0485100
56349.5, 0.0495120
56968.7, 0.0501970
57601.7, 0.0501440
58248.9, 0.0494590
58910.9, 0.0509350
59588.1, 0.0549950
60281.0, 0.0554700
60990.2, 0.0545210
61716.3, 0.0566830
62459.8, 0.0580010
63221.6, 0.0575260
64002.1, 0.0584750
64802.1, 0.0567880
65622.1, 0.0544680
66463.4, 0.0511990
67326.6, 0.0487730
68212.4, 0.0497230
69121.9, 0.0489320
70056.0, 0.0475610
71015.7, 0.0460840
72002.0, 0.0424990
73016.3, 0.0418130
74059.4, 0.0426570
75132.7, 0.0407060
76237.6, 0.0401260
77375.5, 0.0401790
78547.9, 0.0384910
79756.3, 0.0374900
81002.5, 0.0362770
82288.5, 0.0336930
83615.7, 0.0372790
84986.5, 0.0411280
86402.9, 0.0398620
87867.4, 0.0395460
89382.4, 0.0420240
90950.5, 0.0419710
92574.6, 0.0404950
94257.2, 0.0413390
96002.7, 0.0424460
97814.1, 0.0396510
99695.1, 0.0373310
101650.0, 0.0393880
103683.0, 0.0416550
105799.0, 0.0398100
108003.0, 0.0387550
110301.0, 0.0432370
112699.0, 0.0418130
115204.0, 0.0374900
117822.0, 0.0363300
120562.0, 0.0398620
123433.0, 0.0425510
126443.0, 0.0472970
129604.0, 0.0547320
132926.0, 0.0548900
136424.0, 0.0573680
140111.0, 0.0707610
144003.0, 0.0762450
148118.0, 0.0691790
152474.0, 0.0567880
157095.0, 0.0556280
162004.0, 0.0652770
167231.0, 0.0814650
172805.0, 0.0914830
178764.0, 0.0877920
185148.0, 0.0662260
192005.0, 0.0486680
199390.0, 0.0462420
207366.0, 0.0682830
216006.0, 0.0971780
