Database of Origin,USGS Spectral Database
Sample Description,See USGS database for additional info
Date Added,2017-07-03 05:44:10.264860

Data ID,USGS_alu12          
Sample ID,alunite_gds96.1308
Mineral Name,alunite
Material Class,Sulfate

Wavelength
1299.94, 0.672812
1300.26, 0.667856
1300.59, 0.666016
1300.92, 0.662334
1301.24, 0.666724
1301.57, 0.676069
1301.9, 0.677698
1302.22, 0.670972
1302.55, 0.677273
1302.88, 0.672175
1303.21, 0.673874
1303.53, 0.678830
1303.86, 0.677698
1304.19, 0.673025
1304.52, 0.676140
1304.85, 0.677768
1305.17, 0.681308
1305.5, 0.680388
1305.83, 0.676211
1306.16, 0.675786
1306.49, 0.677910
1306.82, 0.680813
1307.15, 0.678901
1307.48, 0.676140
1307.81, 0.676990
1308.14, 0.678618
1308.47, 0.679963
1308.8, 0.678193
1309.13, 0.683078
1309.46, 0.681167
1309.79, 0.680954
1310.12, 0.682654
1310.45, 0.684565
1310.79, 0.679751
1311.12, 0.678193
1311.45, 0.674582
1311.78, 0.678760
1312.11, 0.684848
1312.44, 0.682370
1312.78, 0.672671
1313.11, 0.677910
1313.44, 0.682512
1313.77, 0.679114
1314.11, 0.678264
1314.44, 0.681946
1314.77, 0.682016
1315.11, 0.688388
1315.44, 0.694265
1315.78, 0.690937
1316.11, 0.689946
1316.44, 0.690017
1316.78, 0.681025
1317.11, 0.681450
1317.45, 0.677981
1317.78, 0.684140
1318.12, 0.686477
1318.45, 0.691220
1318.79, 0.687397
1319.12, 0.680884
1319.46, 0.678972
1319.8, 0.685273
1320.13, 0.686477
1320.47, 0.681946
1320.8, 0.684990
1321.14, 0.688176
1321.48, 0.686831
1321.81, 0.684990
1322.15, 0.680459
1322.49, 0.686123
1322.83, 0.685415
1323.16, 0.688176
1323.5, 0.688388
1323.84, 0.691291
1324.18, 0.689238
1324.52, 0.683503
1324.85, 0.680813
1325.19, 0.684565
1325.53, 0.686689
1325.87, 0.689804
1326.21, 0.689663
1326.55, 0.687468
1326.89, 0.685910
1327.23, 0.690229
1327.57, 0.689734
1327.91, 0.688601
1328.25, 0.688318
1328.59, 0.683291
1328.93, 0.684424
1329.27, 0.690866
1329.61, 0.689450
1329.95, 0.686548
1330.29, 0.684353
1330.64, 0.689450
1330.98, 0.689380
1331.32, 0.691362
1331.66, 0.690300
1332.0, 0.691150
1332.34, 0.691928
1332.69, 0.693274
1333.03, 0.690229
1333.37, 0.691362
1333.72, 0.689309
1334.06, 0.689167
1334.4, 0.683574
1334.75, 0.684282
1335.09, 0.684424
1335.43, 0.690088
1335.78, 0.689026
1336.12, 0.690442
1336.47, 0.690300
1336.81, 0.692778
1337.16, 0.685910
1337.5, 0.686194
1337.85, 0.689026
1338.19, 0.689521
1338.54, 0.682087
1338.88, 0.683503
1339.23, 0.686406
1339.58, 0.684565
1339.92, 0.686477
1340.27, 0.692141
1340.61, 0.693557
1340.96, 0.689592
1341.31, 0.686052
1341.66, 0.687539
1342.0, 0.693344
1342.35, 0.695893
1342.7, 0.691504
1343.05, 0.689875
1343.39, 0.687468
1343.74, 0.686548
1344.09, 0.686406
1344.44, 0.692424
1344.79, 0.689663
1345.14, 0.684424
1345.48, 0.686689
1345.83, 0.690512
1346.18, 0.688176
1346.53, 0.688530
1346.88, 0.689521
1347.23, 0.692990
1347.58, 0.687751
1347.93, 0.689167
1348.28, 0.689026
1348.64, 0.691928
1348.99, 0.693769
1349.34, 0.689663
1349.69, 0.694052
1350.04, 0.696035
1350.39, 0.693486
1350.74, 0.697309
1351.1, 0.695185
1351.45, 0.692566
1351.8, 0.690088
1352.15, 0.694406
1352.51, 0.693415
1352.86, 0.692990
1353.21, 0.690937
1353.56, 0.692282
1353.92, 0.692636
1354.27, 0.692920
1354.63, 0.692636
1354.98, 0.696955
1355.33, 0.691504
1355.69, 0.686406
1356.04, 0.687397
1356.4, 0.690583
1356.75, 0.688813
1357.11, 0.690158
1357.46, 0.692424
1357.82, 0.691928
1358.18, 0.691574
1358.53, 0.692778
1358.89, 0.687114
1359.24, 0.687822
1359.6, 0.692636
1359.96, 0.694194
1360.31, 0.689875
1360.67, 0.690583
1361.03, 0.692707
1361.39, 0.693415
1361.74, 0.687964
1362.1, 0.686902
1362.46, 0.687326
1362.82, 0.691150
1363.18, 0.689663
1363.53, 0.687751
1363.89, 0.689521
1364.25, 0.691645
1364.61, 0.693203
1364.97, 0.696672
1365.33, 0.693344
1365.69, 0.691008
1366.05, 0.690158
1366.41, 0.695256
1366.77, 0.695822
1367.13, 0.697238
1367.49, 0.695468
1367.85, 0.697168
1368.21, 0.697522
1368.57, 0.695539
1368.93, 0.693698
1369.3, 0.694690
1369.66, 0.689238
1370.02, 0.689875
1370.38, 0.688742
1370.74, 0.689804
1371.11, 0.691787
1371.47, 0.693840
1371.83, 0.693486
1372.19, 0.694194
1372.56, 0.687256
1372.92, 0.685981
1373.29, 0.689450
1373.65, 0.693274
1374.01, 0.692849
1374.38, 0.685698
1374.74, 0.683362
1375.11, 0.687680
1375.47, 0.686264
1375.84, 0.684211
1376.2, 0.683078
1376.57, 0.692849
1376.93, 0.695539
1377.3, 0.693415
1377.67, 0.687468
1378.03, 0.689238
1378.4, 0.684424
1378.76, 0.680176
1379.13, 0.681379
1383.92, 0.700212
1384.29, 0.704531
1384.66, 0.700637
1385.03, 0.698513
1385.4, 0.685627
1385.77, 0.681379
1386.14, 0.683857
1386.51, 0.675432
1386.88, 0.675007
1387.25, 0.684353
1387.62, 0.684070
1387.99, 0.682654
1388.36, 0.677202
1388.74, 0.669060
1389.11, 0.673804
1389.48, 0.683645
1389.85, 0.685981
1390.23, 0.684282
1390.6, 0.679255
1390.97, 0.677556
1391.35, 0.679963
1391.72, 0.675715
1392.09, 0.675503
1392.47, 0.672175
1392.84, 0.675857
1393.21, 0.678760
1393.59, 0.678760
1393.96, 0.680105
1394.34, 0.678618
1394.71, 0.676990
1395.09, 0.674795
1395.46, 0.674866
1395.84, 0.676352
1396.22, 0.674936
1396.59, 0.674936
1396.97, 0.676565
1397.35, 0.676140
1397.72, 0.675715
1398.1, 0.673379
1398.48, 0.672246
1398.85, 0.671750
1399.23, 0.669556
1399.61, 0.669980
1399.99, 0.668918
1400.37, 0.669202
1400.74, 0.668564
1401.12, 0.668210
1401.5, 0.668494
1401.88, 0.667219
1402.26, 0.668564
1402.64, 0.666582
1403.02, 0.665803
1403.4, 0.667078
1403.78, 0.666653
1404.16, 0.667715
1404.54, 0.666299
1404.92, 0.662971
1405.3, 0.659290
1405.68, 0.659431
1406.06, 0.660210
1406.44, 0.661838
1406.83, 0.663962
1407.21, 0.663679
1407.59, 0.659998
1407.97, 0.658086
1408.35, 0.658865
1408.74, 0.658157
1409.12, 0.654050
1409.5, 0.654334
1409.89, 0.654404
1410.27, 0.650652
1410.65, 0.649024
1411.04, 0.654334
1411.42, 0.654758
1411.81, 0.653696
1412.19, 0.649448
1412.58, 0.648174
1412.96, 0.648528
1413.35, 0.652139
1413.73, 0.651572
1414.12, 0.649661
1414.5, 0.647608
1414.89, 0.647466
1415.28, 0.647466
1415.66, 0.647254
1416.05, 0.647395
1416.44, 0.649519
1416.82, 0.646192
1417.21, 0.641165
1417.6, 0.640032
1417.98, 0.640386
1418.37, 0.639112
1418.76, 0.636138
1419.15, 0.633660
1419.54, 0.634014
1419.93, 0.632598
1420.32, 0.627359
1420.71, 0.623111
1421.09, 0.618863
1421.48, 0.613907
1421.88, 0.610508
1422.27, 0.601658
1422.66, 0.595074
1423.05, 0.589339
1423.44, 0.584666
1423.83, 0.576878
1424.22, 0.568312
1424.61, 0.558329
1425.0, 0.549691
1425.39, 0.543178
1425.78, 0.540770
1426.18, 0.543319
1426.57, 0.553585
1426.96, 0.563710
1427.36, 0.574684
1427.75, 0.581693
1428.14, 0.582826
1428.54, 0.581197
1428.93, 0.584737
1429.32, 0.589127
1429.72, 0.587994
1430.11, 0.586507
1430.51, 0.584454
1430.9, 0.578436
1431.3, 0.575179
1431.69, 0.575462
1432.09, 0.581056
1432.48, 0.592596
1432.88, 0.599534
1433.28, 0.603287
1433.67, 0.604703
1434.07, 0.607110
1434.46, 0.611641
1434.86, 0.615323
1435.26, 0.617872
1435.66, 0.619429
1436.05, 0.622403
1436.45, 0.624385
1436.85, 0.625801
1437.25, 0.626155
1437.65, 0.627854
1438.05, 0.629908
1438.44, 0.633589
1438.84, 0.634934
1439.24, 0.633164
1439.64, 0.631182
1440.04, 0.632315
1440.44, 0.632244
1440.84, 0.633235
1441.24, 0.632173
1441.65, 0.629483
1442.05, 0.627500
1442.45, 0.627784
1442.85, 0.625093
1443.25, 0.624739
1443.65, 0.626438
1444.05, 0.627500
1444.46, 0.628562
1444.86, 0.627996
1445.26, 0.625447
1445.67, 0.626792
1446.07, 0.628987
1446.47, 0.628704
1446.88, 0.627146
1447.28, 0.625164
1447.68, 0.624173
1448.09, 0.622615
1448.49, 0.620350
1448.9, 0.619996
1449.3, 0.620845
1449.71, 0.619925
1450.11, 0.619500
1450.52, 0.618013
1450.93, 0.616880
1451.33, 0.614261
1451.74, 0.613411
1452.14, 0.615181
1452.55, 0.614261
1452.96, 0.611783
1453.36, 0.610579
1453.77, 0.607818
1454.18, 0.608172
1454.59, 0.609446
1455.0, 0.609942
1455.41, 0.607039
1455.81, 0.605057
1456.22, 0.605552
1456.63, 0.602508
1457.04, 0.602862
1457.45, 0.604774
1457.86, 0.603924
1458.27, 0.603145
1458.68, 0.602366
1459.09, 0.603074
1459.5, 0.603428
1459.91, 0.605269
1460.32, 0.604703
1460.74, 0.604490
1461.15, 0.607039
1461.56, 0.608314
1461.97, 0.608880
1462.39, 0.608243
1462.8, 0.609871
1463.21, 0.611500
1463.62, 0.611924
1464.04, 0.610650
1464.45, 0.610579
1464.86, 0.610225
1465.28, 0.610508
1465.69, 0.611216
1466.11, 0.610933
1466.52, 0.610296
1466.94, 0.609446
1467.35, 0.607464
1467.77, 0.608101
1468.18, 0.608668
1468.6, 0.607181
1469.02, 0.605552
1469.43, 0.601092
1469.85, 0.599534
1470.27, 0.598260
1470.68, 0.594224
1471.1, 0.591109
1471.52, 0.588560
1471.94, 0.584596
1472.35, 0.580064
1472.77, 0.576383
1473.19, 0.571002
1473.61, 0.564347
1474.03, 0.556913
1474.45, 0.551603
1474.87, 0.542328
1475.29, 0.531283
1475.71, 0.519389
1476.13, 0.509831
1476.55, 0.500556
1476.97, 0.493901
1477.39, 0.491777
1477.81, 0.495246
1478.23, 0.500556
1478.65, 0.505441
1479.07, 0.516203
1479.5, 0.529301
1479.92, 0.541974
1480.34, 0.555355
1480.76, 0.568878
1481.19, 0.578011
1481.61, 0.585728
1482.03, 0.595428
1482.46, 0.603145
1482.88, 0.609163
1483.31, 0.614756
1483.73, 0.617305
1484.16, 0.618934
1484.58, 0.625093
1485.01, 0.628775
1485.43, 0.630262
1485.86, 0.633023
1486.28, 0.633872
1486.71, 0.633872
1487.14, 0.637696
1487.56, 0.637625
1487.99, 0.638050
1488.42, 0.638545
1488.84, 0.639466
1489.27, 0.642085
1489.7, 0.644422
1490.13, 0.641519
1490.56, 0.641660
1490.98, 0.641519
1491.41, 0.641165
1491.84, 0.641519
1492.27, 0.643076
1492.7, 0.643926
1493.13, 0.643784
1493.56, 0.644776
1493.99, 0.648599
1494.42, 0.649590
1494.85, 0.648174
1495.29, 0.645484
1495.72, 0.643997
1496.15, 0.643643
1496.58, 0.647537
1497.01, 0.649802
1497.44, 0.647608
1497.88, 0.647041
1498.31, 0.648528
1498.74, 0.648599
1499.18, 0.651643
1499.61, 0.651926
1500.04, 0.652493
1500.48, 0.654688
1500.91, 0.656458
1501.35, 0.655112
1501.78, 0.654900
1502.22, 0.655466
1502.65, 0.657307
1503.09, 0.656458
1503.53, 0.654971
1503.96, 0.656741
1504.4, 0.658936
1504.83, 0.661909
1505.27, 0.661555
1505.71, 0.659785
1506.15, 0.662334
1506.58, 0.663892
1507.02, 0.665237
1507.46, 0.665095
1507.9, 0.667432
1508.34, 0.667502
1508.78, 0.666582
1509.21, 0.668564
1509.66, 0.671255
1510.09, 0.671680
1510.53, 0.671255
1510.97, 0.671750
1511.42, 0.672458
1511.86, 0.672104
1512.3, 0.671750
1512.74, 0.670618
1513.18, 0.673025
1513.62, 0.674582
1514.06, 0.674724
1514.51, 0.674441
1514.95, 0.675078
1515.39, 0.673733
1515.83, 0.671538
1516.28, 0.674582
1516.72, 0.678122
1517.16, 0.677273
1517.61, 0.676423
1518.05, 0.676777
1518.5, 0.676282
1518.94, 0.675574
1519.39, 0.676140
1519.83, 0.676706
1520.28, 0.676919
1520.73, 0.677768
1521.17, 0.677344
1521.62, 0.676636
1522.07, 0.676706
1522.51, 0.678760
1522.96, 0.679609
1523.41, 0.678406
1523.85, 0.679751
1524.3, 0.680884
1524.75, 0.681804
1525.2, 0.681804
1525.65, 0.680600
1526.1, 0.679538
1526.55, 0.680530
1527.0, 0.679751
1527.45, 0.680671
1527.9, 0.682724
1528.35, 0.683149
1528.8, 0.680671
1529.25, 0.681450
1529.7, 0.681521
1530.15, 0.679680
1530.6, 0.679397
1531.05, 0.680884
1531.51, 0.682016
1531.96, 0.683078
1532.41, 0.682583
1532.87, 0.682937
1533.32, 0.683291
1533.77, 0.684494
1534.23, 0.685273
1534.68, 0.683999
1535.14, 0.682937
1535.59, 0.683362
1536.05, 0.683645
1536.5, 0.683857
1536.96, 0.684140
1537.41, 0.684070
1537.87, 0.684494
1538.32, 0.686264
1538.78, 0.686264
1539.24, 0.683857
1539.7, 0.684140
1540.15, 0.685344
1540.61, 0.686406
1541.07, 0.686052
1541.53, 0.685061
1541.98, 0.685698
1542.44, 0.686264
1542.9, 0.687822
1543.36, 0.686548
1543.82, 0.686972
1544.28, 0.687185
1544.74, 0.686760
1545.2, 0.685132
1545.66, 0.686902
1546.12, 0.687256
1546.59, 0.688318
1547.05, 0.687610
1547.51, 0.686972
1547.97, 0.686548
1548.43, 0.685698
1548.9, 0.685769
1549.36, 0.687114
1549.82, 0.687539
1550.29, 0.688105
1550.75, 0.688601
1551.21, 0.688459
1551.68, 0.687256
1552.14, 0.687964
1552.61, 0.687822
1553.07, 0.688176
1553.54, 0.688176
1554.0, 0.687964
1554.47, 0.688318
1554.93, 0.688955
1555.4, 0.688388
1555.87, 0.687964
1556.34, 0.686194
1556.8, 0.687256
1557.27, 0.688955
1557.74, 0.688105
1558.21, 0.688176
1558.68, 0.688176
1559.14, 0.687326
1559.61, 0.688813
1560.08, 0.689167
1560.55, 0.689521
1561.02, 0.689521
1561.49, 0.689804
1561.96, 0.688388
1562.43, 0.688388
1562.9, 0.689450
1563.38, 0.690229
1563.85, 0.690158
1564.32, 0.690229
1564.79, 0.688530
1565.26, 0.688459
1565.74, 0.689096
1566.21, 0.689592
1566.68, 0.689026
1567.16, 0.688459
1567.63, 0.688459
1568.1, 0.689592
1568.58, 0.688955
1569.05, 0.688388
1569.53, 0.687680
1570.0, 0.689521
1570.48, 0.689167
1570.96, 0.688318
1571.43, 0.687680
1571.91, 0.689450
1572.39, 0.690229
1572.86, 0.689309
1573.34, 0.686760
1573.82, 0.688105
1574.3, 0.689521
1574.77, 0.689380
1575.25, 0.689450
1575.73, 0.691150
1576.21, 0.689804
1576.69, 0.689026
1577.17, 0.688955
1577.65, 0.689238
1578.13, 0.689309
1578.61, 0.689450
1579.09, 0.689521
1579.57, 0.691928
1580.05, 0.692353
1580.54, 0.690725
1581.02, 0.690371
1581.5, 0.690158
1581.98, 0.688601
1582.47, 0.687256
1582.95, 0.686689
1583.43, 0.688176
1583.92, 0.690229
1584.4, 0.690300
1584.88, 0.688176
1585.37, 0.688176
1585.85, 0.689167
1586.34, 0.689734
1586.82, 0.690442
1587.31, 0.690866
1587.8, 0.690017
1588.28, 0.689592
1588.77, 0.689734
1589.26, 0.690725
1589.74, 0.690229
1590.23, 0.690158
1590.72, 0.690512
1591.21, 0.690654
1591.7, 0.689663
1592.19, 0.691433
1592.67, 0.692636
1593.16, 0.692141
1593.65, 0.691504
1594.14, 0.689167
1594.63, 0.689238
1595.12, 0.690583
1595.61, 0.690512
1596.11, 0.691150
1596.6, 0.689875
1597.09, 0.690088
1597.58, 0.690300
1598.08, 0.690229
1598.57, 0.690158
1599.06, 0.691504
1599.55, 0.691645
1600.05, 0.691291
1600.54, 0.689804
1601.04, 0.689167
1601.53, 0.689521
1602.03, 0.689309
1602.52, 0.688247
1603.02, 0.690088
1603.51, 0.690725
1604.01, 0.690725
1604.5, 0.690088
1605.0, 0.689875
1605.5, 0.690654
1606.0, 0.691858
1606.49, 0.690300
1606.99, 0.690088
1607.49, 0.689946
1607.99, 0.690937
1608.49, 0.691999
1608.99, 0.692495
1609.49, 0.691645
1609.99, 0.690442
1610.49, 0.689734
1610.99, 0.690725
1611.49, 0.690796
1611.99, 0.691150
1612.49, 0.691291
1612.99, 0.691150
1613.49, 0.690229
1614.0, 0.691150
1614.5, 0.691433
1615.0, 0.690654
1615.51, 0.690583
1616.01, 0.691079
1616.51, 0.691787
1617.02, 0.690796
1617.52, 0.689450
1618.03, 0.689946
1618.53, 0.689309
1619.04, 0.688105
1619.54, 0.688884
1620.05, 0.690158
1620.55, 0.690866
1621.06, 0.691150
1621.57, 0.691787
1622.08, 0.692424
1622.58, 0.691362
1623.09, 0.691150
1623.6, 0.691008
1624.11, 0.691079
1624.62, 0.691220
1625.13, 0.692070
1625.64, 0.691504
1626.15, 0.691928
1626.66, 0.692282
1627.17, 0.691928
1627.68, 0.691504
1628.19, 0.690654
1628.7, 0.690512
1629.21, 0.691504
1629.72, 0.690654
1630.24, 0.690654
1630.75, 0.689875
1631.26, 0.690512
1631.78, 0.689804
1632.29, 0.690300
1632.8, 0.690371
1633.32, 0.691362
1633.83, 0.691928
1634.35, 0.691574
1634.86, 0.690796
1635.38, 0.689946
1635.9, 0.689521
1636.41, 0.690512
1636.93, 0.690512
1637.45, 0.690512
1637.96, 0.691008
1638.48, 0.691787
1639.0, 0.690512
1639.52, 0.689167
1640.04, 0.688034
1640.56, 0.688247
1641.08, 0.687893
1641.59, 0.688530
1642.11, 0.688530
1642.63, 0.688813
1643.16, 0.689026
1643.68, 0.689663
1644.2, 0.689238
1644.72, 0.689521
1645.24, 0.690088
1645.76, 0.690158
1646.29, 0.690300
1646.81, 0.690442
1647.33, 0.690300
1647.86, 0.689450
1648.38, 0.688884
1648.9, 0.689380
1649.43, 0.688813
1649.95, 0.689238
1650.48, 0.688672
1651.0, 0.689309
1651.53, 0.690371
1652.06, 0.690371
1652.58, 0.689521
1653.11, 0.688459
1653.64, 0.687539
1654.17, 0.687822
1654.69, 0.688388
1655.22, 0.688955
1655.75, 0.689096
1656.28, 0.689238
1656.81, 0.688530
1657.34, 0.688105
1657.87, 0.687610
1658.4, 0.687468
1658.93, 0.687468
1659.46, 0.687610
1659.99, 0.687964
1660.52, 0.689026
1661.05, 0.688318
1661.59, 0.688318
1662.12, 0.687822
1662.65, 0.687539
1663.19, 0.688884
1663.72, 0.688530
1664.26, 0.687185
1664.79, 0.687751
1665.32, 0.687822
1665.86, 0.687539
1666.39, 0.686406
1666.93, 0.687185
1667.47, 0.687256
1668.0, 0.687822
1668.54, 0.689309
1669.08, 0.688105
1669.61, 0.686689
1670.15, 0.686548
1670.69, 0.685415
1671.23, 0.685627
1671.77, 0.686831
1672.31, 0.686335
1672.85, 0.685344
1673.39, 0.685486
1673.93, 0.685698
1674.47, 0.686972
1675.01, 0.688247
1675.55, 0.686831
1676.09, 0.685061
1676.64, 0.683857
1677.18, 0.682441
1677.72, 0.682158
1678.26, 0.683574
1678.81, 0.684282
1679.35, 0.683999
1679.89, 0.684353
1680.44, 0.683362
1680.98, 0.683149
1681.53, 0.683078
1682.07, 0.683574
1682.62, 0.681804
1683.17, 0.683574
1683.71, 0.683078
1684.26, 0.679609
1684.81, 0.676990
1685.36, 0.678760
1685.9, 0.680884
1686.45, 0.683503
1687.0, 0.684211
1687.55, 0.684636
1688.1, 0.684353
1688.65, 0.683503
1689.2, 0.684211
1689.75, 0.684353
1690.3, 0.682937
1690.85, 0.678760
1691.41, 0.674795
1691.96, 0.674370
1692.51, 0.677273
1693.06, 0.678406
1693.61, 0.673945
1694.17, 0.671963
1694.72, 0.674936
1695.28, 0.677414
1695.83, 0.680246
1696.39, 0.681733
1696.94, 0.680671
1697.5, 0.678264
1698.05, 0.675928
1698.61, 0.675998
1699.17, 0.678052
1699.72, 0.676919
1700.28, 0.676069
1700.84, 0.677344
1701.4, 0.678689
1701.95, 0.680034
1702.51, 0.679892
1703.07, 0.677839
1703.63, 0.676494
1704.19, 0.677414
1704.75, 0.678193
1705.31, 0.675149
1705.88, 0.672458
1706.44, 0.674087
1707.0, 0.677131
1707.56, 0.677273
1708.12, 0.675149
1708.69, 0.673308
1709.25, 0.674158
1709.81, 0.674582
1710.38, 0.674087
1710.94, 0.673450
1711.51, 0.673379
1712.07, 0.674016
1712.64, 0.673379
1713.2, 0.671609
1713.77, 0.671609
1714.34, 0.672954
1714.9, 0.672671
1715.47, 0.672388
1716.04, 0.672034
1716.61, 0.671680
1717.18, 0.671326
1717.74, 0.670405
1718.31, 0.670122
1718.88, 0.670122
1719.45, 0.670405
1720.02, 0.670193
1720.59, 0.669272
1721.17, 0.668706
1721.74, 0.667927
1722.31, 0.667856
1722.88, 0.666936
1723.45, 0.666511
1724.03, 0.666370
1724.6, 0.664529
1725.18, 0.663962
1725.75, 0.663184
1726.33, 0.663184
1726.9, 0.662971
1727.48, 0.661130
1728.05, 0.660847
1728.63, 0.660564
1729.2, 0.659573
1729.78, 0.658369
1730.36, 0.657095
1730.94, 0.656953
1731.51, 0.656953
1732.09, 0.655254
1732.67, 0.654829
1733.25, 0.653838
1733.83, 0.653413
1734.41, 0.653201
1734.99, 0.653838
1735.57, 0.652280
1736.15, 0.650086
1736.73, 0.649024
1737.32, 0.648740
1737.9, 0.647891
1738.48, 0.647183
1739.07, 0.646970
1739.65, 0.646687
1740.23, 0.645271
1740.82, 0.644563
1741.4, 0.644138
1741.99, 0.643076
1742.57, 0.641660
1743.16, 0.640952
1743.74, 0.639961
1744.33, 0.638899
1744.92, 0.638191
1745.51, 0.637271
1746.09, 0.635572
1746.68, 0.634580
1747.27, 0.633731
1747.86, 0.633377
1748.45, 0.632598
1749.04, 0.631678
1749.63, 0.629908
1750.22, 0.628350
1750.81, 0.627500
1751.4, 0.626651
1751.99, 0.626368
1752.59, 0.627217
1753.18, 0.626580
1753.77, 0.625660
1754.37, 0.625447
1754.96, 0.625518
1755.56, 0.624952
1756.15, 0.624314
1756.74, 0.623819
1757.34, 0.623465
1757.94, 0.622615
1758.53, 0.621695
1759.13, 0.620562
1759.73, 0.620562
1760.32, 0.619429
1760.92, 0.618509
1761.52, 0.618084
1762.12, 0.617588
1762.72, 0.617022
1763.32, 0.616880
1763.92, 0.616243
1764.52, 0.615889
1765.12, 0.615040
1765.72, 0.614261
1766.32, 0.613553
1766.92, 0.613694
1767.53, 0.614332
1768.13, 0.614402
1768.73, 0.613765
1769.34, 0.614261
1769.94, 0.616172
1770.55, 0.617447
1771.15, 0.618226
1771.76, 0.617942
1772.36, 0.618226
1772.97, 0.620208
1773.57, 0.621836
1774.18, 0.623394
1774.79, 0.624244
1775.4, 0.624173
1776.0, 0.624952
1776.61, 0.625447
1777.22, 0.625730
1777.83, 0.625943
1778.44, 0.626155
1779.05, 0.626084
1779.66, 0.626014
1780.27, 0.627784
1780.88, 0.630191
1781.5, 0.631111
1782.11, 0.631890
1782.72, 0.633306
1783.33, 0.635288
1783.95, 0.636563
1784.56, 0.637625
1785.18, 0.638828
1785.79, 0.640244
1786.41, 0.642014
1787.02, 0.643218
1787.64, 0.644563
1788.26, 0.645979
1788.87, 0.647466
1789.49, 0.649024
1790.11, 0.650864
1790.73, 0.652351
1791.35, 0.653909
1791.96, 0.655254
1792.58, 0.656599
1793.21, 0.657874
1793.83, 0.659148
1794.45, 0.659077
1795.07, 0.659927
1795.69, 0.661201
1796.31, 0.661909
1796.93, 0.661909
1797.56, 0.661909
1798.18, 0.663184
1798.8, 0.664175
1799.43, 0.663254
1800.05, 0.663538
1800.68, 0.663467
1801.3, 0.663821
1801.93, 0.665095
1802.56, 0.666016
1803.18, 0.665874
1803.81, 0.665732
1804.44, 0.666016
1805.07, 0.665874
1805.7, 0.665874
1806.33, 0.666228
1806.95, 0.666370
1807.58, 0.666511
1808.22, 0.666086
1808.85, 0.666724
1809.48, 0.667715
1810.11, 0.666582
1810.74, 0.665803
1811.38, 0.666653
1812.01, 0.666936
1812.64, 0.666299
1813.28, 0.666724
1813.91, 0.667927
1814.55, 0.668352
1815.18, 0.667927
1815.82, 0.667927
1816.45, 0.668140
1817.09, 0.667502
1817.73, 0.666724
1818.36, 0.666936
1819.0, 0.667927
1819.64, 0.667786
1820.28, 0.667715
1820.92, 0.666440
1821.56, 0.666016
1822.2, 0.666794
1822.84, 0.667219
1823.48, 0.666299
1824.12, 0.666936
1824.76, 0.666724
1825.41, 0.666653
1826.05, 0.666016
1826.69, 0.665449
1827.34, 0.665803
1827.98, 0.665449
1828.63, 0.665662
1829.27, 0.666157
1829.92, 0.665449
1830.56, 0.665449
1831.21, 0.665237
1831.86, 0.665095
1832.5, 0.664316
1833.15, 0.664670
1833.8, 0.664529
1834.45, 0.664458
1835.1, 0.664458
1835.75, 0.664387
1836.4, 0.664175
1837.05, 0.663608
1837.7, 0.662192
1838.35, 0.663396
1839.01, 0.663538
1839.66, 0.662971
1840.31, 0.662405
1840.96, 0.662476
1841.62, 0.662051
1842.27, 0.662617
1842.93, 0.662830
1843.58, 0.662546
1844.24, 0.661909
1844.9, 0.661484
1845.55, 0.661201
1846.21, 0.661555
1846.87, 0.660847
1847.53, 0.660352
1848.18, 0.660564
1848.84, 0.661484
1849.5, 0.661768
1850.16, 0.660776
1850.82, 0.659927
1851.48, 0.659431
1852.14, 0.659431
1852.81, 0.659360
1853.47, 0.658652
1854.13, 0.657874
1854.8, 0.657166
1855.46, 0.657307
1856.12, 0.657024
1856.79, 0.656741
1857.45, 0.656599
1858.12, 0.657449
1858.79, 0.657024
1859.45, 0.655962
1860.12, 0.654971
1860.79, 0.654617
1861.46, 0.654900
1862.12, 0.654050
1862.79, 0.653059
1863.46, 0.652705
1864.13, 0.652634
1864.8, 0.652493
1865.48, 0.651077
1866.15, 0.650581
1866.82, 0.650723
1867.49, 0.650652
1868.16, 0.649944
1868.84, 0.649519
1869.51, 0.648316
1870.19, 0.647466
1870.86, 0.647183
1871.54, 0.647112
1872.21, 0.645484
1872.89, 0.644705
1873.56, 0.644634
1874.24, 0.643855
1874.92, 0.642581
1875.6, 0.641944
1876.28, 0.640811
1876.96, 0.639536
1877.64, 0.639324
1878.32, 0.638545
1879.0, 0.637058
1879.68, 0.635713
1880.36, 0.634864
1881.04, 0.634156
1881.73, 0.633023
1882.41, 0.631748
1883.09, 0.631040
1883.78, 0.630616
1884.46, 0.629200
1885.15, 0.627359
1885.83, 0.625801
1886.52, 0.624314
1887.21, 0.622828
1887.89, 0.621341
1888.58, 0.620208
1889.27, 0.618509
1889.96, 0.616880
1890.65, 0.615889
1891.34, 0.614261
1892.03, 0.612278
1892.72, 0.610862
1893.41, 0.608951
1894.1, 0.606968
1894.79, 0.605836
1895.49, 0.604349
1896.18, 0.602933
1896.87, 0.601021
1897.57, 0.598826
1898.26, 0.596915
1898.96, 0.596065
1899.65, 0.594578
1900.35, 0.592738
1901.05, 0.591392
1901.74, 0.590472
1902.44, 0.589339
1903.14, 0.588136
1903.84, 0.586790
1904.54, 0.585445
1905.24, 0.583746
1905.94, 0.582613
1906.64, 0.582188
1907.34, 0.580914
1908.04, 0.579569
1908.75, 0.579002
1909.45, 0.578436
1910.15, 0.578082
1910.86, 0.577586
1911.56, 0.576100
1912.27, 0.575108
1912.97, 0.575108
1913.68, 0.574825
1914.39, 0.574046
1915.09, 0.573197
1915.8, 0.572560
1916.51, 0.571781
1917.22, 0.571639
1917.93, 0.571639
1918.64, 0.571427
1919.35, 0.571073
1920.06, 0.571002
1920.77, 0.570506
1921.48, 0.570365
1922.19, 0.570436
1922.91, 0.569940
1923.62, 0.569657
1924.33, 0.569798
1925.05, 0.569657
1925.76, 0.569940
1926.48, 0.570294
1927.19, 0.570223
1927.91, 0.569374
1928.63, 0.569444
1929.35, 0.569869
1930.07, 0.570082
1930.78, 0.570506
1931.5, 0.570577
1932.22, 0.569940
1932.94, 0.570152
1933.66, 0.570365
1934.39, 0.570223
1935.11, 0.569657
1935.83, 0.569940
1936.55, 0.570436
1937.28, 0.570860
1938.0, 0.571144
1938.73, 0.571568
1939.45, 0.571498
1940.18, 0.571710
1940.9, 0.571993
1941.63, 0.572418
1942.36, 0.571781
1943.09, 0.571427
1943.81, 0.571852
1944.54, 0.571922
1945.27, 0.572418
1946.0, 0.572701
1946.73, 0.571922
1947.47, 0.571922
1948.2, 0.572772
1948.93, 0.572418
1949.66, 0.571427
1950.4, 0.571639
1951.13, 0.571568
1951.86, 0.571710
1952.6, 0.572560
1953.34, 0.573055
1954.07, 0.572914
1954.81, 0.572276
1955.55, 0.572772
1956.29, 0.572984
1957.02, 0.572843
1957.76, 0.572984
1958.5, 0.572984
1959.24, 0.572914
1959.98, 0.572701
1960.72, 0.572772
1961.47, 0.573268
1962.21, 0.573551
1962.95, 0.573551
1963.7, 0.574117
1964.44, 0.573976
1965.18, 0.574117
1965.93, 0.574471
1966.67, 0.575250
1967.42, 0.575392
1968.17, 0.575746
1968.92, 0.576170
1969.66, 0.576878
1970.41, 0.577516
1971.16, 0.577799
1971.91, 0.577870
1972.66, 0.578153
1973.41, 0.578578
1974.16, 0.579144
1974.92, 0.579710
1975.67, 0.579923
1976.42, 0.579923
1977.18, 0.580348
1977.93, 0.580135
1978.69, 0.580772
1979.44, 0.581339
1980.2, 0.581197
1980.95, 0.581339
1981.71, 0.581622
1982.47, 0.581693
1983.23, 0.582472
1983.99, 0.582826
1984.74, 0.582259
1985.51, 0.581764
1986.27, 0.581339
1987.03, 0.580914
1987.79, 0.581056
1988.55, 0.580843
1989.32, 0.581056
1990.08, 0.581126
1990.84, 0.581480
1991.61, 0.580772
1992.37, 0.580135
1993.14, 0.579923
1993.9, 0.579427
1994.67, 0.578578
1995.44, 0.578153
1996.21, 0.577445
1996.98, 0.576949
1997.75, 0.576595
1998.52, 0.576100
1999.29, 0.575250
2000.06, 0.574754
2000.83, 0.574613
2001.6, 0.574613
2002.38, 0.574259
2003.15, 0.573622
2003.93, 0.573268
2004.7, 0.573055
2005.48, 0.572135
2006.25, 0.571356
2007.03, 0.570931
2007.81, 0.571002
2008.58, 0.571144
2009.36, 0.571073
2010.14, 0.570648
2010.92, 0.570648
2011.7, 0.570860
2012.48, 0.570719
2013.26, 0.570223
2014.05, 0.570506
2014.83, 0.570294
2015.61, 0.570648
2016.4, 0.571002
2017.18, 0.571427
2017.97, 0.571639
2018.75, 0.571852
2019.54, 0.572206
2020.32, 0.572489
2021.11, 0.572064
2021.9, 0.571922
2022.69, 0.572347
2023.48, 0.573197
2024.27, 0.573126
2025.06, 0.572560
2025.85, 0.572276
2026.64, 0.572347
2027.44, 0.572276
2028.23, 0.571922
2029.02, 0.571568
2029.82, 0.571498
2030.61, 0.571144
2031.41, 0.570719
2032.2, 0.570294
2033.0, 0.569444
2033.8, 0.568949
2034.6, 0.568949
2035.4, 0.568524
2036.2, 0.568382
2037.0, 0.568241
2037.8, 0.567887
2038.6, 0.567179
2039.4, 0.567250
2040.2, 0.567037
2041.01, 0.567391
2041.81, 0.567108
2042.61, 0.566683
2043.42, 0.566258
2044.22, 0.566046
2045.03, 0.565904
2045.84, 0.565834
2046.65, 0.565196
2047.46, 0.564701
2048.26, 0.564559
2049.07, 0.564205
2049.88, 0.563356
2050.69, 0.562860
2051.51, 0.562364
2052.32, 0.562506
2053.13, 0.562506
2053.94, 0.561869
2054.76, 0.561161
2055.57, 0.560736
2056.39, 0.560524
2057.2, 0.560028
2058.02, 0.559532
2058.84, 0.559745
2059.66, 0.559462
2060.48, 0.558895
2061.29, 0.558541
2062.11, 0.558400
2062.94, 0.558612
2063.76, 0.558541
2064.58, 0.557975
2065.4, 0.558046
2066.22, 0.558187
2067.05, 0.557904
2067.87, 0.557338
2068.7, 0.557621
2069.52, 0.557621
2070.35, 0.557408
2071.18, 0.557550
2072.0, 0.558258
2072.83, 0.558612
2073.66, 0.558683
2074.49, 0.558329
2075.32, 0.558470
2076.15, 0.558754
2076.98, 0.558895
2077.82, 0.558966
2078.65, 0.559108
2079.48, 0.559037
2080.32, 0.558824
2081.15, 0.558895
2081.99, 0.559178
2082.83, 0.559178
2083.66, 0.559178
2084.5, 0.558824
2085.34, 0.558824
2086.18, 0.558754
2087.02, 0.558329
2087.86, 0.557833
2088.7, 0.557621
2089.54, 0.556842
2090.39, 0.556559
2091.23, 0.556063
2092.07, 0.555001
2092.92, 0.554364
2093.76, 0.554081
2094.61, 0.553444
2095.45, 0.553160
2096.3, 0.552240
2097.15, 0.550541
2098.0, 0.549479
2098.85, 0.548912
2099.7, 0.548275
2100.55, 0.547850
2101.4, 0.546293
2102.25, 0.544806
2103.1, 0.543744
2103.96, 0.542682
2104.81, 0.541408
2105.67, 0.539638
2106.52, 0.537372
2107.38, 0.535956
2108.24, 0.534469
2109.09, 0.532628
2109.95, 0.530080
2110.81, 0.527814
2111.67, 0.525690
2112.53, 0.523778
2113.39, 0.521796
2114.25, 0.519035
2115.12, 0.516274
2115.98, 0.513583
2116.84, 0.510751
2117.71, 0.507990
2118.58, 0.504733
2119.44, 0.501193
2120.31, 0.497936
2121.18, 0.494680
2122.04, 0.491140
2122.91, 0.487741
2123.78, 0.484484
2124.65, 0.482006
2125.52, 0.479599
2126.4, 0.477546
2127.27, 0.475422
2128.14, 0.473723
2129.02, 0.472378
2129.89, 0.470749
2130.77, 0.469475
2131.64, 0.468767
2132.52, 0.467422
2133.4, 0.465722
2134.27, 0.464165
2135.15, 0.463174
2136.03, 0.462253
2136.91, 0.461191
2137.79, 0.459988
2138.68, 0.459067
2139.56, 0.457934
2140.44, 0.456377
2141.33, 0.454394
2142.21, 0.453262
2143.1, 0.452908
2143.99, 0.453120
2144.87, 0.452837
2145.76, 0.452058
2146.65, 0.451138
2147.54, 0.449580
2148.43, 0.447952
2149.32, 0.446040
2150.21, 0.443208
2151.1, 0.439810
2151.99, 0.435703
2152.89, 0.432022
2153.78, 0.428694
2154.68, 0.425650
2155.57, 0.423101
2156.47, 0.421472
2157.37, 0.421756
2158.27, 0.422888
2159.16, 0.423809
2160.06, 0.425579
2160.96, 0.427278
2161.86, 0.428198
2162.77, 0.428765
2163.67, 0.428836
2164.57, 0.427844
2165.48, 0.426216
2166.38, 0.424163
2167.29, 0.422180
2168.2, 0.421685
2169.1, 0.422251
2170.01, 0.423950
2170.92, 0.427136
2171.83, 0.430393
2172.74, 0.433154
2173.65, 0.435562
2174.56, 0.436340
2175.47, 0.435349
2176.39, 0.433225
2177.3, 0.429685
2178.22, 0.425508
2179.13, 0.421402
2180.05, 0.418003
2180.96, 0.416587
2181.88, 0.418357
2182.8, 0.422534
2183.72, 0.428198
2184.64, 0.434854
2185.56, 0.441650
2186.48, 0.446960
2187.41, 0.450217
2188.33, 0.451492
2189.25, 0.451279
2190.18, 0.450217
2191.1, 0.450430
2192.03, 0.453262
2192.96, 0.458926
2193.89, 0.466501
2194.82, 0.476767
2195.74, 0.486467
2196.68, 0.494396
2197.61, 0.500060
2198.54, 0.503600
2199.47, 0.504946
2200.4, 0.503530
2201.34, 0.498503
2202.28, 0.490644
2203.21, 0.480590
2204.15, 0.470466
2205.08, 0.463457
2206.02, 0.460554
2206.96, 0.458359
2207.9, 0.455456
2208.84, 0.451492
2209.78, 0.448730
2210.73, 0.449014
2211.67, 0.453262
2212.61, 0.460979
2213.56, 0.471103
2214.5, 0.481582
2215.45, 0.491210
2216.4, 0.499990
2217.35, 0.508132
2218.3, 0.516061
2219.24, 0.525690
2220.2, 0.535531
2221.15, 0.544240
2222.1, 0.551320
2223.05, 0.556771
2224.0, 0.560736
2224.96, 0.563780
2225.91, 0.566188
2226.87, 0.568807
2227.83, 0.570506
2228.79, 0.572064
2229.74, 0.573622
2230.7, 0.575179
2231.66, 0.576595
2232.63, 0.577516
2233.59, 0.578224
2234.55, 0.579144
2235.51, 0.579569
2236.48, 0.579994
2237.44, 0.580418
2238.41, 0.580560
2239.38, 0.580772
2240.34, 0.581056
2241.31, 0.581410
2242.28, 0.581976
2243.25, 0.581976
2244.22, 0.581976
2245.19, 0.582047
2246.17, 0.582401
2247.14, 0.582330
2248.12, 0.582047
2249.09, 0.581764
2250.07, 0.581976
2251.04, 0.582188
2252.02, 0.582047
2253.0, 0.582118
2253.98, 0.581764
2254.96, 0.581197
2255.94, 0.581056
2256.92, 0.580702
2257.91, 0.580418
2258.89, 0.579852
2259.88, 0.579710
2260.86, 0.579781
2261.85, 0.579781
2262.83, 0.579852
2263.82, 0.579498
2264.81, 0.578790
2265.8, 0.578932
2266.79, 0.578790
2267.78, 0.578578
2268.78, 0.578224
2269.77, 0.578082
2270.76, 0.577870
2271.76, 0.577728
2272.75, 0.577232
2273.75, 0.576949
2274.75, 0.576878
2275.75, 0.576595
2276.75, 0.575675
2277.75, 0.575179
2278.75, 0.575038
2279.75, 0.574754
2280.75, 0.574117
2281.76, 0.573763
2282.76, 0.573480
2283.77, 0.572914
2284.77, 0.572489
2285.78, 0.571993
2286.79, 0.571568
2287.8, 0.570860
2288.81, 0.569940
2289.82, 0.569020
2290.83, 0.567958
2291.84, 0.567037
2292.86, 0.566117
2293.87, 0.565338
2294.89, 0.564488
2295.91, 0.563568
2296.92, 0.562294
2297.94, 0.560736
2298.96, 0.558824
2299.98, 0.557196
2301.0, 0.555497
2302.02, 0.553373
2303.04, 0.550612
2304.07, 0.547355
2305.09, 0.543673
2306.12, 0.539992
2307.15, 0.535531
2308.17, 0.530858
2309.2, 0.525619
2310.23, 0.519601
2311.26, 0.513229
2312.29, 0.507353
2313.32, 0.502043
2314.35, 0.497228
2315.39, 0.492272
2316.42, 0.488024
2317.46, 0.484980
2318.5, 0.482927
2319.53, 0.481440
2320.57, 0.480590
2321.61, 0.481369
2322.65, 0.482785
2323.69, 0.484697
2324.73, 0.487600
2325.78, 0.490573
2326.82, 0.493688
2327.86, 0.496874
2328.91, 0.500060
2329.96, 0.503388
2331.01, 0.506716
2332.05, 0.509902
2333.1, 0.513654
2334.15, 0.517052
2335.21, 0.520309
2336.26, 0.523424
2337.31, 0.526469
2338.36, 0.529513
2339.42, 0.532628
2340.48, 0.535390
2341.53, 0.537655
2342.59, 0.539567
2343.65, 0.541195
2344.71, 0.542682
2345.77, 0.543956
2346.83, 0.545018
2347.9, 0.545656
2348.96, 0.546293
2350.02, 0.546930
2351.09, 0.547001
2352.16, 0.547284
2353.23, 0.547426
2354.29, 0.547001
2355.36, 0.546788
2356.43, 0.546647
2357.51, 0.546010
2358.58, 0.545656
2359.65, 0.545302
2360.73, 0.544594
2361.8, 0.543532
2362.88, 0.542399
2363.96, 0.541266
2365.03, 0.539992
2366.11, 0.538292
2367.19, 0.536522
2368.27, 0.534682
2369.36, 0.532699
2370.44, 0.530150
2371.53, 0.527460
2372.61, 0.524416
2373.7, 0.521371
2374.78, 0.518114
2375.87, 0.514928
2376.96, 0.511105
2378.05, 0.506857
2379.14, 0.502114
2380.24, 0.497158
2381.33, 0.491423
2382.42, 0.485830
2383.52, 0.480236
2384.61, 0.474502
2385.71, 0.469192
2386.81, 0.464165
2387.91, 0.459421
2389.01, 0.455173
2390.11, 0.451492
2391.22, 0.448306
2392.32, 0.445403
2393.42, 0.443208
2394.53, 0.441580
2395.64, 0.440164
2396.74, 0.438748
2397.85, 0.438110
2398.96, 0.437969
2400.07, 0.437827
2401.18, 0.438535
2402.3, 0.440022
2403.41, 0.440801
2404.52, 0.440801
2405.64, 0.440305
2406.76, 0.439597
2407.88, 0.438181
2408.99, 0.436765
2410.11, 0.435420
2411.23, 0.434429
2412.36, 0.432730
2413.48, 0.429968
2414.6, 0.426499
2415.73, 0.423172
2416.85, 0.419632
2417.98, 0.416446
2419.11, 0.413826
2420.24, 0.411419
2421.37, 0.408374
2422.5, 0.405330
2423.64, 0.402427
2424.77, 0.398958
2425.9, 0.394993
2427.04, 0.390958
2428.18, 0.387134
2429.31, 0.384019
2430.45, 0.382249
2431.59, 0.381895
2432.73, 0.382957
2433.88, 0.385010
2435.02, 0.387772
2436.16, 0.391453
2437.31, 0.395630
2438.45, 0.399737
2439.6, 0.403489
2440.75, 0.406604
2441.9, 0.409720
2443.05, 0.412127
2444.2, 0.414322
2445.35, 0.416021
2446.51, 0.416658
2447.67, 0.416870
2448.82, 0.416941
2449.98, 0.416870
2451.14, 0.416446
2452.3, 0.415808
2453.46, 0.414746
2454.62, 0.412835
2455.78, 0.410286
2456.94, 0.407737
2458.11, 0.404410
2459.28, 0.400162
2460.44, 0.395843
2461.61, 0.391666
2462.78, 0.387418
2463.95, 0.383665
2465.12, 0.380408
2466.3, 0.378143
2467.47, 0.377364
2468.65, 0.377718
2469.82, 0.378992
2471.0, 0.381046
2472.18, 0.383453
2473.36, 0.386639
2474.54, 0.390604
2475.72, 0.394710
2476.9, 0.398321
2478.08, 0.401578
2479.27, 0.404834
2480.46, 0.407808
2481.64, 0.409720
2482.83, 0.410711
2484.02, 0.410782
2485.21, 0.410215
2486.4, 0.408587
2487.6, 0.405118
2488.79, 0.400303
2489.99, 0.394922
2491.18, 0.389825
2492.38, 0.385294
2493.58, 0.381541
2494.78, 0.378284
2495.98, 0.374886
2497.18, 0.371204
2498.39, 0.367664
2499.59, 0.363983
2500.8, 0.359381
2502.01, 0.353292
2503.21, 0.346070
2504.42, 0.337858
2505.63, 0.329220
2506.84, 0.321290
2508.06, 0.314848
2509.27, 0.310458
2510.49, 0.308122
2511.7, 0.307060
2512.92, 0.306989
2514.14, 0.308192
2515.36, 0.310600
2516.58, 0.313786
2517.8, 0.317821
2519.03, 0.322990
2520.25, 0.328724
2521.48, 0.335238
2522.7, 0.342460
2523.93, 0.350248
2525.16, 0.357894
2526.39, 0.364762
2527.62, 0.369647
2528.86, 0.372691
2530.09, 0.374674
2531.33, 0.376231
2532.56, 0.376868
2533.8, 0.376656
2535.04, 0.376868
2536.28, 0.377435
2537.52, 0.378780
2538.76, 0.380833
2540.01, 0.383524
2541.25, 0.385860
2542.5, 0.387418
2543.75, 0.388904
2544.99, 0.390250
2546.24, 0.391949
2547.49, 0.393365
2548.75, 0.394568
2550.0, 0.395064
2551.26, 0.394427
2552.51, 0.393294
2553.77, 0.391666
2555.03, 0.389542
2556.29, 0.387205
2557.55, 0.384656
2558.81, 0.382249
2560.08, 0.380338
2561.34, 0.379559
2562.61, 0.378992
2563.88, 0.378992
2565.14, 0.379630
2566.41, 0.380338
2567.68, 0.380479
2568.96, 0.380904
2570.23, 0.381612
2571.51, 0.381683
2572.78, 0.381400
2574.06, 0.380904
2575.34, 0.379842
2576.62, 0.378780
2577.9, 0.377930
2579.18, 0.376868
2580.47, 0.376090
2581.75, 0.376019
2583.04, 0.375311
2584.32, 0.375240
2585.61, 0.375452
2586.9, 0.376798
2588.2, 0.379346
2589.49, 0.382249
2590.78, 0.385648
2592.08, 0.389400
2593.37, 0.392869
2594.67, 0.396551
2595.97, 0.399808
2597.27, 0.402002
2598.57, 0.403277
2599.88, 0.403985
2601.18, 0.403985
2602.49, 0.403277
2603.79, 0.402073
2605.1, 0.400870
2606.41, 0.399808
2607.72, 0.398816
2609.03, 0.399170
2610.35, 0.401153
2611.66, 0.403985
2612.98, 0.406888
2614.3, 0.409295
2615.62, 0.410640
2616.94, 0.411419
2618.26, 0.411631
2619.58, 0.410994
2620.91, 0.410994
2622.23, 0.410428
2623.56, 0.410215
2624.89, 0.410640
2626.22, 0.411065
2627.55, 0.411985
2628.88, 0.413118
2630.21, 0.414959
2631.55, 0.417224
2632.89, 0.418428
2634.22, 0.419278
2635.56, 0.419419
2636.9, 0.419419
2638.25, 0.420056
2639.59, 0.421543
2640.93, 0.422818
2642.28, 0.423526
2643.63, 0.423030
2644.98, 0.421402
2646.33, 0.418853
2647.68, 0.415454
2649.03, 0.411206
2650.39, 0.406958
2651.74, 0.402144
2653.1, 0.396834
2654.46, 0.391453
2655.82, 0.387347
2657.18, 0.384515
2658.54, 0.382178
2659.9, 0.379984
2661.27, 0.378143
2662.64, 0.376727
2664.01, 0.375240
2665.38, 0.373895
2666.74, 0.372266
2668.12, 0.370284
2669.49, 0.367664
2670.87, 0.365540
2672.24, 0.362354
2673.62, 0.358319
2675.0, 0.354779
2676.38, 0.352584
2677.76, 0.351310
2679.15, 0.350602
2680.54, 0.350318
2681.92, 0.349681
2683.31, 0.349540
2684.7, 0.349823
2686.09, 0.350672
2687.48, 0.351097
2688.88, 0.351664
2690.27, 0.352584
2691.67, 0.353080
2693.07, 0.351947
2694.47, 0.349823
2695.87, 0.346920
2697.27, 0.343168
2698.67, 0.339132
2700.08, 0.335521
2701.49, 0.331769
2702.9, 0.327308
2704.31, 0.322140
2705.72, 0.316972
2707.13, 0.311803
2708.54, 0.306635
2709.96, 0.301042
2711.38, 0.295236
2712.8, 0.288368
2714.22, 0.280934
2715.64, 0.274067
2717.06, 0.267695
2718.49, 0.261394
2719.91, 0.255446
2721.34, 0.249641
2722.77, 0.243623
2724.2, 0.237959
2725.63, 0.232578
2727.07, 0.227339
2728.5, 0.222100
2729.94, 0.216719
2731.38, 0.211196
2732.82, 0.205178
2734.26, 0.199019
2735.7, 0.193142
2737.15, 0.186912
2738.59, 0.180823
2740.04, 0.175088
2741.49, 0.169566
2742.94, 0.164752
2744.39, 0.160645
2745.84, 0.157247
2747.3, 0.154202
2748.76, 0.151300
2750.21, 0.148538
2751.67, 0.145848
2753.14, 0.143016
2754.6, 0.139618
2756.06, 0.135794
2757.53, 0.131405
2759.0, 0.126732
2760.46, 0.122342
2761.94, 0.118165
2763.41, 0.113563
2764.88, 0.108253
2766.36, 0.102731
2767.83, 0.0975620
2769.31, 0.0929600
2770.79, 0.0889250
2772.27, 0.0853850
2773.76, 0.0826240
2775.24, 0.0804290
2776.73, 0.0782340
2778.22, 0.0761810
2779.71, 0.0744820
2781.2, 0.0728530
2782.69, 0.0715080
2784.18, 0.0700210
2785.68, 0.0677560
2787.18, 0.0654190
2788.68, 0.0635780
2790.18, 0.0620210
2791.68, 0.0607460
2793.19, 0.0593300
2794.69, 0.0576310
2796.2, 0.0557900
2797.71, 0.0538080
2799.22, 0.0516130
2800.73, 0.0493480
2802.24, 0.0472240
2803.76, 0.0453830
2805.28, 0.0435420
2806.8, 0.0422680
2808.32, 0.0414180
2809.84, 0.0403560
2811.36, 0.0392940
2812.89, 0.0380200
2814.42, 0.0363200
2815.94, 0.0344800
2817.48, 0.0325680
2819.01, 0.0305860
2820.54, 0.0285320
2822.08, 0.0266210
2823.61, 0.0245680
2825.15, 0.0224440
2826.69, 0.0205320
2828.23, 0.0189740
2829.78, 0.0175580
2831.32, 0.0167090
2832.87, 0.0166380
2834.42, 0.0179120
2835.97, 0.0209570
2837.52, 0.0259840
2839.08, 0.0322140
2840.63, 0.0373120
2842.19, 0.0398600
2843.75, 0.0401440
2845.31, 0.0383740
2846.87, 0.0346920
2848.44, 0.0294530
2850.0, 0.0241430
2851.57, 0.0203200
2853.14, 0.0186200
2854.71, 0.0196120
2856.28, 0.0240720
2857.86, 0.0329930
2859.43, 0.0456660
2861.01, 0.0579850
2862.59, 0.0668350
2864.17, 0.0710830
2865.76, 0.0712250
2867.34, 0.0671180
2868.93, 0.0592600
2870.52, 0.0499850
2872.11, 0.0423380
2873.7, 0.0373820
2875.29, 0.0347630
2876.89, 0.0337720
2878.49, 0.0341260
2880.08, 0.0352580
2881.69, 0.0367450
2883.29, 0.0380200
2884.89, 0.0393650
2886.5, 0.0409220
2888.11, 0.0422680
2889.72, 0.0431170
2891.33, 0.0439670
2892.94, 0.0451000
2894.56, 0.0462320
2896.17, 0.0471530
2897.79, 0.0478610
2899.42, 0.0485690
2901.04, 0.0491350
2902.66, 0.0494890
2904.29, 0.0494890
2905.92, 0.0492770
2907.55, 0.0492770
2909.18, 0.0494180
2910.81, 0.0498430
2912.45, 0.0504800
2914.08, 0.0509050
2915.72, 0.0514010
2917.36, 0.0517550
2919.01, 0.0516840
2920.65, 0.0517550
2922.3, 0.0519670
2923.94, 0.0519670
2925.59, 0.0514720
2927.25, 0.0509760
2928.9, 0.0507640
2930.56, 0.0506930
2932.21, 0.0502680
2933.87, 0.0496310
2935.53, 0.0489230
2937.2, 0.0484270
2938.86, 0.0481440
2940.53, 0.0480020
2942.2, 0.0484270
2943.87, 0.0489940
2945.54, 0.0496310
2947.22, 0.0503390
2948.89, 0.0510470
2950.57, 0.0518260
2952.25, 0.0526040
2953.93, 0.0533830
2955.62, 0.0541620
2957.3, 0.0550120
2958.99, 0.0559320
2960.68, 0.0568520
2962.37, 0.0577730
2964.07, 0.0586930
2965.76, 0.0594720
2967.46, 0.0603220
2969.16, 0.0611000
2970.86, 0.0614540
2972.56, 0.0614540
2974.27, 0.0616670
2975.98, 0.0621620
2977.69, 0.0628700
2979.4, 0.0644280
2981.11, 0.0664810
2982.83, 0.0681800
2984.54, 0.0693840
2986.26, 0.0702340
2987.98, 0.0710830
2989.71, 0.0719330
2991.43, 0.0732780
2993.16, 0.0744820
2994.89, 0.0756850
2996.62, 0.0766760
2998.35, 0.0772430
3000.09, 0.0773140
3001.83, 0.0770300
3003.57, 0.0764640
3005.31, 0.0756140
3007.05, 0.0746230
3008.79, 0.0739860
3010.54, 0.0737740
3012.29, 0.0741280
3014.04, 0.0749770
3015.8, 0.0758980
3017.55, 0.0767470
3019.31, 0.0773840
3021.07, 0.0782340
3022.83, 0.0788710
3024.59, 0.0795080
3026.36, 0.0803580
3028.13, 0.0809240
3029.9, 0.0812780
3031.67, 0.0816320
3033.44, 0.0819860
3035.22, 0.0821990
3037.0, 0.0824820
3038.78, 0.0827650
3040.56, 0.0827650
3042.34, 0.0825530
3044.13, 0.0825530
3045.92, 0.0827650
3047.71, 0.0826940
3049.5, 0.0823400
3051.3, 0.0817030
3053.09, 0.0809240
3054.89, 0.0805000
3056.69, 0.0803580
3058.5, 0.0800750
3060.3, 0.0800040
3062.11, 0.0798620
3063.92, 0.0795080
3065.73, 0.0792960
3067.55, 0.0790840
3069.36, 0.0786590
3071.18, 0.0783050
3073.0, 0.0783760
3074.82, 0.0785880
3076.65, 0.0787300
3078.48, 0.0785170
3080.31, 0.0783050
3082.14, 0.0781630
3083.97, 0.0783050
3085.8, 0.0788710
3087.64, 0.0796500
3089.48, 0.0805700
3091.33, 0.0814200
3093.17, 0.0821280
3095.02, 0.0828360
3096.87, 0.0838270
3098.72, 0.0849600
3100.57, 0.0861640
3102.43, 0.0871550
3104.28, 0.0879340
3106.14, 0.0887830
3108.01, 0.0894200
3109.87, 0.0897040
3111.74, 0.0897040
3113.61, 0.0894910
3115.48, 0.0890660
3117.35, 0.0886420
3119.23, 0.0877920
3121.1, 0.0870130
3122.98, 0.0868010
3124.87, 0.0870130
3126.75, 0.0875090
3128.64, 0.0880040
3130.53, 0.0884290
3132.42, 0.0891370
3134.31, 0.0900580
3136.21, 0.0908360
3138.11, 0.0914030
3140.01, 0.0918280
3141.91, 0.0920400
3143.82, 0.0921820
3145.73, 0.0923940
3147.64, 0.0926060
3149.55, 0.0928190
3151.46, 0.0928900
3153.38, 0.0928900
3155.3, 0.0931730
3157.22, 0.0933140
3159.14, 0.0933850
3161.07, 0.0934560
3163.0, 0.0935270
3164.93, 0.0937390
3166.86, 0.0938810
3168.8, 0.0940930
3170.74, 0.0944470
3172.68, 0.0948010
3174.62, 0.0951550
3176.56, 0.0952260
3178.51, 0.0952970
3180.46, 0.0954380
3182.42, 0.0955090
3184.37, 0.0955800
3186.33, 0.0956510
3188.29, 0.0957920
3190.25, 0.0959340
3192.21, 0.0960050
3194.18, 0.0962170
3196.15, 0.0964300
3198.12, 0.0965000
3200.09, 0.0965710
3202.07, 0.0968540
3204.05, 0.0968540
3206.03, 0.0969250
3208.02, 0.0969960
3210.0, 0.0970670
3211.99, 0.0971380
3213.98, 0.0971380
3215.98, 0.0971380
3217.97, 0.0972790
3219.97, 0.0974210
3221.97, 0.0976330
3223.98, 0.0977750
3225.98, 0.0979160
3227.99, 0.0979160
3230.0, 0.0981290
3232.02, 0.0982000
3234.03, 0.0984120
3236.05, 0.0986950
3238.07, 0.0987660
3240.1, 0.0987660
3242.12, 0.0991910
3244.15, 0.0994740
3246.18, 0.0996160
3248.22, 0.0995450
3250.25, 0.0995450
3252.29, 0.0997570
3254.33, 0.0998990
3256.38, 0.100040
3258.43, 0.100182
3260.47, 0.100253
3262.53, 0.100324
3264.58, 0.100324
3266.64, 0.100536
3268.7, 0.100890
3270.76, 0.101173
3272.82, 0.101386
3274.89, 0.101527
3276.96, 0.101669
3279.04, 0.101810
3281.11, 0.102164
3283.19, 0.102377
3285.27, 0.102518
3287.35, 0.102589
3289.44, 0.102518
3291.53, 0.102660
3293.62, 0.102802
3295.71, 0.102731
3297.81, 0.102731
3299.91, 0.103085
3302.01, 0.103297
3304.11, 0.103510
3306.22, 0.103793
3308.33, 0.104218
3310.44, 0.104359
3312.56, 0.104572
3314.68, 0.105067
3316.8, 0.105421
3318.92, 0.105634
3321.05, 0.105775
3323.18, 0.105846
3325.31, 0.106129
3327.44, 0.106554
3329.58, 0.106837
3331.72, 0.107050
3333.86, 0.107262
3336.01, 0.107616
3338.16, 0.107899
3340.31, 0.108041
3342.46, 0.108253
3344.61, 0.108466
3346.77, 0.108749
3348.94, 0.109032
3351.1, 0.109528
3353.27, 0.109952
3355.44, 0.110448
3357.61, 0.110873
3359.79, 0.111298
3361.97, 0.111652
3364.15, 0.112147
3366.33, 0.112501
3368.52, 0.112997
3370.71, 0.113351
3372.9, 0.113634
3375.1, 0.113917
3377.3, 0.114200
3379.5, 0.114484
3381.71, 0.114696
3383.91, 0.114979
3386.12, 0.115333
3388.34, 0.115687
3390.55, 0.116112
3392.77, 0.116395
3394.99, 0.116678
3397.22, 0.116820
3399.45, 0.117103
3401.68, 0.117457
3403.91, 0.117670
3406.15, 0.118024
3408.39, 0.118236
3410.63, 0.118307
3412.87, 0.118732
3415.12, 0.119156
3417.37, 0.119510
3419.63, 0.119864
3421.88, 0.120289
3424.14, 0.120714
3426.41, 0.121280
3428.67, 0.122059
3430.94, 0.122696
3433.21, 0.123121
3435.49, 0.123334
3437.77, 0.123758
3440.05, 0.124112
3442.33, 0.124466
3444.62, 0.124962
3446.91, 0.125528
3449.2, 0.126024
3451.5, 0.126378
3453.8, 0.126661
3456.1, 0.127015
3458.41, 0.127440
3460.72, 0.127794
3463.03, 0.128219
3465.34, 0.128644
3467.66, 0.128998
3469.98, 0.129422
3472.31, 0.129918
3474.63, 0.130272
3476.96, 0.130838
3479.3, 0.131334
3481.64, 0.131830
3483.97, 0.132184
3486.32, 0.132325
3488.66, 0.132608
3491.01, 0.133033
3493.36, 0.133387
3495.72, 0.133812
3498.08, 0.134237
3500.44, 0.134591
3502.81, 0.135086
3505.18, 0.135582
3507.55, 0.136007
3509.92, 0.136644
3512.3, 0.137210
3514.68, 0.137777
3517.06, 0.138414
3519.45, 0.138910
3521.84, 0.139122
3524.24, 0.139547
3526.64, 0.140042
3529.04, 0.140680
3531.44, 0.141175
3533.85, 0.141600
3536.26, 0.142096
3538.67, 0.142662
3541.09, 0.143228
3543.51, 0.143724
3545.93, 0.144149
3548.36, 0.144715
3550.79, 0.145423
3553.22, 0.146060
3555.66, 0.146485
3558.1, 0.147052
3560.54, 0.147618
3562.99, 0.148114
3565.44, 0.148609
3567.9, 0.149105
3570.35, 0.149671
3572.81, 0.150167
3575.28, 0.150804
3577.75, 0.151441
3580.22, 0.151937
3582.69, 0.152574
3585.17, 0.153211
3587.65, 0.153848
3590.14, 0.154486
3592.62, 0.155123
3595.11, 0.155689
3597.61, 0.156256
3600.11, 0.156822
3602.61, 0.157530
3605.11, 0.158026
3607.62, 0.158592
3610.14, 0.159158
3612.65, 0.159654
3615.17, 0.160291
3617.69, 0.160928
3620.22, 0.161495
3622.75, 0.162203
3625.28, 0.162698
3627.82, 0.163265
3630.36, 0.163760
3632.9, 0.164398
3635.45, 0.165035
3638.0, 0.165460
3640.56, 0.165884
3643.12, 0.166309
3645.68, 0.166876
3648.24, 0.167442
3650.81, 0.168008
3653.39, 0.168575
3655.96, 0.169070
3658.54, 0.169495
3661.13, 0.169991
3663.71, 0.170345
3666.3, 0.170840
3668.9, 0.171194
3671.5, 0.171619
3674.1, 0.172186
3676.7, 0.172469
3679.31, 0.172681
3681.93, 0.173035
3684.54, 0.173318
3687.17, 0.173743
3689.79, 0.174097
3692.42, 0.174310
3695.05, 0.174734
3697.69, 0.175301
3700.32, 0.175584
3702.97, 0.175726
3705.61, 0.175938
3708.27, 0.176434
3710.92, 0.177000
3713.58, 0.177425
3716.24, 0.177708
3718.91, 0.177991
3721.58, 0.178204
3724.25, 0.178345
3726.93, 0.178487
3729.61, 0.178628
3732.29, 0.178628
3734.98, 0.178841
3737.67, 0.179124
3740.37, 0.179336
3743.07, 0.179549
3745.78, 0.179620
3748.49, 0.179690
3751.2, 0.179761
3753.91, 0.179761
3756.63, 0.179761
3759.36, 0.179832
3762.09, 0.179903
3764.82, 0.180044
3767.55, 0.180115
3770.29, 0.180044
3773.04, 0.180115
3775.78, 0.180186
3778.54, 0.180328
3781.29, 0.180328
3784.05, 0.180398
3786.82, 0.180257
3789.59, 0.180115
3792.36, 0.179974
3795.13, 0.179832
3797.92, 0.179761
3800.7, 0.179761
3803.49, 0.179761
3806.28, 0.179690
3809.08, 0.179620
3811.88, 0.179478
3814.68, 0.179336
3817.49, 0.179266
3820.31, 0.179053
3823.12, 0.178912
3825.94, 0.178699
3828.77, 0.178558
3831.6, 0.178558
3834.43, 0.178416
3837.27, 0.178345
3840.11, 0.178204
3842.96, 0.178133
3845.81, 0.177850
3848.67, 0.177496
3851.53, 0.177283
3854.39, 0.177142
3857.26, 0.176788
3860.13, 0.176221
3863.01, 0.175372
3865.89, 0.173106
3868.77, 0.170062
3871.66, 0.169849
3874.55, 0.172469
3877.45, 0.174522
3880.35, 0.175230
3883.26, 0.175372
3886.17, 0.175513
3889.09, 0.175584
3892.01, 0.175372
3894.93, 0.175088
3897.86, 0.175018
3900.79, 0.174805
3903.73, 0.174664
3906.67, 0.174451
3909.62, 0.174168
3912.57, 0.173956
3915.52, 0.173814
3918.48, 0.173460
3921.45, 0.173248
3924.42, 0.173035
3927.39, 0.172894
3930.37, 0.172752
3933.35, 0.172469
3936.34, 0.172256
3939.33, 0.172044
3942.32, 0.171761
3945.32, 0.171478
3948.33, 0.171265
3951.34, 0.171053
3954.35, 0.170911
3957.37, 0.170840
3960.39, 0.170628
3963.42, 0.170203
3966.45, 0.169920
3969.49, 0.169708
3972.53, 0.169424
3975.58, 0.169283
3978.63, 0.169141
3981.68, 0.168929
3984.75, 0.168646
3987.81, 0.168362
3990.88, 0.168079
3993.95, 0.167867
3997.03, 0.167725
4000.12, 0.167513
4003.21, 0.167300
4006.3, 0.167088
4009.4, 0.166946
4012.5, 0.166805
4015.61, 0.166592
4018.72, 0.166451
4021.84, 0.166309
4024.96, 0.166097
4028.09, 0.165955
4031.22, 0.165743
4034.36, 0.165460
4037.5, 0.165247
4040.65, 0.165035
4043.8, 0.164893
4046.96, 0.164822
4050.12, 0.164610
4053.29, 0.164398
4056.46, 0.164185
4059.64, 0.163973
4062.82, 0.163690
4066.0, 0.163477
4069.19, 0.163265
4072.39, 0.163123
4075.59, 0.162982
4078.8, 0.162840
4082.01, 0.162769
4085.23, 0.162628
4088.45, 0.162628
4091.68, 0.162557
4094.91, 0.162486
4098.15, 0.162486
4101.39, 0.162415
4104.63, 0.162344
4107.89, 0.162274
4111.14, 0.162344
4114.41, 0.162274
4117.67, 0.162203
4120.95, 0.162132
4124.23, 0.162132
4127.51, 0.162061
4130.8, 0.162061
4134.09, 0.162061
4137.39, 0.162203
4140.7, 0.162203
4144.01, 0.162344
4147.32, 0.162628
4150.64, 0.162840
4153.97, 0.163052
4157.3, 0.163336
4160.64, 0.163831
4163.98, 0.164327
4167.33, 0.164681
4170.68, 0.165035
4174.04, 0.165318
4177.4, 0.165601
4180.77, 0.165743
4184.14, 0.165814
4187.52, 0.165814
4190.91, 0.165884
4194.3, 0.165884
4197.69, 0.165884
4201.1, 0.165814
4204.5, 0.165743
4207.92, 0.165743
4211.34, 0.165601
4214.76, 0.165389
4218.19, 0.165035
4221.62, 0.164327
4225.06, 0.163690
4228.51, 0.162840
4231.96, 0.161707
4235.42, 0.160645
4238.88, 0.159512
4242.35, 0.158450
4245.83, 0.157530
4249.31, 0.156610
4252.79, 0.155760
4256.28, 0.155123
4259.78, 0.154415
4263.29, 0.153778
4266.79, 0.153070
4270.31, 0.152432
4273.83, 0.151724
4277.35, 0.151087
4280.89, 0.150521
4284.42, 0.150025
4287.97, 0.149459
4291.52, 0.148963
4295.07, 0.148326
4298.63, 0.147618
4302.2, 0.146839
4305.78, 0.145848
4309.35, 0.144503
4312.94, 0.142662
4316.53, 0.140255
4320.13, 0.137423
4323.73, 0.134378
4327.34, 0.131405
4330.96, 0.128219
4334.58, 0.125316
4338.21, 0.122980
4341.84, 0.121139
4345.48, 0.119581
4349.12, 0.118236
4352.77, 0.117103
4356.43, 0.116041
4360.1, 0.115121
4363.76, 0.114200
4367.44, 0.113563
4371.12, 0.113209
4374.81, 0.112997
4378.51, 0.113280
4382.21, 0.113846
4385.92, 0.114767
4389.63, 0.115900
4393.35, 0.116749
4397.08, 0.117457
4400.81, 0.118094
4404.55, 0.118307
4408.29, 0.118448
4412.04, 0.118307
4415.8, 0.117811
4419.57, 0.117174
4423.34, 0.116395
4427.12, 0.115404
4430.9, 0.114413
4434.69, 0.113563
4438.49, 0.112784
4442.29, 0.112289
4446.1, 0.112006
4449.92, 0.111510
4453.74, 0.110802
4457.57, 0.110165
4461.41, 0.109811
4465.25, 0.109386
4469.1, 0.108820
4472.95, 0.107970
4476.82, 0.106696
4480.69, 0.105138
4484.56, 0.103297
4488.44, 0.101527
4492.33, 0.100040
4496.23, 0.0991910
4500.13, 0.0989080
4504.04, 0.0991910
4507.96, 0.0998280
4511.88, 0.100324
4515.81, 0.100678
4519.75, 0.100890
4523.69, 0.100890
4527.65, 0.100819
4531.6, 0.100394
4535.57, 0.0996860
4539.54, 0.0986240
4543.52, 0.0974920
4547.5, 0.0965000
4551.5, 0.0959340
4555.5, 0.0957220
4559.5, 0.0957920
4563.52, 0.0956510
4567.54, 0.0950840
4571.56, 0.0938100
4575.6, 0.0917570
4579.64, 0.0891370
4583.69, 0.0865180
4587.75, 0.0843940
4591.81, 0.0830480
4595.88, 0.0827650
4599.96, 0.0834730
4604.04, 0.0850310
4608.14, 0.0871550
4612.24, 0.0894910
4616.34, 0.0918980
4620.46, 0.0940930
4624.58, 0.0960050
4628.71, 0.0977750
4632.84, 0.0998280
4636.99, 0.102377
4641.14, 0.105350
4645.3, 0.108395
4649.47, 0.111510
4653.64, 0.114271
4657.82, 0.115970
4662.01, 0.115970
4666.21, 0.114342
4670.41, 0.111864
4674.62, 0.109740
4678.84, 0.108607
4683.07, 0.108466
4687.3, 0.108536
4691.54, 0.108324
4695.79, 0.107758
4700.05, 0.107050
4704.31, 0.106342
4708.59, 0.105209
4712.87, 0.103439
4717.15, 0.101244
4721.45, 0.0989080
4725.76, 0.0969960
4730.07, 0.0963590
4734.39, 0.0977040
4738.72, 0.101102
4743.05, 0.106200
4747.39, 0.112289
4751.75, 0.118802
4756.1, 0.125104
4760.47, 0.131263
4764.85, 0.137989
4769.23, 0.145282
4773.62, 0.153140
4778.02, 0.160928
4782.43, 0.168008
4786.85, 0.173885
4791.27, 0.178628
4795.7, 0.182168
4800.14, 0.185000
4804.59, 0.187337
4809.05, 0.189036
4813.51, 0.190240
4817.99, 0.191018
4822.47, 0.191302
4826.96, 0.190948
4831.46, 0.189956
4835.96, 0.187974
4840.48, 0.185354
4845.0, 0.182947
4849.54, 0.182027
4854.08, 0.183230
4858.63, 0.186275
4863.18, 0.189886
4867.75, 0.193001
4872.33, 0.195125
4876.91, 0.196045
4881.5, 0.196328
4886.1, 0.197036
4890.71, 0.198806
4895.33, 0.200860
4899.96, 0.202630
4904.59, 0.203904
4909.24, 0.204895
4913.89, 0.205745
4918.55, 0.206453
4923.22, 0.207019
4927.9, 0.207515
4932.59, 0.207798
4937.29, 0.208152
4942.0, 0.208364
4946.71, 0.208435
4951.44, 0.208435
4956.17, 0.208648
4960.91, 0.208860
4965.67, 0.208931
4970.43, 0.208789
4975.2, 0.208860
4979.98, 0.208789
4984.76, 0.208648
4989.56, 0.208648
4994.37, 0.208718
4999.18, 0.208718
5004.01, 0.208577
5008.84, 0.208506
5013.69, 0.208435
5018.54, 0.208294
5023.4, 0.208152
5028.28, 0.207869
5033.16, 0.207727
5038.05, 0.207586
5042.95, 0.207373
5047.86, 0.207232
5052.78, 0.206948
5057.71, 0.206524
5062.65, 0.206170
5067.6, 0.205957
5072.56, 0.205674
5077.53, 0.205391
5082.5, 0.205108
5087.49, 0.204683
5092.49, 0.204329
5097.5, 0.203975
5102.51, 0.203621
5107.54, 0.203125
5112.58, 0.202771
5117.62, 0.202417
5122.68, 0.202063
5127.75, 0.201638
5132.82, 0.201214
5137.91, 0.200789
5143.01, 0.200364
5148.12, 0.199939
5153.23, 0.199444
5158.36, 0.199090
5163.5, 0.198665
5168.65, 0.198169
5173.81, 0.197744
5178.98, 0.197390
5184.15, 0.197036
5189.34, 0.196612
5194.54, 0.196187
5199.75, 0.195833
5204.98, 0.195479
5210.21, 0.195054
5215.45, 0.194700
5220.7, 0.194346
5225.96, 0.193850
5231.23, 0.193355
5236.52, 0.192930
5241.81, 0.192576
5247.12, 0.192080
5252.44, 0.191514
5257.76, 0.190735
5263.1, 0.189956
5268.45, 0.189532
5273.81, 0.189036
5279.18, 0.188328
5284.56, 0.187691
5289.95, 0.187266
5295.36, 0.186770
5300.77, 0.186062
