Database of Origin, USGS Spectral Database
Sample Description, See USGS database for additional info
Date Added,2016-08-03 21:01:00.144673

Data ID,USGS_ano04          
Sample ID, anorthite_hs201.2625
Mineral Name, anorthite
Material Class,Tectosilicate

Wavelength
1404.54, 0.801613
1404.92, 0.800951
1405.3, 0.798764
1405.68, 0.799427
1406.06, 0.797373
1406.44, 0.798168
1406.83, 0.798963
1407.21, 0.795783
1407.59, 0.797572
1407.97, 0.797969
1408.35, 0.796180
1408.74, 0.798433
1409.12, 0.798897
1409.5, 0.798433
1409.89, 0.797240
1410.27, 0.798102
1410.65, 0.797042
1411.04, 0.797373
1411.42, 0.798367
1411.81, 0.798632
1412.19, 0.796909
1412.58, 0.795716
1412.96, 0.797042
1413.35, 0.796710
1413.73, 0.796313
1414.12, 0.799294
1414.5, 0.800023
1414.89, 0.798566
1415.28, 0.796048
1415.66, 0.796843
1416.05, 0.800421
1416.44, 0.798831
1416.82, 0.797505
1417.21, 0.799096
1417.6, 0.799096
1417.98, 0.799692
1418.37, 0.799891
1418.76, 0.800222
1419.15, 0.799493
1419.54, 0.799294
1419.93, 0.797174
1420.32, 0.797240
1420.71, 0.796975
1421.09, 0.796843
1421.48, 0.797903
1421.88, 0.797638
1422.27, 0.799096
1422.66, 0.799162
1423.05, 0.797439
1423.44, 0.800818
1423.83, 0.797042
1424.22, 0.797638
1424.61, 0.800553
1425.0, 0.800818
1425.39, 0.799228
1425.78, 0.798433
1426.18, 0.800951
1426.57, 0.800487
1426.96, 0.798566
1427.36, 0.797704
1427.75, 0.798035
1428.14, 0.799228
1428.54, 0.798897
1428.93, 0.797903
1429.32, 0.799427
1429.72, 0.799361
1430.11, 0.798499
1430.51, 0.797439
1430.9, 0.797505
1431.3, 0.801481
1431.69, 0.801746
1432.09, 0.799758
1432.48, 0.801348
1432.88, 0.800156
1433.28, 0.802144
1433.67, 0.803999
1434.07, 0.802210
1434.46, 0.799228
1434.86, 0.799824
1435.26, 0.801017
1435.66, 0.799493
1436.05, 0.797704
1436.45, 0.795253
1436.85, 0.796843
1437.25, 0.799361
1437.65, 0.798963
1438.05, 0.797572
1438.44, 0.799294
1438.84, 0.802409
1439.24, 0.801812
1439.64, 0.801282
1440.04, 0.799692
1440.44, 0.802409
1440.84, 0.799559
1441.24, 0.797307
1441.65, 0.797770
1442.05, 0.799493
1442.45, 0.799029
1442.85, 0.800156
1443.25, 0.799824
1443.65, 0.798234
1444.05, 0.800752
1444.46, 0.802674
1444.86, 0.802276
1445.26, 0.800818
1445.67, 0.800421
1446.07, 0.799758
1446.47, 0.799162
1446.88, 0.800487
1447.28, 0.799692
1447.68, 0.799824
1448.09, 0.800421
1448.49, 0.799758
1448.9, 0.802409
1449.3, 0.802342
1449.71, 0.800620
1450.11, 0.801945
1450.52, 0.802342
1450.93, 0.800089
1451.33, 0.800355
1451.74, 0.801746
1452.14, 0.801680
1452.55, 0.802342
1452.96, 0.800620
1453.36, 0.801216
1453.77, 0.804463
1454.18, 0.803535
1454.59, 0.803005
1455.0, 0.803071
1455.41, 0.803137
1455.81, 0.801945
1456.22, 0.802475
1456.63, 0.803402
1457.04, 0.803734
1457.45, 0.803734
1457.86, 0.805457
1458.27, 0.804661
1458.68, 0.804529
1459.09, 0.804264
1459.5, 0.804529
1459.91, 0.803535
1460.32, 0.803005
1460.74, 0.804463
1461.15, 0.802475
1461.56, 0.802276
1461.97, 0.802144
1462.39, 0.804860
1462.8, 0.804860
1463.21, 0.802541
1463.62, 0.803668
1464.04, 0.804330
1464.45, 0.803800
1464.86, 0.803535
1465.28, 0.802740
1465.69, 0.803204
1466.11, 0.803734
1466.52, 0.801481
1466.94, 0.801017
1467.35, 0.802342
1467.77, 0.802541
1468.18, 0.803535
1468.6, 0.804926
1469.02, 0.806185
1469.43, 0.804661
1469.85, 0.802011
1470.27, 0.803668
1470.68, 0.803535
1471.1, 0.804661
1471.52, 0.805722
1471.94, 0.806252
1472.35, 0.805258
1472.77, 0.803071
1473.19, 0.803204
1473.61, 0.803800
1474.03, 0.804264
1474.45, 0.806119
1474.87, 0.807113
1475.29, 0.805854
1475.71, 0.802541
1476.13, 0.803071
1476.55, 0.804661
1476.97, 0.807179
1477.39, 0.807908
1477.81, 0.807908
1478.23, 0.807312
1478.65, 0.804264
1479.07, 0.804396
1479.5, 0.806185
1479.92, 0.806583
1480.34, 0.804860
1480.76, 0.805987
1481.19, 0.807643
1481.61, 0.807908
1482.03, 0.806252
1482.46, 0.805854
1482.88, 0.805589
1483.31, 0.804860
1483.73, 0.803933
1484.16, 0.803535
1484.58, 0.805722
1485.01, 0.806981
1485.43, 0.805987
1485.86, 0.806715
1486.28, 0.806981
1486.71, 0.806914
1487.14, 0.805854
1487.56, 0.804661
1487.99, 0.804993
1488.42, 0.803668
1488.84, 0.806252
1489.27, 0.806252
1489.7, 0.806450
1490.13, 0.807511
1490.56, 0.807179
1490.98, 0.807709
1491.41, 0.807776
1491.84, 0.808571
1492.27, 0.807974
1492.7, 0.806649
1493.13, 0.806185
1493.56, 0.806583
1493.99, 0.808041
1494.42, 0.809631
1494.85, 0.810028
1495.29, 0.807974
1495.72, 0.809763
1496.15, 0.808571
1496.58, 0.808306
1497.01, 0.807179
1497.44, 0.806119
1497.88, 0.806848
1498.31, 0.808505
1498.74, 0.809366
1499.18, 0.809830
1499.61, 0.808637
1500.04, 0.808902
1500.48, 0.807776
1500.91, 0.805920
1501.35, 0.806119
1501.78, 0.808173
1502.22, 0.809896
1502.65, 0.811486
1503.09, 0.808637
1503.53, 0.808571
1503.96, 0.808902
1504.4, 0.809830
1504.83, 0.810227
1505.27, 0.809233
1505.71, 0.810956
1506.15, 0.811287
1506.58, 0.809233
1507.02, 0.809432
1507.46, 0.811354
1507.9, 0.811221
1508.34, 0.811486
1508.78, 0.810757
1509.21, 0.811751
1509.66, 0.810824
1510.09, 0.811287
1510.53, 0.811884
1510.97, 0.812149
1511.42, 0.811155
1511.86, 0.810492
1512.3, 0.810028
1512.74, 0.809167
1513.18, 0.809498
1513.62, 0.810360
1514.06, 0.810426
1514.51, 0.809697
1514.95, 0.811486
1515.39, 0.812348
1515.83, 0.812215
1516.28, 0.811751
1516.72, 0.810294
1517.16, 0.811155
1517.61, 0.810757
1518.05, 0.810956
1518.5, 0.810757
1518.94, 0.811818
1519.39, 0.811751
1519.83, 0.810956
1520.28, 0.809167
1520.73, 0.809233
1521.17, 0.811089
1521.62, 0.812215
1522.07, 0.812546
1522.51, 0.812679
1522.96, 0.812745
1523.41, 0.811685
1523.85, 0.811287
1524.3, 0.813938
1524.75, 0.813938
1525.2, 0.814004
1525.65, 0.813076
1526.1, 0.813540
1526.55, 0.813673
1527.0, 0.812811
1527.45, 0.812016
1527.9, 0.813540
1528.35, 0.814004
1528.8, 0.813673
1529.25, 0.813275
1529.7, 0.814269
1530.15, 0.813474
1530.6, 0.812613
1531.05, 0.811950
1531.51, 0.813739
1531.96, 0.814468
1532.41, 0.814070
1532.87, 0.813805
1533.32, 0.814998
1533.77, 0.814733
1534.23, 0.813010
1534.68, 0.812348
1535.14, 0.813673
1535.59, 0.814004
1536.05, 0.811950
1536.5, 0.811287
1536.96, 0.813673
1537.41, 0.814137
1537.87, 0.812811
1538.32, 0.813275
1538.78, 0.813607
1539.24, 0.814733
1539.7, 0.815528
1540.15, 0.814137
1540.61, 0.812215
1541.07, 0.812546
1541.53, 0.812083
1541.98, 0.811221
1542.44, 0.813010
1542.9, 0.813673
1543.36, 0.814865
1543.82, 0.814667
1544.28, 0.813540
1544.74, 0.813540
1545.2, 0.813408
1545.66, 0.814137
1546.12, 0.814600
1546.59, 0.814335
1547.05, 0.817052
1547.51, 0.816787
1547.97, 0.814667
1548.43, 0.815528
1548.9, 0.816191
1549.36, 0.814534
1549.82, 0.814998
1550.29, 0.816456
1550.75, 0.815992
1551.21, 0.815329
1551.68, 0.815462
1552.14, 0.816456
1552.61, 0.816522
1553.07, 0.816389
1553.54, 0.816588
1554.0, 0.816853
1554.47, 0.816456
1554.93, 0.816191
1555.4, 0.816522
1555.87, 0.815859
1556.34, 0.814534
1556.8, 0.814799
1557.27, 0.817317
1557.74, 0.816191
1558.21, 0.814600
1558.68, 0.814932
1559.14, 0.815992
1559.61, 0.816655
1560.08, 0.817185
1560.55, 0.816986
1561.02, 0.818178
1561.49, 0.817781
1561.96, 0.815528
1562.43, 0.815594
1562.9, 0.816787
1563.38, 0.817052
1563.85, 0.816323
1564.32, 0.815926
1564.79, 0.815926
1565.26, 0.817118
1565.74, 0.818178
1566.21, 0.817317
1566.68, 0.817317
1567.16, 0.817715
1567.63, 0.817582
1568.1, 0.818245
1568.58, 0.818642
1569.05, 0.818709
1569.53, 0.818974
1570.0, 0.818245
1570.48, 0.818046
1570.96, 0.820100
1571.43, 0.820498
1571.91, 0.819967
1572.39, 0.818775
1572.86, 0.818841
1573.34, 0.817383
1573.82, 0.818642
1574.3, 0.818642
1574.77, 0.817185
1575.25, 0.816257
1575.73, 0.817980
1576.21, 0.817516
1576.69, 0.818377
1577.17, 0.818709
1577.65, 0.819040
1578.13, 0.819636
1578.61, 0.819835
1579.09, 0.819967
1579.57, 0.819835
1580.05, 0.820365
1580.54, 0.819570
1581.02, 0.820166
1581.5, 0.820299
1581.98, 0.819305
1582.47, 0.818841
1582.95, 0.818974
1583.43, 0.819901
1583.92, 0.819570
1584.4, 0.819305
1584.88, 0.820034
1585.37, 0.820034
1585.85, 0.819371
1586.34, 0.818974
1586.82, 0.819239
1587.31, 0.820166
1587.8, 0.820498
1588.28, 0.819106
1588.77, 0.819769
1589.26, 0.819570
1589.74, 0.818974
1590.23, 0.819371
1590.72, 0.819172
1591.21, 0.820233
1591.7, 0.821425
1592.19, 0.820961
1592.67, 0.820630
1593.16, 0.820829
1593.65, 0.820696
1594.14, 0.820166
1594.63, 0.819437
1595.12, 0.819504
1595.61, 0.819040
1596.11, 0.820498
1596.6, 0.821690
1597.09, 0.821955
1597.58, 0.822353
1598.08, 0.821160
1598.57, 0.820564
1599.06, 0.821359
1599.55, 0.820431
1600.05, 0.819769
1600.54, 0.820431
1601.04, 0.821823
1601.53, 0.821690
1602.03, 0.821293
1602.52, 0.821955
1603.02, 0.822022
1603.51, 0.821558
1604.01, 0.821226
1604.5, 0.821955
1605.0, 0.821889
1605.5, 0.821359
1606.0, 0.820696
1606.49, 0.821425
1606.99, 0.821624
1607.49, 0.821160
1607.99, 0.822419
1608.49, 0.822353
1608.99, 0.822618
1609.49, 0.821624
1609.99, 0.822022
1610.49, 0.820961
1610.99, 0.820299
1611.49, 0.821094
1611.99, 0.821756
1612.49, 0.821491
1612.99, 0.821690
1613.49, 0.822154
1614.0, 0.822419
1614.5, 0.823280
1615.0, 0.823082
1615.51, 0.822220
1616.01, 0.821955
1616.51, 0.821823
1617.02, 0.822022
1617.52, 0.822022
1618.03, 0.822022
1618.53, 0.822485
1619.04, 0.822883
1619.54, 0.822817
1620.05, 0.822419
1620.55, 0.823280
1621.06, 0.823148
1621.57, 0.822618
1622.08, 0.822684
1622.58, 0.823612
1623.09, 0.822949
1623.6, 0.822287
1624.11, 0.820630
1624.62, 0.821624
1625.13, 0.822022
1625.64, 0.822949
1626.15, 0.822817
1626.66, 0.822618
1627.17, 0.823479
1627.68, 0.823214
1628.19, 0.822949
1628.7, 0.822817
1629.21, 0.823612
1629.72, 0.823877
1630.24, 0.822817
1630.75, 0.823015
1631.26, 0.823347
1631.78, 0.824208
1632.29, 0.826395
1632.8, 0.826859
1633.32, 0.824871
1633.83, 0.823479
1634.35, 0.823479
1634.86, 0.823877
1635.38, 0.824341
1635.9, 0.824142
1636.41, 0.824937
1636.93, 0.825202
1637.45, 0.824937
1637.96, 0.824473
1638.48, 0.824539
1639.0, 0.824009
1639.52, 0.824738
1640.04, 0.824606
1640.56, 0.824672
1641.08, 0.824142
1641.59, 0.823612
1642.11, 0.824274
1642.63, 0.823280
1643.16, 0.823015
1643.68, 0.823479
1644.2, 0.824208
1644.72, 0.825401
1645.24, 0.825467
1645.76, 0.824539
1646.29, 0.824539
1646.81, 0.825136
1647.33, 0.825997
1647.86, 0.825997
1648.38, 0.825865
1648.9, 0.826262
1649.43, 0.825997
1649.95, 0.825533
1650.48, 0.826063
1651.0, 0.825533
1651.53, 0.824871
1652.06, 0.825202
1652.58, 0.824274
1653.11, 0.823877
1653.64, 0.825202
1654.17, 0.825136
1654.69, 0.824738
1655.22, 0.824208
1655.75, 0.824341
1656.28, 0.825202
1656.81, 0.825600
1657.34, 0.825732
1657.87, 0.825600
1658.4, 0.826328
1658.93, 0.826461
1659.46, 0.825600
1659.99, 0.825467
1660.52, 0.825997
1661.05, 0.826461
1661.59, 0.826196
1662.12, 0.825666
1662.65, 0.826660
1663.19, 0.826726
1663.72, 0.826461
1664.26, 0.826196
1664.79, 0.825732
1665.32, 0.825533
1665.86, 0.825931
1666.39, 0.826196
1666.93, 0.826395
1667.47, 0.826660
1668.0, 0.826527
1668.54, 0.825533
1669.08, 0.825533
1669.61, 0.826196
1670.15, 0.826130
1670.69, 0.825600
1671.23, 0.825997
1671.77, 0.827124
1672.31, 0.827654
1672.85, 0.827654
1673.39, 0.827322
1673.93, 0.828117
1674.47, 0.827786
1675.01, 0.826262
1675.55, 0.825865
1676.09, 0.826262
1676.64, 0.826925
1677.18, 0.827057
1677.72, 0.827256
1678.26, 0.826328
1678.81, 0.826328
1679.35, 0.826859
1679.89, 0.827322
1680.44, 0.826792
1680.98, 0.825732
1681.53, 0.825467
1682.07, 0.826395
1682.62, 0.828250
1683.17, 0.829310
1683.71, 0.828780
1684.26, 0.827587
1684.81, 0.827322
1685.36, 0.827389
1685.9, 0.827256
1686.45, 0.827124
1687.0, 0.826792
1687.55, 0.826130
1688.1, 0.828250
1688.65, 0.828382
1689.2, 0.828316
1689.75, 0.827985
1690.3, 0.827124
1690.85, 0.828581
1691.41, 0.828449
1691.96, 0.828117
1692.51, 0.827587
1693.06, 0.828184
1693.61, 0.828647
1694.17, 0.827985
1694.72, 0.827654
1695.28, 0.827985
1695.83, 0.828780
1696.39, 0.828316
1696.94, 0.828714
1697.5, 0.829641
1698.05, 0.829178
1698.61, 0.827985
1699.17, 0.828581
1699.72, 0.828647
1700.28, 0.828714
1700.84, 0.829111
1701.4, 0.829443
1701.95, 0.828979
1702.51, 0.828382
1703.07, 0.827654
1703.63, 0.828449
1704.19, 0.828581
1704.75, 0.828117
1705.31, 0.827852
1705.88, 0.828051
1706.44, 0.828979
1707.0, 0.829708
1707.56, 0.829310
1708.12, 0.829310
1708.69, 0.829244
1709.25, 0.828780
1709.81, 0.827919
1710.38, 0.828515
1710.94, 0.827919
1711.51, 0.828780
1712.07, 0.829310
1712.64, 0.828979
1713.2, 0.828117
1713.77, 0.828581
1714.34, 0.828979
1714.9, 0.828581
1715.47, 0.828515
1716.04, 0.828913
1716.61, 0.828780
1717.18, 0.828647
1717.74, 0.828714
1718.31, 0.829310
1718.88, 0.829376
1719.45, 0.829376
1720.02, 0.829840
1720.59, 0.830039
1721.17, 0.829575
1721.74, 0.828979
1722.31, 0.829244
1722.88, 0.829906
1723.45, 0.830304
1724.03, 0.830105
1724.6, 0.829906
1725.18, 0.829509
1725.75, 0.830171
1726.33, 0.830967
1726.9, 0.830834
1727.48, 0.830437
1728.05, 0.829641
1728.63, 0.829310
1729.2, 0.829443
1729.78, 0.829575
1730.36, 0.829906
1730.94, 0.830039
1731.51, 0.831099
1732.09, 0.831497
1732.67, 0.831629
1733.25, 0.830304
1733.83, 0.829840
1734.41, 0.829774
1734.99, 0.830171
1735.57, 0.830900
1736.15, 0.830437
1736.73, 0.830900
1737.32, 0.830834
1737.9, 0.830304
1738.48, 0.830105
1739.07, 0.830900
1739.65, 0.831298
1740.23, 0.831298
1740.82, 0.830900
1741.4, 0.830702
1741.99, 0.830503
1742.57, 0.830171
1743.16, 0.831695
1743.74, 0.831298
1744.33, 0.831629
1744.92, 0.831961
1745.51, 0.831828
1746.09, 0.831629
1746.68, 0.831165
1747.27, 0.831298
1747.86, 0.831298
1748.45, 0.831232
1749.04, 0.830900
1749.63, 0.830702
1750.22, 0.831364
1750.81, 0.831961
1751.4, 0.831165
1751.99, 0.830437
1752.59, 0.831099
1753.18, 0.831364
1753.77, 0.831430
1754.37, 0.831364
1754.96, 0.831961
1755.56, 0.831762
1756.15, 0.831430
1756.74, 0.831961
1757.34, 0.832093
1757.94, 0.831894
1758.53, 0.831629
1759.13, 0.831894
1759.73, 0.832226
1760.32, 0.831894
1760.92, 0.831497
1761.52, 0.831165
1762.12, 0.831894
1762.72, 0.832292
1763.32, 0.832226
1763.92, 0.832424
1764.52, 0.832093
1765.12, 0.832292
1765.72, 0.832292
1766.32, 0.832358
1766.92, 0.832358
1767.53, 0.832358
1768.13, 0.833286
1768.73, 0.832623
1769.34, 0.831961
1769.94, 0.832226
1770.55, 0.831629
1771.15, 0.831762
1771.76, 0.832226
1772.36, 0.833219
1772.97, 0.833286
1773.57, 0.833418
1774.18, 0.833418
1774.79, 0.833418
1775.4, 0.832954
1776.0, 0.832358
1776.61, 0.832226
1777.22, 0.832424
1777.83, 0.832756
1778.44, 0.833352
1779.05, 0.833683
1779.66, 0.833816
1780.27, 0.834545
1780.88, 0.833816
1781.5, 0.833551
1782.11, 0.833948
1782.72, 0.834213
1783.33, 0.833816
1783.95, 0.833551
1784.56, 0.833617
1785.18, 0.833286
1785.79, 0.833153
1786.41, 0.833617
1787.02, 0.832822
1787.64, 0.833418
1788.26, 0.834743
1788.87, 0.834743
1789.49, 0.834015
1790.11, 0.833286
1790.73, 0.832888
1791.35, 0.833617
1791.96, 0.833418
1792.58, 0.833418
1793.21, 0.833418
1793.83, 0.833087
1794.45, 0.833352
1795.07, 0.833750
1795.69, 0.834677
1796.31, 0.835406
1796.93, 0.835075
1797.56, 0.833617
1798.18, 0.834147
1798.8, 0.834545
1799.43, 0.835075
1800.05, 0.834412
1800.68, 0.834346
1801.3, 0.834743
1801.93, 0.835141
1802.56, 0.835009
1803.18, 0.834478
1803.81, 0.833948
1804.44, 0.834213
1805.07, 0.834346
1805.7, 0.833882
1806.33, 0.833750
1806.95, 0.834677
1807.58, 0.834611
1808.22, 0.834280
1808.85, 0.835141
1809.48, 0.835539
1810.11, 0.835671
1810.74, 0.835671
1811.38, 0.835141
1812.01, 0.834280
1812.64, 0.834412
1813.28, 0.834280
1813.91, 0.835274
1814.55, 0.834611
1815.18, 0.834081
1815.82, 0.834081
1816.45, 0.834677
1817.09, 0.834942
1817.73, 0.835539
1818.36, 0.835539
1819.0, 0.834743
1819.64, 0.834412
1820.28, 0.834810
1820.92, 0.835406
1821.56, 0.835274
1822.2, 0.834810
1822.84, 0.835075
1823.48, 0.835406
1824.12, 0.835207
1824.76, 0.835671
1825.41, 0.835141
1826.05, 0.833882
1826.69, 0.834942
1827.34, 0.835406
1827.98, 0.835472
1828.63, 0.835936
1829.27, 0.836201
1829.92, 0.835804
1830.56, 0.835274
1831.21, 0.835009
1831.86, 0.835737
1832.5, 0.836267
1833.15, 0.836002
1833.8, 0.835737
1834.45, 0.835539
1835.1, 0.835009
1835.75, 0.834942
1836.4, 0.835539
1837.05, 0.835804
1837.7, 0.835671
1838.35, 0.836069
1839.01, 0.835737
1839.66, 0.835870
1840.31, 0.836996
1840.96, 0.836599
1841.62, 0.835340
1842.27, 0.835472
1842.93, 0.835936
1843.58, 0.836400
1844.24, 0.837195
1844.9, 0.836665
1845.55, 0.836002
1846.21, 0.835472
1846.87, 0.835671
1847.53, 0.835075
1848.18, 0.836334
1848.84, 0.837328
1849.5, 0.836731
1850.16, 0.836069
1850.82, 0.836002
1851.48, 0.835075
1852.14, 0.835406
1852.81, 0.836466
1853.47, 0.836930
1854.13, 0.836267
1854.8, 0.836135
1855.46, 0.836665
1856.12, 0.835141
1856.79, 0.834545
1857.45, 0.835671
1858.12, 0.837328
1858.79, 0.838388
1859.45, 0.836002
1860.12, 0.836135
1860.79, 0.835207
1861.46, 0.835671
1862.12, 0.837526
1862.79, 0.840574
1863.46, 0.839647
1864.13, 0.835671
1864.8, 0.833087
1865.48, 0.833750
1866.15, 0.835075
1866.82, 0.835274
1867.49, 0.835804
1868.16, 0.834147
1868.84, 0.833551
1869.51, 0.834810
1870.19, 0.835539
1870.86, 0.836334
1871.54, 0.836400
1872.21, 0.836797
1872.89, 0.835936
1873.56, 0.834545
1874.24, 0.835075
1874.92, 0.836201
1875.6, 0.837593
1876.28, 0.837063
1876.96, 0.836864
1877.64, 0.836930
1878.32, 0.836466
1879.0, 0.836400
1879.68, 0.837394
1880.36, 0.837725
1881.04, 0.836731
1881.73, 0.836334
1882.41, 0.836599
1883.09, 0.837195
1883.78, 0.837460
1884.46, 0.836864
1885.15, 0.836996
1885.83, 0.837725
1886.52, 0.837858
1887.21, 0.837328
1887.89, 0.837328
1888.58, 0.837526
1889.27, 0.837725
1889.96, 0.837195
1890.65, 0.836731
1891.34, 0.836996
1892.03, 0.837261
1892.72, 0.837261
1893.41, 0.836665
1894.1, 0.836466
1894.79, 0.837129
1895.49, 0.837659
1896.18, 0.837328
1896.87, 0.837261
1897.57, 0.836665
1898.26, 0.837129
1898.96, 0.837129
1899.65, 0.835870
1900.35, 0.836135
1901.05, 0.836996
1901.74, 0.837460
1902.44, 0.837261
1903.14, 0.835472
1903.84, 0.834545
1904.54, 0.835141
1905.24, 0.835671
1905.94, 0.835804
1906.64, 0.836400
1907.34, 0.836400
1908.04, 0.835870
1908.75, 0.837129
1909.45, 0.837593
1910.15, 0.836930
1910.86, 0.837924
1911.56, 0.835207
1912.27, 0.838388
1912.97, 0.841104
1913.68, 0.838123
1914.39, 0.835804
1915.09, 0.832027
1915.8, 0.827720
1916.51, 0.833352
1917.22, 0.835340
1917.93, 0.834677
1918.64, 0.837261
1919.35, 0.835274
1920.06, 0.834147
1920.77, 0.833485
1921.48, 0.832756
1922.19, 0.837725
1922.91, 0.839117
1923.62, 0.837526
1924.33, 0.836532
1925.05, 0.835539
1925.76, 0.838719
1926.48, 0.838255
1927.19, 0.837328
1927.91, 0.836996
1928.63, 0.836466
1929.35, 0.836930
1930.07, 0.837328
1930.78, 0.837328
1931.5, 0.837261
1932.22, 0.836201
1932.94, 0.836201
1933.66, 0.837394
1934.39, 0.836864
1935.11, 0.836930
1935.83, 0.837394
1936.55, 0.837924
1937.28, 0.838056
1938.0, 0.837460
1938.73, 0.837460
1939.45, 0.837593
1940.18, 0.837394
1940.9, 0.837129
1941.63, 0.837924
1942.36, 0.838189
1943.09, 0.838321
1943.81, 0.837924
1944.54, 0.837593
1945.27, 0.837858
1946.0, 0.837858
1946.73, 0.837659
1947.47, 0.837659
1948.2, 0.836930
1948.93, 0.836267
1949.66, 0.837659
1950.4, 0.838321
1951.13, 0.837593
1951.86, 0.838255
1952.6, 0.837924
1953.34, 0.837063
1954.07, 0.837858
1954.81, 0.837593
1955.55, 0.837328
1956.29, 0.837593
1957.02, 0.836864
1957.76, 0.836267
1958.5, 0.837394
1959.24, 0.838719
1959.98, 0.837460
1960.72, 0.836201
1961.47, 0.837725
1962.21, 0.837394
1962.95, 0.836201
1963.7, 0.837659
1964.44, 0.838123
1965.18, 0.836731
1965.93, 0.837063
1966.67, 0.837791
1967.42, 0.836532
1968.17, 0.835539
1968.92, 0.836532
1969.66, 0.836930
1970.41, 0.836599
1971.16, 0.836731
1971.91, 0.835870
1972.66, 0.834876
1973.41, 0.834876
1974.16, 0.834876
1974.92, 0.834677
1975.67, 0.834810
1976.42, 0.835340
1977.18, 0.836334
1977.93, 0.836996
1978.69, 0.836996
1979.44, 0.837990
1980.2, 0.838255
1980.95, 0.837924
1981.71, 0.838255
1982.47, 0.839315
1983.23, 0.838321
1983.99, 0.837858
1984.74, 0.837990
1985.51, 0.836532
1986.27, 0.836731
1987.03, 0.838653
1987.79, 0.837791
1988.55, 0.838056
1989.32, 0.838056
1990.08, 0.836930
1990.84, 0.836996
1991.61, 0.837394
1992.37, 0.838123
1993.14, 0.839249
1993.9, 0.838520
1994.67, 0.837858
1995.44, 0.838719
1996.21, 0.838454
1996.98, 0.837725
1997.75, 0.836930
1998.52, 0.837261
1999.29, 0.837858
2000.06, 0.838189
2000.83, 0.838454
2001.6, 0.838719
2002.38, 0.838123
2003.15, 0.838918
2003.93, 0.839050
2004.7, 0.839183
2005.48, 0.839713
2006.25, 0.839580
2007.03, 0.838984
2007.81, 0.838388
2008.58, 0.838454
2009.36, 0.839183
2010.14, 0.839647
2010.92, 0.838984
2011.7, 0.838653
2012.48, 0.838520
2013.26, 0.837858
2014.05, 0.838123
2014.83, 0.838189
2015.61, 0.838719
2016.4, 0.839050
2017.18, 0.838587
2017.97, 0.838918
2018.75, 0.838719
2019.54, 0.838852
2020.32, 0.839117
2021.11, 0.839249
2021.9, 0.839448
2022.69, 0.839448
2023.48, 0.839117
2024.27, 0.839183
2025.06, 0.839448
2025.85, 0.839315
2026.64, 0.838719
2027.44, 0.839779
2028.23, 0.841038
2029.02, 0.840641
2029.82, 0.839978
2030.61, 0.839845
2031.41, 0.839249
2032.2, 0.838852
2033.0, 0.839050
2033.8, 0.839117
2034.6, 0.839183
2035.4, 0.839183
2036.2, 0.839183
2037.0, 0.839647
2037.8, 0.839647
2038.6, 0.839580
2039.4, 0.838520
2040.2, 0.837924
2041.01, 0.838587
2041.81, 0.838719
2042.61, 0.839050
2043.42, 0.839315
2044.22, 0.839514
2045.03, 0.839978
2045.84, 0.839779
2046.65, 0.838918
2047.46, 0.839117
2048.26, 0.839117
2049.07, 0.838587
2049.88, 0.838587
2050.69, 0.838653
2051.51, 0.838056
2052.32, 0.838388
2053.13, 0.838520
2053.94, 0.839382
2054.76, 0.839382
2055.57, 0.839050
2056.39, 0.838653
2057.2, 0.838454
2058.02, 0.838123
2058.84, 0.837858
2059.66, 0.838056
2060.48, 0.838454
2061.29, 0.838454
2062.11, 0.838189
2062.94, 0.838321
2063.76, 0.837659
2064.58, 0.837328
2065.4, 0.837460
2066.22, 0.837460
2067.05, 0.837526
2067.87, 0.837394
2068.7, 0.837593
2069.52, 0.838056
2070.35, 0.837394
2071.18, 0.836930
2072.0, 0.837593
2072.83, 0.837924
2073.66, 0.837460
2074.49, 0.837328
2075.32, 0.837593
2076.15, 0.837394
2076.98, 0.837261
2077.82, 0.837526
2078.65, 0.837593
2079.48, 0.837129
2080.32, 0.837460
2081.15, 0.837858
2081.99, 0.837791
2082.83, 0.837725
2083.66, 0.837858
2084.5, 0.837526
2085.34, 0.836996
2086.18, 0.837394
2087.02, 0.837593
2087.86, 0.837858
2088.7, 0.838123
2089.54, 0.837593
2090.39, 0.837394
2091.23, 0.837526
2092.07, 0.837725
2092.92, 0.837659
2093.76, 0.838056
2094.61, 0.838520
2095.45, 0.838454
2096.3, 0.838056
2097.15, 0.838123
2098.0, 0.838321
2098.85, 0.838123
2099.7, 0.838321
2100.55, 0.838189
2101.4, 0.837593
2102.25, 0.837261
2103.1, 0.837526
2103.96, 0.838123
2104.81, 0.838321
2105.67, 0.838189
2106.52, 0.838388
2107.38, 0.838587
2108.24, 0.838852
2109.09, 0.838587
2109.95, 0.838454
2110.81, 0.838255
2111.67, 0.838123
2112.53, 0.838056
2113.39, 0.837725
2114.25, 0.837858
2115.12, 0.838123
2115.98, 0.838388
2116.84, 0.838653
2117.71, 0.838984
2118.58, 0.839315
2119.44, 0.838785
2120.31, 0.838255
2121.18, 0.838454
2122.04, 0.838785
2122.91, 0.838918
2123.78, 0.838785
2124.65, 0.838587
2125.52, 0.838653
2126.4, 0.839249
2127.27, 0.839249
2128.14, 0.838785
2129.02, 0.838587
2129.89, 0.838719
2130.77, 0.838984
2131.64, 0.838719
2132.52, 0.838520
2133.4, 0.838587
2134.27, 0.838984
2135.15, 0.839183
2136.03, 0.838587
2136.91, 0.838785
2137.79, 0.838852
2138.68, 0.838520
2139.56, 0.838852
2140.44, 0.839117
2141.33, 0.838785
2142.21, 0.838719
2143.1, 0.838653
2143.99, 0.838719
2144.87, 0.838388
2145.76, 0.838520
2146.65, 0.838785
2147.54, 0.838852
2148.43, 0.838587
2149.32, 0.838454
2150.21, 0.838520
2151.1, 0.838321
2151.99, 0.838520
2152.89, 0.838255
2153.78, 0.837924
2154.68, 0.837858
2155.57, 0.837858
2156.47, 0.837659
2157.37, 0.838321
2158.27, 0.838454
2159.16, 0.838056
2160.06, 0.838255
2160.96, 0.837990
2161.86, 0.837460
2162.77, 0.837394
2163.67, 0.837394
2164.57, 0.837261
2165.48, 0.837129
2166.38, 0.836996
2167.29, 0.836731
2168.2, 0.836665
2169.1, 0.836930
2170.01, 0.837129
2170.92, 0.836400
2171.83, 0.836267
2172.74, 0.836400
2173.65, 0.836334
2174.56, 0.836334
2175.47, 0.836334
2176.39, 0.836334
2177.3, 0.836069
2178.22, 0.836135
2179.13, 0.835936
2180.05, 0.835737
2180.96, 0.835671
2181.88, 0.835804
2182.8, 0.835804
2183.72, 0.835340
2184.64, 0.834942
2185.56, 0.835274
2186.48, 0.835207
2187.41, 0.835009
2188.33, 0.834611
2189.25, 0.835009
2190.18, 0.835340
2191.1, 0.835141
2192.03, 0.835207
2192.96, 0.835406
2193.89, 0.835340
2194.82, 0.835340
2195.74, 0.835274
2196.68, 0.835075
2197.61, 0.835207
2198.54, 0.835406
2199.47, 0.835605
2200.4, 0.835075
2201.34, 0.835075
2202.28, 0.835274
2203.21, 0.835075
2204.15, 0.835141
2205.08, 0.835141
2206.02, 0.835472
2206.96, 0.835472
2207.9, 0.835605
2208.84, 0.835737
2209.78, 0.835605
2210.73, 0.835406
2211.67, 0.835141
2212.61, 0.835207
2213.56, 0.835472
2214.5, 0.835870
2215.45, 0.836002
2216.4, 0.835605
2217.35, 0.835207
2218.3, 0.835274
2219.24, 0.835870
2220.2, 0.836069
2221.15, 0.835605
2222.1, 0.835737
2223.05, 0.836002
2224.0, 0.836201
2224.96, 0.836201
2225.91, 0.836466
2226.87, 0.836599
2227.83, 0.836665
2228.79, 0.836334
2229.74, 0.836201
2230.7, 0.836201
2231.66, 0.836267
2232.63, 0.836532
2233.59, 0.836466
2234.55, 0.836731
2235.51, 0.836731
2236.48, 0.836665
2237.44, 0.836599
2238.41, 0.836400
2239.38, 0.836400
2240.34, 0.836996
2241.31, 0.837063
2242.28, 0.837063
2243.25, 0.836996
2244.22, 0.836797
2245.19, 0.836930
2246.17, 0.837129
2247.14, 0.837261
2248.12, 0.837129
2249.09, 0.836930
2250.07, 0.836996
2251.04, 0.837460
2252.02, 0.837328
2253.0, 0.837460
2253.98, 0.837460
2254.96, 0.837195
2255.94, 0.837195
2256.92, 0.837328
2257.91, 0.837460
2258.89, 0.837460
2259.88, 0.837261
2260.86, 0.837526
2261.85, 0.837593
2262.83, 0.837261
2263.82, 0.837460
2264.81, 0.837526
2265.8, 0.837394
2266.79, 0.837460
2267.78, 0.837593
2268.78, 0.837725
2269.77, 0.837924
2270.76, 0.837725
2271.76, 0.837063
2272.75, 0.837261
2273.75, 0.837394
2274.75, 0.837394
2275.75, 0.837460
2276.75, 0.837328
2277.75, 0.836996
2278.75, 0.837063
2279.75, 0.837261
2280.75, 0.837261
2281.76, 0.837195
2282.76, 0.837394
2283.77, 0.836864
2284.77, 0.836731
2285.78, 0.836665
2286.79, 0.836864
2287.8, 0.836532
2288.81, 0.836864
2289.82, 0.836864
2290.83, 0.836400
2291.84, 0.836267
2292.86, 0.836466
2293.87, 0.836267
2294.89, 0.836135
2295.91, 0.836069
2296.92, 0.836002
2297.94, 0.835472
2298.96, 0.835472
2299.98, 0.835539
2301.0, 0.835605
2302.02, 0.835539
2303.04, 0.835207
2304.07, 0.835340
2305.09, 0.835605
2306.12, 0.835472
2307.15, 0.835207
2308.17, 0.835274
2309.2, 0.834942
2310.23, 0.834545
2311.26, 0.834677
2312.29, 0.834876
2313.32, 0.835009
2314.35, 0.834743
2315.39, 0.834147
2316.42, 0.834346
2317.46, 0.834545
2318.5, 0.834545
2319.53, 0.834346
2320.57, 0.834611
2321.61, 0.834810
2322.65, 0.834743
2323.69, 0.834876
2324.73, 0.834942
2325.78, 0.835009
2326.82, 0.834545
2327.86, 0.834545
2328.91, 0.835141
2329.96, 0.835472
2331.01, 0.835141
2332.05, 0.834876
2333.1, 0.835340
2334.15, 0.835274
2335.21, 0.835406
2336.26, 0.835539
2337.31, 0.835472
2338.36, 0.835340
2339.42, 0.835671
2340.48, 0.836002
2341.53, 0.836069
2342.59, 0.835870
2343.65, 0.836135
2344.71, 0.836267
2345.77, 0.836201
2346.83, 0.836002
2347.9, 0.836002
2348.96, 0.836400
2350.02, 0.836665
2351.09, 0.836599
2352.16, 0.836599
2353.23, 0.836532
2354.29, 0.836400
2355.36, 0.836334
2356.43, 0.836532
2357.51, 0.836731
2358.58, 0.836599
2359.65, 0.836996
2360.73, 0.837261
2361.8, 0.837195
2362.88, 0.836996
2363.96, 0.837129
2365.03, 0.837063
2366.11, 0.837593
2367.19, 0.837725
2368.27, 0.837659
2369.36, 0.837725
2370.44, 0.837791
2371.53, 0.837725
2372.61, 0.838056
2373.7, 0.838189
2374.78, 0.838454
2375.87, 0.838321
2376.96, 0.837924
2378.05, 0.838123
2379.14, 0.838520
2380.24, 0.838587
2381.33, 0.838388
2382.42, 0.838454
2383.52, 0.838719
2384.61, 0.838719
2385.71, 0.838587
2386.81, 0.838321
2387.91, 0.838587
2389.01, 0.838785
2390.11, 0.839050
2391.22, 0.839050
2392.32, 0.838852
2393.42, 0.838653
2394.53, 0.838785
2395.64, 0.838653
2396.74, 0.838785
2397.85, 0.838918
2398.96, 0.838785
2400.07, 0.838719
2401.18, 0.838918
2402.3, 0.839050
2403.41, 0.838918
2404.52, 0.838852
2405.64, 0.839050
2406.76, 0.839117
2407.88, 0.838918
2408.99, 0.838785
2410.11, 0.838653
2411.23, 0.838587
2412.36, 0.838719
2413.48, 0.838984
2414.6, 0.838918
2415.73, 0.838785
2416.85, 0.838520
2417.98, 0.838520
2419.11, 0.838520
2420.24, 0.838388
2421.37, 0.838056
2422.5, 0.837791
2423.64, 0.837990
2424.77, 0.838255
2425.9, 0.838388
2427.04, 0.837990
2428.18, 0.837725
2429.31, 0.837526
2430.45, 0.837394
2431.59, 0.837394
2432.73, 0.837394
2433.88, 0.837526
2435.02, 0.837195
2436.16, 0.836930
2437.31, 0.836996
2438.45, 0.836665
2439.6, 0.836069
2440.75, 0.836201
2441.9, 0.836466
2443.05, 0.836201
2444.2, 0.835737
2445.35, 0.835539
2446.51, 0.835605
2447.67, 0.835804
2448.82, 0.836002
2449.98, 0.835936
2451.14, 0.835340
2452.3, 0.835207
2453.46, 0.835207
2454.62, 0.835406
2455.78, 0.835340
2456.94, 0.835274
2458.11, 0.835207
2459.28, 0.835075
2460.44, 0.835009
2461.61, 0.835207
2462.78, 0.835274
2463.95, 0.835605
2465.12, 0.835207
2466.3, 0.835274
2467.47, 0.835406
2468.65, 0.835340
2469.82, 0.835207
2471.0, 0.835075
2472.18, 0.835075
2473.36, 0.835141
2474.54, 0.835406
2475.72, 0.835605
2476.9, 0.835539
2478.08, 0.835207
2479.27, 0.835406
2480.46, 0.835274
2481.64, 0.834942
2482.83, 0.835075
2484.02, 0.835340
2485.21, 0.835141
2486.4, 0.835141
2487.6, 0.835472
2488.79, 0.835870
2489.99, 0.836002
2491.18, 0.836002
2492.38, 0.836002
2493.58, 0.836002
2494.78, 0.835936
2495.98, 0.836002
2497.18, 0.835936
2498.39, 0.835936
2499.59, 0.836069
2500.8, 0.836466
2502.01, 0.836400
2503.21, 0.836334
2504.42, 0.836400
2505.63, 0.836466
2506.84, 0.836665
2508.06, 0.836731
2509.27, 0.836797
2510.49, 0.836930
2511.7, 0.837195
2512.92, 0.837328
2514.14, 0.837526
2515.36, 0.837526
2516.58, 0.837858
2517.8, 0.837725
2519.03, 0.837725
2520.25, 0.837526
2521.48, 0.837593
2522.7, 0.837725
2523.93, 0.838056
2525.16, 0.838123
2526.39, 0.838189
2527.62, 0.838255
2528.86, 0.838388
2530.09, 0.838520
2531.33, 0.838255
2532.56, 0.838255
2533.8, 0.838785
2535.04, 0.838520
2536.28, 0.838520
2537.52, 0.839117
2538.76, 0.839448
2540.01, 0.839514
2541.25, 0.839050
2542.5, 0.838321
2543.75, 0.838653
2544.99, 0.839514
2546.24, 0.839448
2547.49, 0.839050
2548.75, 0.839580
2550.0, 0.839514
2551.26, 0.839050
2552.51, 0.838785
2553.77, 0.839448
2555.03, 0.840044
2556.29, 0.840111
2557.55, 0.839912
2558.81, 0.839382
2560.08, 0.837526
2561.34, 0.836267
2562.61, 0.836334
2563.88, 0.836665
2565.14, 0.838388
2566.41, 0.839978
2567.68, 0.839249
2568.96, 0.837195
2570.23, 0.837791
2571.51, 0.838321
2572.78, 0.835870
2574.06, 0.836996
2575.34, 0.837990
2576.62, 0.837129
2577.9, 0.838123
2579.18, 0.838388
2580.47, 0.837195
2581.75, 0.836864
2583.04, 0.834015
2584.32, 0.834545
2585.61, 0.836731
2586.9, 0.835539
2588.2, 0.835936
2589.49, 0.836930
2590.78, 0.837659
2592.08, 0.836069
2593.37, 0.828913
2594.67, 0.824009
2595.97, 0.829973
2597.27, 0.835539
2598.57, 0.837328
2599.88, 0.836599
2601.18, 0.835406
2602.49, 0.834478
2603.79, 0.832159
2605.1, 0.829178
2606.41, 0.831364
2607.72, 0.833882
2609.03, 0.834346
2610.35, 0.835009
2611.66, 0.835406
2612.98, 0.835075
2614.3, 0.835274
2615.62, 0.832226
2616.94, 0.830834
2618.26, 0.832822
2619.58, 0.830105
2620.91, 0.831099
2622.23, 0.835207
2623.56, 0.835870
2624.89, 0.834280
2626.22, 0.831165
2627.55, 0.832954
2628.88, 0.831695
2630.21, 0.828714
2631.55, 0.832226
2632.89, 0.833816
2634.22, 0.833882
2635.56, 0.835274
2636.9, 0.835671
2638.25, 0.835737
2639.59, 0.835406
2640.93, 0.835340
2642.28, 0.835141
2643.63, 0.835141
2644.98, 0.834015
2646.33, 0.834213
2647.68, 0.835274
2649.03, 0.835539
2650.39, 0.834677
2651.74, 0.833021
2653.1, 0.833153
2654.46, 0.833750
2655.82, 0.833617
2657.18, 0.834677
2658.54, 0.833418
2659.9, 0.832822
2661.27, 0.832822
2662.64, 0.832557
2664.01, 0.827720
2665.38, 0.824274
2666.74, 0.824937
2668.12, 0.827852
2669.49, 0.822949
2670.87, 0.822949
2672.24, 0.829178
2673.62, 0.829641
2675.0, 0.826660
2676.38, 0.824142
2677.76, 0.824473
2679.15, 0.824606
2680.54, 0.826925
2681.92, 0.826660
2683.31, 0.825335
2684.7, 0.824672
2686.09, 0.824142
2687.48, 0.824076
2688.88, 0.823943
2690.27, 0.823280
2691.67, 0.821359
2693.07, 0.817715
2694.47, 0.817118
2695.87, 0.818510
2697.27, 0.819437
2698.67, 0.818775
2700.08, 0.816456
2701.49, 0.815197
2702.9, 0.815197
2704.31, 0.814137
2705.72, 0.813076
2707.13, 0.811155
2708.54, 0.807643
2709.96, 0.803137
2711.38, 0.802607
2712.8, 0.805722
2714.22, 0.805258
2715.64, 0.803402
2717.06, 0.800620
2718.49, 0.796246
2719.91, 0.790018
2721.34, 0.790614
2722.77, 0.790084
2724.2, 0.786771
2725.63, 0.788229
2727.07, 0.789223
2728.5, 0.787831
2729.94, 0.785844
2731.38, 0.783723
2732.82, 0.780874
2734.26, 0.777164
2735.7, 0.776302
2737.15, 0.774911
2738.59, 0.769477
2740.04, 0.765833
2741.49, 0.766363
2742.94, 0.767224
2744.39, 0.766098
2745.84, 0.764044
2747.3, 0.761924
2748.76, 0.759803
2750.21, 0.757352
2751.67, 0.755033
2753.14, 0.751985
2754.6, 0.746353
2756.06, 0.745359
2757.53, 0.746883
2759.0, 0.745690
2760.46, 0.743106
2761.94, 0.739528
2763.41, 0.737938
2764.88, 0.737474
2766.36, 0.735420
2767.83, 0.733432
2769.31, 0.731510
2770.79, 0.729721
2772.27, 0.729523
2773.76, 0.729059
2775.24, 0.727535
2776.73, 0.725812
2778.22, 0.724354
2779.71, 0.722698
2781.2, 0.721108
2782.69, 0.720180
2784.18, 0.718987
2785.68, 0.716138
2787.18, 0.714217
2788.68, 0.714283
2790.18, 0.714084
2791.68, 0.713024
2793.19, 0.711765
2794.69, 0.710440
2796.2, 0.709181
2797.71, 0.708054
2799.22, 0.706729
2800.73, 0.704940
2802.24, 0.702621
2803.76, 0.701760
2805.28, 0.701826
2806.8, 0.701230
2808.32, 0.700236
2809.84, 0.699175
2811.36, 0.698115
2812.89, 0.697121
2814.42, 0.695929
2815.94, 0.695266
2817.48, 0.694537
2819.01, 0.693278
2820.54, 0.692417
2822.08, 0.691887
2823.61, 0.691489
2825.15, 0.690827
2826.69, 0.689965
2828.23, 0.689104
2829.78, 0.688441
2831.32, 0.687646
2832.87, 0.686719
2834.42, 0.685990
2835.97, 0.685393
2837.52, 0.684797
2839.08, 0.684333
2840.63, 0.684068
2842.19, 0.683472
2843.75, 0.682611
2845.31, 0.681815
2846.87, 0.681153
2848.44, 0.680424
2850.0, 0.679894
2851.57, 0.679496
2853.14, 0.678966
2854.71, 0.678237
2856.28, 0.677774
2857.86, 0.677310
2859.43, 0.676647
2861.01, 0.675852
2862.59, 0.675322
2864.17, 0.674792
2865.76, 0.674129
2867.34, 0.673533
2868.93, 0.673069
2870.52, 0.672274
2872.11, 0.671744
2873.7, 0.671413
2875.29, 0.671081
2876.89, 0.670485
2878.49, 0.669889
2880.08, 0.669425
2881.69, 0.668895
2883.29, 0.668497
2884.89, 0.668033
2886.5, 0.667702
2888.11, 0.667238
2889.72, 0.666841
2891.33, 0.666443
2892.94, 0.665714
2894.56, 0.665317
2896.17, 0.664985
2897.79, 0.664588
2899.42, 0.664124
2901.04, 0.663660
2902.66, 0.663395
2904.29, 0.662865
2905.92, 0.662534
2907.55, 0.662401
2909.18, 0.662136
2910.81, 0.661672
2912.45, 0.661341
2914.08, 0.661076
2915.72, 0.660678
2917.36, 0.660347
2919.01, 0.659883
2920.65, 0.659353
2922.3, 0.659088
2923.94, 0.658889
2925.59, 0.658691
2927.25, 0.658426
2928.9, 0.658161
2930.56, 0.657763
2932.21, 0.657432
2933.87, 0.657167
2935.53, 0.656769
2937.2, 0.656637
2938.86, 0.656372
2940.53, 0.655908
2942.2, 0.655510
2943.87, 0.655311
2945.54, 0.655179
2947.22, 0.654914
2948.89, 0.654781
2950.57, 0.654583
2952.25, 0.654317
2953.93, 0.653986
2955.62, 0.653986
2957.3, 0.653854
2958.99, 0.653522
2960.68, 0.653324
2962.37, 0.653125
2964.07, 0.653059
2965.76, 0.652992
2967.46, 0.652793
2969.16, 0.652528
2970.86, 0.652462
2972.56, 0.652528
2974.27, 0.652263
2975.98, 0.651932
2977.69, 0.651601
2979.4, 0.651535
2981.11, 0.651601
2982.83, 0.651601
2984.54, 0.651535
2986.26, 0.651468
2987.98, 0.651468
2989.71, 0.651468
2991.43, 0.651402
2993.16, 0.651203
2994.89, 0.651137
2996.62, 0.651269
2998.35, 0.651336
3000.09, 0.651336
3001.83, 0.651269
3003.57, 0.651137
3005.31, 0.651269
3007.05, 0.651269
3008.79, 0.651402
3010.54, 0.651601
3012.29, 0.651601
3014.04, 0.651601
3015.8, 0.651667
3017.55, 0.651733
3019.31, 0.651800
3021.07, 0.651866
3022.83, 0.651932
3024.59, 0.652065
3026.36, 0.652263
3028.13, 0.652263
3029.9, 0.652330
3031.67, 0.652661
3033.44, 0.652727
3035.22, 0.652727
3037.0, 0.652793
3038.78, 0.653059
3040.56, 0.653257
3042.34, 0.653456
3044.13, 0.653456
3045.92, 0.653456
3047.71, 0.653655
3049.5, 0.653920
3051.3, 0.654052
3053.09, 0.654052
3054.89, 0.654251
3056.69, 0.654384
3058.5, 0.654384
3060.3, 0.654583
3062.11, 0.654914
3063.92, 0.655113
3065.73, 0.655311
3067.55, 0.655444
3069.36, 0.655510
3071.18, 0.655576
3073.0, 0.655908
3074.82, 0.656040
3076.65, 0.656173
3078.48, 0.656372
3080.31, 0.656637
3082.14, 0.656835
3083.97, 0.656968
3085.8, 0.657167
3087.64, 0.657498
3089.48, 0.657630
3091.33, 0.657829
3093.17, 0.658227
3095.02, 0.658492
3096.87, 0.658757
3098.72, 0.659022
3100.57, 0.659287
3102.43, 0.659486
3104.28, 0.659817
3106.14, 0.660148
3108.01, 0.660546
3109.87, 0.660943
3111.74, 0.661209
3113.61, 0.661540
3115.48, 0.661937
3117.35, 0.662269
3119.23, 0.662600
3121.1, 0.662865
3122.98, 0.663263
3124.87, 0.663793
3126.75, 0.664190
3128.64, 0.664654
3130.53, 0.664985
3132.42, 0.665383
3134.31, 0.665847
3136.21, 0.666178
3138.11, 0.666576
3140.01, 0.666907
3141.91, 0.667371
3143.82, 0.667967
3145.73, 0.668232
3147.64, 0.668696
3149.55, 0.669292
3151.46, 0.669756
3153.38, 0.670087
3155.3, 0.670485
3157.22, 0.670949
3159.14, 0.671545
3161.07, 0.671943
3163.0, 0.672473
3164.93, 0.672804
3166.86, 0.673334
3168.8, 0.673930
3170.74, 0.674195
3172.68, 0.674527
3174.62, 0.675057
3176.56, 0.675587
3178.51, 0.676051
3180.46, 0.676448
3182.42, 0.676912
3184.37, 0.677442
3186.33, 0.677972
3188.29, 0.678436
3190.25, 0.678701
3192.21, 0.679165
3194.18, 0.679695
3196.15, 0.680093
3198.12, 0.680623
3200.09, 0.681087
3202.07, 0.681617
3204.05, 0.682213
3206.03, 0.682677
3208.02, 0.683074
3210.0, 0.683538
3211.99, 0.684134
3213.98, 0.684598
3215.98, 0.685128
3217.97, 0.685725
3219.97, 0.686255
3221.97, 0.686785
3223.98, 0.687249
3225.98, 0.687646
3227.99, 0.688110
3230.0, 0.688706
3232.02, 0.689568
3234.03, 0.690230
3236.05, 0.690827
3238.07, 0.691158
3240.1, 0.691688
3242.12, 0.692284
3244.15, 0.692682
3246.18, 0.693212
3248.22, 0.693742
3250.25, 0.694537
3252.29, 0.695067
3254.33, 0.695664
3256.38, 0.696194
3258.43, 0.696790
3260.47, 0.697585
3262.53, 0.698248
3264.58, 0.698910
3266.64, 0.699507
3268.7, 0.699971
3270.76, 0.700699
3272.82, 0.701362
3274.89, 0.701958
3276.96, 0.702555
3279.04, 0.703151
3281.11, 0.703880
3283.19, 0.704543
3285.27, 0.705073
3287.35, 0.705735
3289.44, 0.706464
3291.53, 0.707060
3293.62, 0.707789
3295.71, 0.708386
3297.81, 0.708982
3299.91, 0.709711
3302.01, 0.710506
3304.11, 0.711235
3306.22, 0.711831
3308.33, 0.712494
3310.44, 0.712958
3312.56, 0.713355
3314.68, 0.714084
3316.8, 0.714879
3318.92, 0.715475
3321.05, 0.715939
3323.18, 0.716602
3325.31, 0.717264
3327.44, 0.717861
3329.58, 0.718457
3331.72, 0.719053
3333.86, 0.719716
3336.01, 0.720379
3338.16, 0.720842
3340.31, 0.721306
3342.46, 0.721571
3344.61, 0.721638
3346.77, 0.721770
3348.94, 0.721969
3351.1, 0.722168
3353.27, 0.722168
3355.44, 0.722168
3357.61, 0.722234
3359.79, 0.722168
3361.97, 0.722234
3364.15, 0.722234
3366.33, 0.722300
3368.52, 0.722499
3370.71, 0.722897
3372.9, 0.723228
3375.1, 0.723758
3377.3, 0.724354
3379.5, 0.725083
3381.71, 0.726143
3383.91, 0.727071
3386.12, 0.727866
3388.34, 0.728396
3390.55, 0.728794
3392.77, 0.729191
3394.99, 0.729456
3397.22, 0.729589
3399.45, 0.729721
3401.68, 0.729788
3403.91, 0.729920
3406.15, 0.730185
3408.39, 0.730384
3410.63, 0.730583
3412.87, 0.730848
3415.12, 0.731113
3417.37, 0.731577
3419.63, 0.732107
3421.88, 0.732637
3424.14, 0.733167
3426.41, 0.733829
3428.67, 0.734823
3430.94, 0.735884
3433.21, 0.736877
3435.49, 0.737673
3437.77, 0.738269
3440.05, 0.738799
3442.33, 0.739462
3444.62, 0.740190
3446.91, 0.740588
3449.2, 0.741052
3451.5, 0.741582
3453.8, 0.742377
3456.1, 0.742841
3458.41, 0.743172
3460.72, 0.743570
3463.03, 0.743901
3465.34, 0.743901
3467.66, 0.743835
3469.98, 0.743636
3472.31, 0.743371
3474.63, 0.742973
3476.96, 0.742443
3479.3, 0.742245
3481.64, 0.742576
3483.97, 0.743305
3486.32, 0.744100
3488.66, 0.744696
3491.01, 0.745027
3493.36, 0.745027
3495.72, 0.745226
3498.08, 0.745624
3500.44, 0.746021
3502.81, 0.746551
3505.18, 0.747479
3507.55, 0.748340
3509.92, 0.749268
3512.3, 0.750129
3514.68, 0.750991
3517.06, 0.751786
3519.45, 0.752515
3521.84, 0.753244
3524.24, 0.753973
3526.64, 0.754569
3529.04, 0.755165
3531.44, 0.755695
3533.85, 0.756159
3536.26, 0.756623
3538.67, 0.757087
3541.09, 0.757551
3543.51, 0.758014
3545.93, 0.758611
3548.36, 0.759207
3550.79, 0.759671
3553.22, 0.760135
3555.66, 0.760466
3558.1, 0.760996
3560.54, 0.761394
3562.99, 0.761791
3565.44, 0.762189
3567.9, 0.762719
3570.35, 0.763249
3572.81, 0.763713
3575.28, 0.764044
3577.75, 0.764442
3580.22, 0.764773
3582.69, 0.765170
3585.17, 0.765502
3587.65, 0.765767
3590.14, 0.766164
3592.62, 0.766496
3595.11, 0.767026
3597.61, 0.767357
3600.11, 0.767688
3602.61, 0.768086
3605.11, 0.768351
3607.62, 0.768616
3610.14, 0.769080
3612.65, 0.769477
3615.17, 0.769809
3617.69, 0.770140
3620.22, 0.770471
3622.75, 0.770935
3625.28, 0.771134
3627.82, 0.771399
3630.36, 0.771796
3632.9, 0.772194
3635.45, 0.772525
3638.0, 0.772989
3640.56, 0.773320
3643.12, 0.773652
3645.68, 0.773917
3648.24, 0.774248
3650.81, 0.774646
3653.39, 0.774977
3655.96, 0.775374
3658.54, 0.775706
3661.13, 0.776037
3663.71, 0.776368
3666.3, 0.776700
3668.9, 0.777097
3671.5, 0.777429
3674.1, 0.777627
3676.7, 0.777892
3679.31, 0.778290
3681.93, 0.778621
3684.54, 0.779085
3687.17, 0.779615
3689.79, 0.780013
3692.42, 0.780344
3695.05, 0.780675
3697.69, 0.781007
3700.32, 0.781272
3702.97, 0.781603
3705.61, 0.781868
3708.27, 0.782266
3710.92, 0.782597
3713.58, 0.782796
3716.24, 0.783127
3718.91, 0.783458
3721.58, 0.783657
3724.25, 0.783790
3726.93, 0.784121
3729.61, 0.784386
3732.29, 0.784518
3734.98, 0.784585
3737.67, 0.784783
3740.37, 0.785048
3743.07, 0.785115
3745.78, 0.785181
3748.49, 0.785446
3751.2, 0.785578
3753.91, 0.785512
3756.63, 0.785512
3759.36, 0.785578
3762.09, 0.785578
3764.82, 0.785380
3767.55, 0.785313
3770.29, 0.785313
3773.04, 0.785313
3775.78, 0.785247
3778.54, 0.785048
3781.29, 0.784850
3784.05, 0.784783
3786.82, 0.784651
3789.59, 0.784518
3792.36, 0.784320
3795.13, 0.784187
3797.92, 0.783988
3800.7, 0.783790
3803.49, 0.783591
3806.28, 0.783326
3809.08, 0.783127
3811.88, 0.782862
3814.68, 0.782597
3817.49, 0.782398
3820.31, 0.782266
3823.12, 0.782067
3825.94, 0.781802
3828.77, 0.781470
3831.6, 0.781272
3834.43, 0.781073
3837.27, 0.780874
3840.11, 0.780675
3842.96, 0.780477
3845.81, 0.780211
3848.67, 0.779946
3851.53, 0.779814
3854.39, 0.779681
3857.26, 0.779483
3860.13, 0.779284
3863.01, 0.779085
3865.89, 0.778820
3868.77, 0.778621
3871.66, 0.778687
3874.55, 0.778621
3877.45, 0.778489
3880.35, 0.778290
3883.26, 0.778157
3886.17, 0.778025
3889.09, 0.778025
3892.01, 0.777959
3894.93, 0.777826
3897.86, 0.777760
3900.79, 0.777694
3903.73, 0.777826
3906.67, 0.777627
3909.62, 0.777627
3912.57, 0.777627
3915.52, 0.777561
3918.48, 0.777561
3921.45, 0.777627
3924.42, 0.777561
3927.39, 0.777561
3930.37, 0.777694
3933.35, 0.777561
3936.34, 0.777561
3939.33, 0.777627
3942.32, 0.777495
3945.32, 0.777429
3948.33, 0.777296
3951.34, 0.777230
3954.35, 0.777296
3957.37, 0.777164
3960.39, 0.776898
3963.42, 0.776766
3966.45, 0.776700
3969.49, 0.776567
3972.53, 0.776368
3975.58, 0.776103
3978.63, 0.775905
3981.68, 0.775640
3984.75, 0.775176
3987.81, 0.774844
3990.88, 0.774513
3993.95, 0.774116
3997.03, 0.773652
4000.12, 0.773254
4003.21, 0.772790
4006.3, 0.772260
4009.4, 0.771863
4012.5, 0.771200
4015.61, 0.770604
4018.72, 0.770074
4021.84, 0.769544
4024.96, 0.768815
4028.09, 0.768152
4031.22, 0.767622
4034.36, 0.767026
4037.5, 0.766496
4040.65, 0.765899
4043.8, 0.765303
4046.96, 0.764773
4050.12, 0.764177
4053.29, 0.763514
4056.46, 0.762984
4059.64, 0.762586
4062.82, 0.762123
4066.0, 0.761725
4069.19, 0.761261
4072.39, 0.760797
4075.59, 0.760333
4078.8, 0.759936
4082.01, 0.759671
4085.23, 0.759340
4088.45, 0.758942
4091.68, 0.758677
4094.91, 0.758213
4098.15, 0.757816
4101.39, 0.757484
4104.63, 0.757087
4107.89, 0.756689
4111.14, 0.756292
4114.41, 0.756027
4117.67, 0.755563
4120.95, 0.754966
4124.23, 0.754569
4127.51, 0.754105
4130.8, 0.753641
4134.09, 0.753177
4137.39, 0.752714
4140.7, 0.752316
4144.01, 0.752051
4147.32, 0.751521
4150.64, 0.750925
4153.97, 0.750593
4157.3, 0.750196
4160.64, 0.749599
4163.98, 0.748937
4167.33, 0.748407
4170.68, 0.747877
4174.04, 0.747347
4177.4, 0.746750
4180.77, 0.746088
4184.14, 0.745425
4187.52, 0.744829
4190.91, 0.744166
4194.3, 0.743570
4197.69, 0.742907
4201.1, 0.742046
4204.5, 0.741317
4207.92, 0.740721
4211.34, 0.740190
4214.76, 0.739594
4218.19, 0.738932
4221.62, 0.738004
4225.06, 0.737209
4228.51, 0.736347
4231.96, 0.735353
4235.42, 0.734227
4238.88, 0.732902
4242.35, 0.731312
4245.83, 0.729655
4249.31, 0.727866
4252.79, 0.725878
4256.28, 0.723890
4259.78, 0.722035
4263.29, 0.720379
4266.79, 0.718523
4270.31, 0.716403
4273.83, 0.714217
4277.35, 0.711765
4280.89, 0.709181
4284.42, 0.706663
4287.97, 0.703946
4291.52, 0.701031
4295.07, 0.698049
4298.63, 0.695134
4302.2, 0.692284
4305.78, 0.689369
4309.35, 0.686454
4312.94, 0.683869
4316.53, 0.681285
4320.13, 0.678767
4323.73, 0.676382
4327.34, 0.674129
4330.96, 0.671943
4334.58, 0.669889
4338.21, 0.667901
4341.84, 0.666045
4345.48, 0.664124
4349.12, 0.662335
4352.77, 0.660678
4356.43, 0.659022
4360.1, 0.657498
4363.76, 0.656106
4367.44, 0.654715
4371.12, 0.653390
4374.81, 0.652131
4378.51, 0.650872
4382.21, 0.649679
4385.92, 0.648553
4389.63, 0.647625
4393.35, 0.646764
4397.08, 0.646101
4400.81, 0.645571
4404.55, 0.645107
4408.29, 0.644710
4412.04, 0.644445
4415.8, 0.644312
4419.57, 0.644246
4423.34, 0.644312
4427.12, 0.644378
4430.9, 0.644577
4434.69, 0.644643
4438.49, 0.644643
4442.29, 0.644710
4446.1, 0.644710
4449.92, 0.644776
4453.74, 0.644643
4457.57, 0.644445
4461.41, 0.644246
4465.25, 0.643848
4469.1, 0.643451
4472.95, 0.642987
4476.82, 0.642589
4480.69, 0.641861
4484.56, 0.640999
4488.44, 0.640270
4492.33, 0.639210
4496.23, 0.638084
4500.13, 0.636957
4504.04, 0.635765
4507.96, 0.634373
4511.88, 0.632783
4515.81, 0.631259
4519.75, 0.629735
4523.69, 0.628012
4527.65, 0.626091
4531.6, 0.624302
4535.57, 0.622513
4539.54, 0.620525
4543.52, 0.618405
4547.5, 0.616152
4551.5, 0.613833
4555.5, 0.611646
4559.5, 0.609327
4563.52, 0.606875
4567.54, 0.604225
4571.56, 0.601641
4575.6, 0.599057
4579.64, 0.596406
4583.69, 0.593557
4587.75, 0.590774
4591.81, 0.587991
4595.88, 0.584943
4599.96, 0.581962
4604.04, 0.578847
4608.14, 0.575733
4612.24, 0.572354
4616.34, 0.568975
4620.46, 0.565728
4624.58, 0.562415
4628.71, 0.559301
4632.84, 0.556385
4636.99, 0.553536
4641.14, 0.550819
4645.3, 0.548302
4649.47, 0.545982
4653.64, 0.543862
4657.82, 0.541676
4662.01, 0.539754
4666.21, 0.538031
4670.41, 0.536176
4674.62, 0.534188
4678.84, 0.532333
4683.07, 0.530478
4687.3, 0.528490
4691.54, 0.526436
4695.79, 0.524514
4700.05, 0.522460
4704.31, 0.520406
4708.59, 0.518484
4712.87, 0.516430
4717.15, 0.514376
4721.45, 0.512322
4725.76, 0.510334
4730.07, 0.508413
4734.39, 0.506624
4738.72, 0.504967
4743.05, 0.503245
4747.39, 0.501721
4751.75, 0.500263
4756.1, 0.498739
4760.47, 0.497215
4764.85, 0.495890
4769.23, 0.494631
4773.62, 0.493438
4778.02, 0.492246
4782.43, 0.490987
4786.85, 0.489860
4791.27, 0.488866
4795.7, 0.487674
4800.14, 0.486415
4804.59, 0.485222
4809.05, 0.483764
4813.51, 0.482373
4817.99, 0.480915
4822.47, 0.479391
4826.96, 0.477668
4831.46, 0.476078
4835.96, 0.474488
4840.48, 0.472699
4845.0, 0.470976
4849.54, 0.469187
4854.08, 0.467531
4858.63, 0.465808
4863.18, 0.464019
4867.75, 0.462296
4872.33, 0.460507
4876.91, 0.458585
4881.5, 0.456598
4886.1, 0.454742
4890.71, 0.452887
4895.33, 0.450899
4899.96, 0.448845
4904.59, 0.446924
4909.24, 0.444936
4913.89, 0.442948
4918.55, 0.440960
4923.22, 0.438972
4927.9, 0.436918
4932.59, 0.434997
4937.29, 0.432943
4942.0, 0.431021
4946.71, 0.429033
4951.44, 0.427112
4956.17, 0.425124
4960.91, 0.423269
4965.67, 0.421215
4970.43, 0.419094
4975.2, 0.416974
4979.98, 0.414920
4984.76, 0.412866
4989.56, 0.410746
4994.37, 0.408692
4999.18, 0.406571
5004.01, 0.404252
5008.84, 0.402066
5013.69, 0.399680
5018.54, 0.397361
5023.4, 0.395241
5028.28, 0.393187
5033.16, 0.391199
5038.05, 0.389211
5042.95, 0.387290
5047.86, 0.385434
5052.78, 0.383579
5057.71, 0.381724
5062.65, 0.380067
5067.6, 0.378477
5072.56, 0.376887
5077.53, 0.375164
5082.5, 0.373508
5087.49, 0.372116
5092.49, 0.370592
5097.5, 0.368869
5102.51, 0.367147
5107.54, 0.365424
5112.58, 0.363569
5117.62, 0.361448
5122.68, 0.359394
5127.75, 0.357340
5132.82, 0.355087
5137.91, 0.352702
5143.01, 0.350250
5148.12, 0.347865
5153.23, 0.345811
5158.36, 0.343691
5163.5, 0.341504
5168.65, 0.339384
5173.81, 0.337197
5178.98, 0.335209
5184.15, 0.333288
5189.34, 0.331300
5194.54, 0.329180
5199.75, 0.327126
5204.98, 0.325270
5210.21, 0.323216
5215.45, 0.321228
5220.7, 0.319771
5225.96, 0.317849
5231.23, 0.315928
5236.52, 0.314006
5241.81, 0.312018
5247.12, 0.310031
5252.44, 0.307910
5257.76, 0.305856
5263.1, 0.303736
5268.45, 0.301483
5273.81, 0.299230
5279.18, 0.297044
5284.56, 0.294923
5289.95, 0.292803
5295.36, 0.291014
5300.77, 0.289291
5306.2, 0.287568
5311.63, 0.285978
5317.08, 0.284520
5322.54, 0.283063
5328.01, 0.281605
5333.49, 0.280147
5338.98, 0.278557
5344.49, 0.276635
5350.0, 0.274780
5355.53, 0.273256
5361.07, 0.271600
5366.62, 0.269678
5372.18, 0.267690
5377.75, 0.265636
5383.34, 0.263450
5388.93, 0.261396
5394.54, 0.259540
5400.16, 0.257818
5405.79, 0.256095
5411.44, 0.254438
5417.09, 0.252451
5422.76, 0.250993
5428.43, 0.250595
5434.12, 0.249933
5439.83, 0.249270
5445.54, 0.248873
5451.26, 0.248608
5457.0, 0.248144
5462.75, 0.247547
5468.52, 0.247746
5474.29, 0.248077
5480.08, 0.248276
5485.88, 0.248806
5491.69, 0.249270
5497.51, 0.249800
5503.35, 0.250198
5509.2, 0.250860
5515.06, 0.251324
5520.93, 0.251788
5526.82, 0.252517
5532.71, 0.253312
5538.63, 0.254041
5544.55, 0.254571
5550.49, 0.255035
5556.44, 0.255565
5562.4, 0.256095
5568.37, 0.256294
5574.36, 0.255962
5580.36, 0.256029
5586.37, 0.256691
5592.4, 0.256757
5598.44, 0.256294
5604.49, 0.255830
5610.56, 0.255234
5616.63, 0.254637
5622.73, 0.253908
5628.83, 0.252981
5634.95, 0.251192
5641.08, 0.249270
5647.23, 0.248806
5653.39, 0.248011
5659.56, 0.247017
5665.74, 0.246090
5671.94, 0.244499
5678.15, 0.243373
5684.38, 0.242379
5690.62, 0.240921
5696.87, 0.239927
5703.14, 0.238337
5709.42, 0.236217
5715.72, 0.235024
5722.03, 0.233964
5728.35, 0.232705
5734.69, 0.230982
5741.03, 0.229061
5747.4, 0.227139
5753.78, 0.225615
5760.17, 0.222832
5766.58, 0.220049
5773.0, 0.219254
5779.44, 0.217995
5785.88, 0.216273
5792.35, 0.214417
5798.83, 0.212363
5805.32, 0.210243
5811.83, 0.207593
5818.35, 0.204081
5824.89, 0.201828
5831.45, 0.200569
5838.01, 0.199045
5844.59, 0.197190
5851.19, 0.194804
5857.8, 0.192419
5864.43, 0.190166
5871.07, 0.187913
5877.73, 0.184335
5884.4, 0.182348
5891.09, 0.180625
5897.79, 0.178438
5904.5, 0.177776
5911.23, 0.176053
5917.98, 0.173932
5924.75, 0.171746
5931.53, 0.168300
5938.32, 0.166048
5945.13, 0.165584
5951.96, 0.164126
5958.8, 0.162204
5965.65, 0.159753
5972.53, 0.158030
5979.42, 0.156506
5986.32, 0.154518
5993.24, 0.153061
6000.18, 0.152067
6007.13, 0.150543
6014.1, 0.149151
6021.08, 0.148290
6028.09, 0.147362
6035.1, 0.146236
6042.14, 0.143983
6049.19, 0.142260
6056.25, 0.143320
6063.34, 0.143652
6070.44, 0.142658
6077.55, 0.142724
6084.69, 0.143122
6091.84, 0.143055
6099.0, 0.142857
6106.19, 0.141995
6113.39, 0.141200
6120.61, 0.141531
6127.84, 0.141664
6135.09, 0.141134
6142.36, 0.140670
6149.65, 0.140272
6156.95, 0.139809
6164.27, 0.139610
6171.61, 0.139610
6178.97, 0.138881
6186.34, 0.138417
6193.73, 0.139013
6201.14, 0.139279
6208.57, 0.139345
6216.01, 0.139345
6223.47, 0.139212
6230.95, 0.139212
6238.45, 0.139212
6245.97, 0.139146
6253.5, 0.139146
6261.06, 0.139080
6268.63, 0.138815
6276.21, 0.138550
6283.82, 0.138417
6291.45, 0.138152
6299.1, 0.137887
6306.76, 0.137821
6314.44, 0.137821
6322.14, 0.137755
6329.86, 0.137688
6337.6, 0.137092
6345.35, 0.136827
6353.13, 0.137887
6360.92, 0.138218
6368.74, 0.138218
6376.57, 0.138881
6384.43, 0.139477
6392.3, 0.139610
6400.19, 0.139345
6408.1, 0.137887
6416.03, 0.137556
6423.98, 0.138748
6431.95, 0.138881
6439.94, 0.138748
6447.95, 0.138351
6455.98, 0.137887
6464.03, 0.137357
6472.1, 0.136297
6480.19, 0.135170
6488.31, 0.133779
6496.44, 0.133183
6504.59, 0.133911
6512.76, 0.133779
6520.95, 0.133050
6529.16, 0.132984
6537.4, 0.132586
6545.65, 0.131924
6553.92, 0.131261
6562.22, 0.130532
6570.54, 0.129538
6578.88, 0.129340
6587.23, 0.129141
6595.61, 0.128677
6604.02, 0.128279
6612.44, 0.127683
6620.89, 0.126954
6629.35, 0.125761
6637.84, 0.124834
6646.35, 0.125496
6654.88, 0.125894
6663.44, 0.125496
6672.01, 0.125033
6680.61, 0.124701
6689.23, 0.124900
6697.88, 0.124966
6706.54, 0.124503
6715.23, 0.124171
6723.94, 0.124039
6732.67, 0.123774
6741.42, 0.123376
6750.2, 0.122846
6759.0, 0.122316
6767.82, 0.121587
6776.67, 0.120792
6785.54, 0.119798
6794.44, 0.119334
6803.35, 0.119334
6812.29, 0.118870
6821.26, 0.118075
6830.24, 0.117678
6839.25, 0.117413
6848.29, 0.116684
6857.35, 0.115557
6866.43, 0.115160
6875.54, 0.115690
6884.67, 0.115756
6893.82, 0.115491
6903.0, 0.115027
6912.2, 0.114762
6921.43, 0.114497
6930.69, 0.114100
6939.96, 0.113570
6949.27, 0.112775
6958.59, 0.111913
6967.95, 0.111582
6977.33, 0.111118
6986.73, 0.110389
6996.16, 0.109727
7005.61, 0.109064
7015.09, 0.108203
7024.6, 0.107474
7034.13, 0.106414
7043.69, 0.105287
7053.27, 0.104757
7062.88, 0.104227
7072.52, 0.103366
7082.18, 0.102438
7091.87, 0.101643
7101.58, 0.100781
7111.32, 0.0997880
7121.09, 0.0989920
7130.88, 0.0982640
7140.71, 0.0971370
7150.56, 0.0961430
7160.43, 0.0952160
7170.33, 0.0942220
7180.27, 0.0932940
7190.23, 0.0922340
7200.21, 0.0909090
7210.23, 0.0897160
7220.27, 0.0887880
7230.34, 0.0875960
7240.44, 0.0864030
7250.56, 0.0852770
7260.72, 0.0840840
7270.9, 0.0828250
7281.12, 0.0815660
7291.36, 0.0805060
7301.63, 0.0793790
7311.93, 0.0781210
7322.25, 0.0768620
7332.61, 0.0756030
7343.0, 0.0742770
7353.41, 0.0730850
7363.86, 0.0718920
7374.33, 0.0706990
7384.83, 0.0693740
7395.37, 0.0679830
7405.93, 0.0667240
7416.53, 0.0654650
7427.15, 0.0641400
7437.81, 0.0626820
7448.5, 0.0614230
7459.22, 0.0601640
7469.96, 0.0589710
7480.74, 0.0577790
7491.55, 0.0565860
7502.39, 0.0552610
7513.27, 0.0540020
7524.17, 0.0527430
7535.11, 0.0514180
7546.08, 0.0502910
7557.08, 0.0491650
7568.11, 0.0479720
7579.17, 0.0467800
7590.27, 0.0457190
7601.4, 0.0447250
7612.56, 0.0436650
7623.76, 0.0424060
7634.98, 0.0410810
7646.24, 0.0397560
7657.54, 0.0385630
7668.87, 0.0372380
7680.23, 0.0359130
7691.62, 0.0347200
7703.05, 0.0334610
7714.51, 0.0321360
7726.01, 0.0308110
7737.54, 0.0294860
7749.11, 0.0282270
7760.71, 0.0269020
7772.35, 0.0255760
7784.02, 0.0243840
7795.72, 0.0231910
7807.46, 0.0220650
7819.23, 0.0208720
7831.04, 0.0198120
7842.89, 0.0187520
7854.77, 0.0176910
7866.69, 0.0165650
7878.65, 0.0155710
7890.64, 0.0146430
7902.67, 0.0137820
7914.74, 0.0128540
7926.84, 0.0120590
7938.98, 0.0112640
7951.16, 0.0104690
7963.37, 0.00974000
7975.62, 0.00901100
7987.91, 0.00841500
8000.24, 0.00795100
8012.6, 0.00748700
8025.01, 0.00702400
8037.45, 0.00662600
8049.93, 0.00629500
8062.45, 0.00603000
8075.01, 0.00563200
8087.61, 0.00550000
8100.24, 0.00550000
8112.91, 0.00563200
8125.63, 0.00583100
8138.39, 0.00603000
8151.18, 0.00642700
8164.02, 0.00709000
8176.9, 0.00801700
8189.81, 0.00901100
8202.77, 0.0102040
8215.77, 0.0115290
8228.82, 0.0132520
8241.9, 0.0153060
8255.02, 0.0176250
8268.19, 0.0202760
8281.39, 0.0233240
8294.65, 0.0265700
8307.94, 0.0298830
8321.28, 0.0332630
8334.66, 0.0367080
8348.08, 0.0399550
8361.54, 0.0429360
8375.05, 0.0455210
8388.6, 0.0478400
8402.2, 0.0496950
8415.84, 0.0514180
8429.52, 0.0527430
8443.25, 0.0534060
8457.02, 0.0536040
8470.84, 0.0536040
8484.7, 0.0532730
8498.61, 0.0528090
8512.57, 0.0525440
8526.57, 0.0524780
8540.62, 0.0527430
8554.71, 0.0528750
8568.85, 0.0530740
8583.04, 0.0532070
8597.27, 0.0534720
8611.55, 0.0536040
8625.88, 0.0536040
8640.26, 0.0536710
8654.68, 0.0537370
8669.16, 0.0536040
8683.68, 0.0533390
8698.25, 0.0532070
8712.87, 0.0530080
8727.53, 0.0527430
8742.25, 0.0524120
8757.02, 0.0521470
8771.83, 0.0516830
8786.7, 0.0512850
8801.62, 0.0509540
8816.59, 0.0506230
8831.61, 0.0504240
8846.68, 0.0505560
8861.8, 0.0506890
8876.97, 0.0506890
8892.2, 0.0505560
8907.48, 0.0506230
8922.81, 0.0506890
8938.2, 0.0504900
8953.63, 0.0501590
8969.13, 0.0497610
8984.67, 0.0492970
9000.27, 0.0489660
9015.92, 0.0484360
9031.63, 0.0477070
9047.39, 0.0467800
9063.21, 0.0457190
9079.08, 0.0443940
9095.01, 0.0429360
9111.0, 0.0410150
9127.04, 0.0393580
9143.13, 0.0377680
9159.28, 0.0361120
9175.49, 0.0345880
9191.76, 0.0332630
9208.09, 0.0320040
9224.47, 0.0312080
9240.92, 0.0304130
9257.42, 0.0300160
9273.98, 0.0296180
9290.6, 0.0290880
9307.28, 0.0288230
9324.02, 0.0290880
9340.82, 0.0294190
9357.68, 0.0295520
9374.6, 0.0300160
9391.58, 0.0307450
9408.62, 0.0314730
9425.73, 0.0325340
9442.9, 0.0335940
9460.13, 0.0346540
9477.42, 0.0361780
9494.78, 0.0378340
9512.2, 0.0396230
9529.69, 0.0414790
9547.24, 0.0432680
9564.86, 0.0448580
9582.54, 0.0462490
9600.28, 0.0475080
9618.1, 0.0486350
9635.97, 0.0497610
9653.92, 0.0506890
9671.93, 0.0512190
9690.01, 0.0514180
9708.16, 0.0514180
9726.37, 0.0510860
9744.65, 0.0505560
9763.0, 0.0502910
9781.43, 0.0495620
9799.92, 0.0488340
9818.48, 0.0481710
9837.1, 0.0475750
9855.8, 0.0471110
9874.58, 0.0468460
9893.42, 0.0469780
9912.34, 0.0471110
9931.33, 0.0475750
9950.39, 0.0482370
9969.52, 0.0488340
9988.74, 0.0495620
10008.0, 0.0506890
10027.4, 0.0516830
10046.8, 0.0526100
10066.3, 0.0537370
10085.9, 0.0547970
10105.6, 0.0556580
10125.3, 0.0561880
10145.1, 0.0565860
10165.0, 0.0565860
10185.0, 0.0565200
10205.0, 0.0571820
10225.2, 0.0581760
10245.4, 0.0596340
10265.7, 0.0616880
10286.0, 0.0640730
10306.5, 0.0667240
10327.0, 0.0693740
10347.6, 0.0717600
10368.3, 0.0737470
10389.1, 0.0759340
10409.9, 0.0777890
10430.9, 0.0793790
10451.9, 0.0806380
10473.0, 0.0813010
10494.2, 0.0816320
10515.5, 0.0820300
10536.9, 0.0824940
10558.4, 0.0826260
10579.9, 0.0830900
10601.5, 0.0835540
10623.3, 0.0834880
10645.1, 0.0836860
10667.0, 0.0839510
10689.0, 0.0843490
10711.1, 0.0850780
10733.2, 0.0858070
10755.5, 0.0867340
10777.9, 0.0871980
10800.3, 0.0869330
10822.9, 0.0862710
10845.5, 0.0855420
10868.2, 0.0843490
10891.1, 0.0832230
10914.0, 0.0823610
10937.0, 0.0814340
10960.2, 0.0804400
10983.4, 0.0797770
11006.7, 0.0790480
11030.1, 0.0784520
11053.6, 0.0778550
11077.3, 0.0771270
11101.0, 0.0762650
11124.8, 0.0755360
11148.7, 0.0746750
11172.7, 0.0738800
11196.9, 0.0731510
11221.1, 0.0722900
11245.4, 0.0715610
11269.9, 0.0712290
11294.4, 0.0709640
11319.1, 0.0708320
11343.9, 0.0707660
11368.8, 0.0708980
11393.7, 0.0707660
11418.8, 0.0708980
11444.0, 0.0710970
11469.4, 0.0716270
11494.8, 0.0720250
11520.3, 0.0721570
11546.0, 0.0723560
11571.8, 0.0730190
11597.7, 0.0734820
11623.7, 0.0741450
11649.8, 0.0748740
11676.0, 0.0756030
11702.4, 0.0759340
11728.9, 0.0761330
11755.5, 0.0767290
11782.2, 0.0771930
11809.0, 0.0775240
11836.0, 0.0779880
11863.0, 0.0783190
11890.3, 0.0788490
11917.6, 0.0793130
11945.0, 0.0797110
11972.6, 0.0801750
12000.4, 0.0808370
12028.2, 0.0815000
12056.2, 0.0824270
12084.3, 0.0832230
12112.5, 0.0834880
12140.9, 0.0836200
12169.4, 0.0838850
12198.0, 0.0837530
12226.8, 0.0835540
12255.7, 0.0830900
12284.7, 0.0822290
12313.9, 0.0811680
12343.2, 0.0797110
12372.7, 0.0782530
12402.3, 0.0767290
12432.0, 0.0746090
12461.9, 0.0716270
12491.9, 0.0685790
12522.1, 0.0659950
12552.4, 0.0634110
12582.9, 0.0604950
12613.5, 0.0573810
12644.3, 0.0542670
12675.2, 0.0510200
12706.3, 0.0477070
12737.5, 0.0442620
12768.9, 0.0406840
12800.4, 0.0367740
12832.1, 0.0343890
12863.9, 0.0331300
12895.9, 0.0323350
12928.1, 0.0319370
12960.4, 0.0318050
12992.9, 0.0319370
13025.5, 0.0321360
13058.3, 0.0322020
13091.3, 0.0327320
13124.4, 0.0331300
13157.8, 0.0338590
13191.2, 0.0345210
13224.9, 0.0345880
13258.7, 0.0345210
13292.7, 0.0349190
13326.9, 0.0346540
13361.2, 0.0341240
13395.7, 0.0336600
13430.4, 0.0329310
13465.3, 0.0320700
13500.4, 0.0317390
13535.7, 0.0314070
13571.1, 0.0308770
13606.7, 0.0307450
13642.5, 0.0312080
13678.5, 0.0316720
13714.7, 0.0325340
13751.1, 0.0327320
13787.6, 0.0329970
13824.4, 0.0333290
13861.4, 0.0333950
13898.5, 0.0334610
13935.9, 0.0335280
13973.5, 0.0329970
14011.2, 0.0324670
14049.2, 0.0314730
14087.4, 0.0298170
14125.8, 0.0285580
14164.3, 0.0276970
14203.2, 0.0266370
14242.2, 0.0257750
14281.4, 0.0248480
14320.9, 0.0242510
14360.5, 0.0235890
14400.4, 0.0232570
14440.5, 0.0234560
14480.9, 0.0239200
14521.4, 0.0242510
14562.2, 0.0245160
14603.3, 0.0247150
14644.5, 0.0247810
14686.0, 0.0242510
14727.7, 0.0237870
14769.7, 0.0237210
14811.9, 0.0238540
14854.3, 0.0241190
14897.0, 0.0249140
14939.9, 0.0261730
14983.1, 0.0274320
15026.5, 0.0282270
15070.2, 0.0290880
15114.2, 0.0298170
15158.3, 0.0304800
15202.8, 0.0311420
15247.5, 0.0325340
15292.5, 0.0346540
15337.7, 0.0379010
15383.2, 0.0418760
15429.0, 0.0465150
15475.1, 0.0504900
15521.4, 0.0536040
15568.0, 0.0554600
15614.9, 0.0571160
15662.1, 0.0575800
15709.6, 0.0575800
15757.3, 0.0571160
15805.4, 0.0567190
15853.7, 0.0561880
15902.3, 0.0559230
15951.2, 0.0557250
16000.5, 0.0556580
16050.0, 0.0548630
16099.8, 0.0537370
16150.0, 0.0524120
16200.5, 0.0513510
16251.3, 0.0506230
16302.4, 0.0504240
16353.8, 0.0508210
16405.5, 0.0519480
16457.6, 0.0530080
16510.0, 0.0541340
16562.8, 0.0553270
16615.9, 0.0567850
16669.3, 0.0573810
16723.1, 0.0583750
16777.2, 0.0599650
16831.7, 0.0617540
16886.5, 0.0640070
16941.7, 0.0657960
16997.2, 0.0660610
17053.1, 0.0657300
17109.4, 0.0642720
17166.1, 0.0623510
17223.1, 0.0608270
17280.5, 0.0593690
17338.3, 0.0567850
17396.5, 0.0551280
17455.1, 0.0545320
17514.0, 0.0549960
17573.4, 0.0556580
17633.2, 0.0570500
17693.4, 0.0574470
17754.0, 0.0571820
17815.0, 0.0564540
17876.4, 0.0553930
17938.3, 0.0547310
18000.5, 0.0553930
18063.3, 0.0560560
18126.4, 0.0574470
18190.0, 0.0595010
18254.1, 0.0616880
18318.6, 0.0642060
18383.5, 0.0669890
18449.0, 0.0686450
18514.9, 0.0693740
18581.2, 0.0687780
18648.0, 0.0665250
18715.4, 0.0642720
18783.2, 0.0629470
18851.5, 0.0613570
18920.3, 0.0597000
18989.6, 0.0587730
19059.4, 0.0583750
19129.7, 0.0577120
19200.6, 0.0577120
19272.0, 0.0571160
19343.9, 0.0565860
19416.3, 0.0560560
19489.3, 0.0561220
19562.8, 0.0573150
19637.0, 0.0583090
19711.6, 0.0573810
19786.8, 0.0566520
19862.6, 0.0544660
19939.0, 0.0514180
20016.0, 0.0491650
20093.6, 0.0472430
20171.8, 0.0443940
20250.6, 0.0415450
20330.0, 0.0392920
20410.0, 0.0402200
20490.7, 0.0421410
20572.0, 0.0438640
20654.0, 0.0442620
20736.6, 0.0451890
20819.9, 0.0445270
20903.8, 0.0443280
20988.5, 0.0439300
21073.8, 0.0426050
21159.8, 0.0438640
21246.5, 0.0461830
21334.0, 0.0455210
21422.1, 0.0453220
21511.0, 0.0447920
21600.7, 0.0455210
21691.0, 0.0455870
21782.1, 0.0459180
21874.0, 0.0463820
21966.7, 0.0453220
22060.2, 0.0424730
22154.5, 0.0419430
22249.6, 0.0434000
22345.5, 0.0432020
22442.2, 0.0406170
22539.8, 0.0412800
22638.2, 0.0407500
22737.5, 0.0422080
22837.7, 0.0427380
22938.7, 0.0462490
23040.7, 0.0528750
23143.5, 0.0593030
23247.3, 0.0629470
23352.1, 0.0644710
23457.7, 0.0650010
23564.4, 0.0666580
23672.0, 0.0652000
23780.5, 0.0650670
23890.1, 0.0634110
24000.7, 0.0636760
24112.3, 0.0646700
24225.0, 0.0661940
24338.7, 0.0642720
24453.5, 0.0629470
24569.4, 0.0622840
24686.4, 0.0675190
24804.5, 0.0664590
24923.8, 0.0640070
