Database of Origin,USGS Spectral Database
Sample Description,See USGS database for additional info
Date Added,2017-07-03 05:44:21.400761

Data ID,USGS_alu09          
Sample ID,alunite_gds84.1187
Mineral Name,alunite
Material Class,Sulfate

Wavelength
1299.94, 0.647517
1300.26, 0.640934
1300.59, 0.641862
1300.92, 0.635870
1301.24, 0.633760
1301.57, 0.640596
1301.9, 0.647348
1302.22, 0.646082
1302.55, 0.647010
1302.88, 0.635701
1303.21, 0.642200
1303.53, 0.652918
1303.86, 0.653172
1304.19, 0.651315
1304.52, 0.659164
1304.85, 0.650049
1305.17, 0.648276
1305.5, 0.645154
1305.83, 0.634688
1306.16, 0.632831
1306.49, 0.643719
1306.82, 0.651315
1307.15, 0.657476
1307.48, 0.655704
1307.81, 0.648108
1308.14, 0.643044
1308.47, 0.641946
1308.8, 0.640680
1309.13, 0.648867
1309.46, 0.646842
1309.79, 0.649542
1310.12, 0.650218
1310.45, 0.648192
1310.79, 0.640680
1311.12, 0.651906
1311.45, 0.655535
1311.78, 0.650893
1312.11, 0.655113
1312.44, 0.656885
1312.78, 0.655113
1313.11, 0.655957
1313.44, 0.658404
1313.77, 0.662456
1314.11, 0.656632
1314.44, 0.658320
1314.77, 0.662034
1315.11, 0.659502
1315.44, 0.652496
1315.78, 0.655450
1316.11, 0.653003
1316.44, 0.657138
1316.78, 0.660768
1317.11, 0.659839
1317.45, 0.657729
1317.78, 0.665241
1318.12, 0.661949
1318.45, 0.653678
1318.79, 0.649036
1319.12, 0.645660
1319.46, 0.642959
1319.8, 0.656126
1320.13, 0.654944
1320.47, 0.650893
1320.8, 0.647517
1321.14, 0.655619
1321.48, 0.652412
1321.81, 0.662202
1322.15, 0.661949
1322.49, 0.654944
1322.83, 0.650808
1323.16, 0.654691
1323.5, 0.653847
1323.84, 0.649289
1324.18, 0.650808
1324.52, 0.655872
1324.85, 0.660346
1325.19, 0.660261
1325.53, 0.661021
1325.87, 0.664059
1326.21, 0.662118
1326.55, 0.656885
1326.89, 0.661190
1327.23, 0.660430
1327.57, 0.655619
1327.91, 0.654522
1328.25, 0.653594
1328.59, 0.655788
1328.93, 0.663046
1329.27, 0.669123
1329.61, 0.664397
1329.95, 0.657476
1330.29, 0.657645
1330.64, 0.655788
1330.98, 0.657814
1331.32, 0.666000
1331.66, 0.668279
1332.0, 0.661274
1332.34, 0.655872
1332.69, 0.656970
1333.03, 0.653762
1333.37, 0.651737
1333.72, 0.646335
1334.06, 0.654775
1334.4, 0.658911
1334.75, 0.655113
1335.09, 0.654100
1335.43, 0.657814
1335.78, 0.655028
1336.12, 0.650640
1336.47, 0.649458
1336.81, 0.655957
1337.16, 0.663890
1337.5, 0.659586
1337.85, 0.653594
1338.19, 0.656885
1338.54, 0.656632
1338.88, 0.653172
1339.23, 0.652918
1339.58, 0.652834
1339.92, 0.642368
1340.27, 0.641609
1340.61, 0.642706
1340.96, 0.651906
1341.31, 0.648614
1341.66, 0.650218
1342.0, 0.652918
1342.35, 0.657307
1342.7, 0.653087
1343.05, 0.651399
1343.39, 0.651821
1343.74, 0.657054
1344.09, 0.658826
1344.44, 0.648192
1344.79, 0.651990
1345.14, 0.667520
1345.48, 0.666338
1345.83, 0.667520
1346.18, 0.661190
1346.53, 0.661021
1346.88, 0.656970
1347.23, 0.663300
1347.58, 0.667266
1347.93, 0.663215
1348.28, 0.660936
1348.64, 0.664566
1348.99, 0.663131
1349.34, 0.661611
1349.69, 0.660346
1350.04, 0.668279
1350.39, 0.664650
1350.74, 0.660261
1351.1, 0.653425
1351.45, 0.655366
1351.8, 0.659417
1352.15, 0.661949
1352.51, 0.664144
1352.86, 0.673006
1353.21, 0.663215
1353.56, 0.656126
1353.92, 0.663975
1354.27, 0.669967
1354.63, 0.668364
1354.98, 0.669630
1355.33, 0.662709
1355.69, 0.666422
1356.04, 0.669123
1356.4, 0.674525
1356.75, 0.667266
1357.11, 0.665410
1357.46, 0.660008
1357.82, 0.659248
1358.18, 0.659839
1358.53, 0.659248
1358.89, 0.661865
1359.24, 0.661443
1359.6, 0.656041
1359.96, 0.661949
1360.31, 0.666000
1360.67, 0.666929
1361.03, 0.669039
1361.39, 0.673006
1361.74, 0.670136
1362.1, 0.663046
1362.46, 0.659417
1362.82, 0.668532
1363.18, 0.666422
1363.53, 0.665241
1363.89, 0.664650
1364.25, 0.667942
1364.61, 0.669376
1364.97, 0.670305
1365.33, 0.666760
1365.69, 0.667773
1366.05, 0.664481
1366.41, 0.666591
1366.77, 0.672837
1367.13, 0.677310
1367.49, 0.671908
1367.85, 0.663215
1368.21, 0.668786
1368.57, 0.677985
1368.93, 0.674947
1369.3, 0.672415
1369.66, 0.677141
1370.02, 0.677901
1370.38, 0.673006
1370.74, 0.675622
1371.11, 0.682796
1371.47, 0.682374
1371.83, 0.678829
1372.19, 0.678660
1372.56, 0.677563
1372.92, 0.676972
1373.29, 0.672837
1373.65, 0.674525
1374.01, 0.667520
1374.38, 0.663468
1374.74, 0.663300
1375.11, 0.661190
1375.47, 0.668195
1375.84, 0.672921
1376.2, 0.673428
1376.57, 0.673090
1376.93, 0.667942
1377.3, 0.673343
1377.67, 0.676972
1378.03, 0.684315
1378.4, 0.682880
1378.76, 0.677479
1379.13, 0.668532
1379.5, 0.664566
1379.87, 0.668532
1380.23, 0.670220
1380.6, 0.671993
1380.97, 0.673090
1381.34, 0.673090
1381.7, 0.672499
1382.07, 0.675960
1382.44, 0.678914
1382.81, 0.676466
1383.18, 0.669967
1383.55, 0.666591
1383.92, 0.664059
1384.29, 0.663468
1384.66, 0.674272
1385.03, 0.676550
1385.4, 0.669967
1385.77, 0.659755
1386.14, 0.652496
1386.51, 0.658320
1386.88, 0.678407
1387.25, 0.702968
1387.62, 0.717906
1387.99, 0.702883
1388.36, 0.684484
1388.74, 0.665747
1389.11, 0.654775
1389.48, 0.650471
1389.85, 0.661443
1390.23, 0.670558
1390.6, 0.668448
1390.97, 0.665578
1391.35, 0.669376
1391.72, 0.670305
1392.09, 0.663046
1392.47, 0.657729
1396.59, 0.671908
1396.97, 0.665494
1397.35, 0.655957
1397.72, 0.658826
1398.1, 0.708032
1398.48, 0.686341
1398.85, 0.652159
1399.23, 0.663553
1399.61, 0.643044
1399.99, 0.606245
1400.37, 0.611562
1400.74, 0.629540
1401.12, 0.677901
1401.5, 0.674187
1401.88, 0.666929
1402.26, 0.669545
1402.64, 0.645998
1403.02, 0.649964
1403.4, 0.669545
1403.78, 0.678407
1404.16, 0.672584
1404.54, 0.665494
1404.92, 0.656210
1405.3, 0.665494
1405.68, 0.668786
1406.06, 0.657307
1406.44, 0.650640
1406.83, 0.653762
1407.21, 0.658151
1407.59, 0.656294
1407.97, 0.649627
1408.35, 0.640174
1408.74, 0.642875
1409.12, 0.641440
1409.5, 0.642875
1409.89, 0.642537
1410.27, 0.640596
1410.65, 0.636714
1411.04, 0.635363
1411.42, 0.641102
1411.81, 0.643719
1412.19, 0.641271
1412.58, 0.637220
1412.96, 0.639583
1413.35, 0.640258
1413.73, 0.635870
1414.12, 0.636629
1414.5, 0.632156
1414.89, 0.626248
1415.28, 0.627514
1415.66, 0.627345
1416.05, 0.624813
1416.44, 0.624644
1416.82, 0.622197
1417.21, 0.621775
1417.6, 0.616036
1417.98, 0.616626
1418.37, 0.615614
1418.76, 0.612238
1419.15, 0.609115
1419.54, 0.604473
1419.93, 0.597468
1420.32, 0.590125
1420.71, 0.580756
1421.09, 0.570375
1421.48, 0.557968
1421.88, 0.549782
1422.27, 0.538219
1422.66, 0.526909
1423.05, 0.517456
1423.44, 0.508426
1423.83, 0.500408
1424.22, 0.491124
1424.61, 0.477535
1425.0, 0.462174
1425.39, 0.455000
1425.78, 0.452468
1426.18, 0.454663
1426.57, 0.468504
1426.96, 0.478042
1427.36, 0.483865
1427.75, 0.491546
1428.14, 0.496947
1428.54, 0.503446
1428.93, 0.506231
1429.32, 0.506822
1429.72, 0.513827
1430.11, 0.513912
1430.51, 0.509354
1430.9, 0.505050
1431.3, 0.504037
1431.69, 0.501927
1432.09, 0.503615
1432.48, 0.511717
1432.88, 0.524799
1433.28, 0.533999
1433.67, 0.537628
1434.07, 0.544802
1434.46, 0.552145
1434.86, 0.550963
1435.26, 0.560078
1435.66, 0.569109
1436.05, 0.573329
1436.45, 0.578224
1436.85, 0.582276
1437.25, 0.583288
1437.65, 0.588099
1438.05, 0.591982
1438.44, 0.592826
1438.84, 0.596624
1439.24, 0.596286
1439.64, 0.594007
1440.04, 0.592066
1440.44, 0.591391
1440.84, 0.588859
1441.24, 0.588606
1441.65, 0.588606
1442.05, 0.585314
1442.45, 0.583710
1442.85, 0.582866
1443.25, 0.584723
1443.65, 0.587086
1444.05, 0.590631
1444.46, 0.586411
1444.86, 0.586158
1445.26, 0.584723
1445.67, 0.583964
1446.07, 0.583288
1446.47, 0.589618
1446.88, 0.587846
1447.28, 0.580166
1447.68, 0.577465
1448.09, 0.580334
1448.49, 0.580756
1448.9, 0.578562
1449.3, 0.573920
1449.71, 0.572401
1450.11, 0.570291
1450.52, 0.571472
1450.93, 0.566324
1451.33, 0.563792
1451.74, 0.565902
1452.14, 0.562357
1452.55, 0.555774
1452.96, 0.559656
1453.36, 0.561091
1453.77, 0.557378
1454.18, 0.552398
1454.59, 0.550626
1455.0, 0.551807
1455.41, 0.551807
1455.81, 0.549275
1456.22, 0.547840
1456.63, 0.545730
1457.04, 0.542186
1457.45, 0.545730
1457.86, 0.545646
1458.27, 0.542523
1458.68, 0.545984
1459.09, 0.547672
1459.5, 0.545815
1459.91, 0.541932
1460.32, 0.541595
1460.74, 0.542017
1461.15, 0.549106
1461.56, 0.545899
1461.97, 0.540413
1462.39, 0.540160
1462.8, 0.542270
1463.21, 0.542608
1463.62, 0.543874
1464.04, 0.541764
1464.45, 0.540835
1464.86, 0.539654
1465.28, 0.539569
1465.69, 0.540498
1466.11, 0.538219
1466.52, 0.536784
1466.94, 0.539063
1467.35, 0.538134
1467.77, 0.535518
1468.18, 0.528935
1468.6, 0.522858
1469.02, 0.520495
1469.43, 0.521761
1469.85, 0.518807
1470.27, 0.512224
1470.68, 0.506738
1471.1, 0.502180
1471.52, 0.495934
1471.94, 0.490702
1472.35, 0.482430
1472.77, 0.472724
1473.19, 0.463103
1473.61, 0.454241
1474.03, 0.443269
1474.45, 0.432719
1474.87, 0.425123
1475.29, 0.418033
1475.71, 0.404867
1476.13, 0.394823
1476.55, 0.389928
1476.97, 0.383851
1477.39, 0.379040
1477.81, 0.381994
1478.23, 0.388156
1478.65, 0.392544
1479.07, 0.400478
1479.5, 0.410437
1479.92, 0.423772
1480.34, 0.438542
1480.76, 0.451793
1481.19, 0.463440
1481.61, 0.477957
1482.03, 0.491714
1482.46, 0.501083
1482.88, 0.509354
1483.31, 0.516950
1483.73, 0.525643
1484.16, 0.532648
1484.58, 0.540751
1485.01, 0.545899
1485.43, 0.553833
1485.86, 0.564552
1486.28, 0.572654
1486.71, 0.578224
1487.14, 0.578562
1487.56, 0.578900
1487.99, 0.584554
1488.42, 0.588352
1488.84, 0.588774
1489.27, 0.590209
1489.7, 0.595273
1490.13, 0.594260
1490.56, 0.590378
1490.98, 0.590969
1491.41, 0.599071
1491.84, 0.602532
1492.27, 0.599578
1492.7, 0.599746
1493.13, 0.600422
1493.56, 0.599746
1493.99, 0.604135
1494.42, 0.609537
1494.85, 0.609874
1495.29, 0.605148
1495.72, 0.601941
1496.15, 0.603291
1496.58, 0.604135
1497.01, 0.604220
1497.44, 0.605570
1497.88, 0.607427
1498.31, 0.606076
1498.74, 0.604135
1499.18, 0.608440
1499.61, 0.611225
1500.04, 0.615698
1500.48, 0.614179
1500.91, 0.611984
1501.35, 0.612828
1501.78, 0.616120
1502.22, 0.619412
1502.65, 0.618990
1503.09, 0.617470
1503.53, 0.618990
1503.96, 0.623294
1504.4, 0.626923
1504.83, 0.631228
1505.27, 0.634604
1505.71, 0.634941
1506.15, 0.631565
1506.58, 0.629708
1507.02, 0.633591
1507.46, 0.638402
1507.9, 0.642453
1508.34, 0.639246
1508.78, 0.637558
1509.21, 0.643297
1509.66, 0.648783
1510.09, 0.646335
1510.53, 0.645829
1510.97, 0.646251
1511.42, 0.647601
1511.86, 0.648867
1512.3, 0.647095
1512.74, 0.645491
1513.18, 0.649120
1513.62, 0.646673
1514.06, 0.648867
1514.51, 0.650218
1514.95, 0.650049
1515.39, 0.651990
1515.83, 0.653762
1516.28, 0.656801
1516.72, 0.658067
1517.16, 0.655282
1517.61, 0.653087
1518.05, 0.653509
1518.5, 0.654775
1518.94, 0.655282
1519.39, 0.659924
1519.83, 0.660430
1520.28, 0.658404
1520.73, 0.656632
1521.17, 0.657392
1521.62, 0.660261
1522.07, 0.663975
1522.51, 0.665578
1522.96, 0.661865
1523.41, 0.660430
1523.85, 0.660599
1524.3, 0.660430
1524.75, 0.663046
1525.2, 0.664819
1525.65, 0.664059
1526.1, 0.664650
1526.55, 0.663806
1527.0, 0.663046
1527.45, 0.663637
1527.9, 0.663300
1528.35, 0.663215
1528.8, 0.662456
1529.25, 0.663722
1529.7, 0.662878
1530.15, 0.662540
1530.6, 0.661949
1531.05, 0.662624
1531.51, 0.664650
1531.96, 0.662709
1532.41, 0.661696
1532.87, 0.663046
1533.32, 0.664819
1533.77, 0.666338
1534.23, 0.664819
1534.68, 0.665663
1535.14, 0.665156
1535.59, 0.666591
1536.05, 0.666844
1536.5, 0.664228
1536.96, 0.665410
1537.41, 0.665578
1537.87, 0.663215
1538.32, 0.665663
1538.78, 0.670896
1539.24, 0.672921
1539.7, 0.671740
1540.15, 0.672415
1540.61, 0.670558
1541.07, 0.669630
1541.53, 0.670220
1541.98, 0.671571
1542.44, 0.670642
1542.9, 0.670642
1543.36, 0.671233
1543.82, 0.668448
1544.28, 0.669545
1544.74, 0.671318
1545.2, 0.670052
1545.66, 0.672837
1546.12, 0.675031
1546.59, 0.675538
1547.05, 0.675116
1547.51, 0.669545
1547.97, 0.667013
1548.43, 0.670558
1548.9, 0.671318
1549.36, 0.671149
1549.82, 0.669545
1550.29, 0.670642
1550.75, 0.675453
1551.21, 0.677732
1551.68, 0.674778
1552.14, 0.673090
1552.61, 0.673259
1553.07, 0.674018
1553.54, 0.673596
1554.0, 0.673343
1554.47, 0.669883
1554.93, 0.669883
1555.4, 0.672162
1555.87, 0.674272
1556.34, 0.672668
1556.8, 0.675369
1557.27, 0.676804
1557.74, 0.675875
1558.21, 0.673343
1558.68, 0.672584
1559.14, 0.676297
1559.61, 0.677057
1560.08, 0.675960
1560.55, 0.673006
1561.02, 0.671824
1561.49, 0.674778
1561.96, 0.678829
1562.43, 0.677141
1562.9, 0.674862
1563.38, 0.677394
1563.85, 0.676719
1564.32, 0.674525
1564.79, 0.674862
1565.26, 0.678576
1565.74, 0.678829
1566.21, 0.675284
1566.68, 0.673006
1567.16, 0.672752
1567.63, 0.673596
1568.1, 0.675875
1568.58, 0.674356
1569.05, 0.673343
1569.53, 0.673006
1570.0, 0.673596
1570.48, 0.672499
1570.96, 0.673512
1571.43, 0.675706
1571.91, 0.677141
1572.39, 0.676888
1572.86, 0.676972
1573.34, 0.674440
1573.82, 0.675369
1574.3, 0.675116
1574.77, 0.673596
1575.25, 0.670642
1575.73, 0.671149
1576.21, 0.672330
1576.69, 0.674440
1577.17, 0.675284
1577.65, 0.676382
1578.13, 0.676213
1578.61, 0.675200
1579.09, 0.675200
1579.57, 0.673934
1580.05, 0.674018
1580.54, 0.672752
1581.02, 0.672162
1581.5, 0.674862
1581.98, 0.674525
1582.47, 0.676128
1582.95, 0.673428
1583.43, 0.670389
1583.92, 0.671740
1584.4, 0.671993
1584.88, 0.672584
1585.37, 0.676972
1585.85, 0.677479
1586.34, 0.676550
1586.82, 0.675706
1587.31, 0.674609
1587.8, 0.673765
1588.28, 0.674525
1588.77, 0.674018
1589.26, 0.672499
1589.74, 0.671149
1590.23, 0.672584
1590.72, 0.674187
1591.21, 0.674272
1591.7, 0.672752
1592.19, 0.671993
1592.67, 0.673681
1593.16, 0.676213
1593.65, 0.676804
1594.14, 0.676297
1594.63, 0.676466
1595.12, 0.676128
1595.61, 0.673850
1596.11, 0.673343
1596.6, 0.673681
1597.09, 0.674187
1597.58, 0.673512
1598.08, 0.674525
1598.57, 0.677394
1599.06, 0.677648
1599.55, 0.677563
1600.05, 0.676466
1600.54, 0.673259
1601.04, 0.672752
1601.53, 0.673681
1602.03, 0.674018
1602.52, 0.674694
1603.02, 0.676466
1603.51, 0.674778
1604.01, 0.673006
1604.5, 0.672330
1605.0, 0.673596
1605.5, 0.674018
1606.0, 0.674440
1606.49, 0.674947
1606.99, 0.675284
1607.49, 0.674272
1607.99, 0.672584
1608.49, 0.673765
1608.99, 0.677141
1609.49, 0.676635
1609.99, 0.675453
1610.49, 0.677141
1610.99, 0.678914
1611.49, 0.678660
1611.99, 0.675875
1612.49, 0.675791
1612.99, 0.677732
1613.49, 0.676466
1614.0, 0.674525
1614.5, 0.676044
1615.0, 0.677226
1615.51, 0.676550
1616.01, 0.677226
1616.51, 0.677563
1617.02, 0.676382
1617.52, 0.675453
1618.03, 0.673681
1618.53, 0.675116
1619.04, 0.677310
1619.54, 0.675960
1620.05, 0.675200
1620.55, 0.676466
1621.06, 0.677141
1621.57, 0.676550
1622.08, 0.677310
1622.58, 0.676297
1623.09, 0.676550
1623.6, 0.675791
1624.11, 0.677226
1624.62, 0.677732
1625.13, 0.677479
1625.64, 0.677141
1626.15, 0.676044
1626.66, 0.675200
1627.17, 0.675791
1627.68, 0.674609
1628.19, 0.675200
1628.7, 0.675116
1629.21, 0.675791
1629.72, 0.675369
1630.24, 0.677141
1630.75, 0.675875
1631.26, 0.674694
1631.78, 0.673934
1632.29, 0.674525
1632.8, 0.676044
1633.32, 0.676128
1633.83, 0.675875
1634.35, 0.678407
1634.86, 0.677479
1635.38, 0.676550
1635.9, 0.677816
1636.41, 0.679842
1636.93, 0.679082
1637.45, 0.676972
1637.96, 0.675538
1638.48, 0.676719
1639.0, 0.678660
1639.52, 0.677141
1640.04, 0.677310
1640.56, 0.677732
1641.08, 0.677648
1641.59, 0.677732
1642.11, 0.677310
1642.63, 0.676719
1643.16, 0.676128
1643.68, 0.676804
1644.2, 0.674694
1644.72, 0.675284
1645.24, 0.676466
1645.76, 0.676128
1646.29, 0.675622
1646.81, 0.676466
1647.33, 0.675960
1647.86, 0.673596
1648.38, 0.673343
1648.9, 0.675031
1649.43, 0.674103
1649.95, 0.674103
1650.48, 0.673343
1651.0, 0.672837
1651.53, 0.672584
1652.06, 0.673259
1652.58, 0.673174
1653.11, 0.672668
1653.64, 0.672330
1654.17, 0.673596
1654.69, 0.673090
1655.22, 0.670474
1655.75, 0.669292
1656.28, 0.670642
1656.81, 0.671402
1657.34, 0.672668
1657.87, 0.673343
1658.4, 0.672499
1658.93, 0.670642
1659.46, 0.670558
1659.99, 0.672330
1660.52, 0.674018
1661.05, 0.673090
1661.59, 0.671824
1662.12, 0.672921
1662.65, 0.673428
1663.19, 0.671233
1663.72, 0.671233
1664.26, 0.672330
1664.79, 0.671149
1665.32, 0.668195
1665.86, 0.668701
1666.39, 0.668870
1666.93, 0.669630
1667.47, 0.669292
1668.0, 0.668195
1668.54, 0.667857
1669.08, 0.666507
1669.61, 0.665241
1670.15, 0.666760
1670.69, 0.668364
1671.23, 0.668110
1671.77, 0.669208
1672.31, 0.668110
1672.85, 0.666169
1673.39, 0.664819
1673.93, 0.664988
1674.47, 0.666760
1675.01, 0.665410
1675.55, 0.665325
1676.09, 0.665832
1676.64, 0.667942
1677.18, 0.667604
1677.72, 0.663806
1678.26, 0.662540
1678.81, 0.664144
1679.35, 0.664903
1679.89, 0.663637
1680.44, 0.662118
1680.98, 0.662371
1681.53, 0.661105
1682.07, 0.660261
1682.62, 0.661190
1683.17, 0.662118
1683.71, 0.661274
1684.26, 0.662287
1684.81, 0.662456
1685.36, 0.661949
1685.9, 0.660430
1686.45, 0.659502
1687.0, 0.659839
1687.55, 0.661527
1688.1, 0.661696
1688.65, 0.659755
1689.2, 0.657982
1689.75, 0.658658
1690.3, 0.658067
1690.85, 0.659080
1691.41, 0.660852
1691.96, 0.660346
1692.51, 0.658573
1693.06, 0.659164
1693.61, 0.658573
1694.17, 0.658151
1694.72, 0.657729
1695.28, 0.657560
1695.83, 0.659333
1696.39, 0.660008
1696.94, 0.657729
1697.5, 0.656970
1698.05, 0.655113
1698.61, 0.654522
1699.17, 0.655113
1699.72, 0.656463
1700.28, 0.656463
1700.84, 0.657054
1701.4, 0.657307
1701.95, 0.655619
1702.51, 0.655282
1703.07, 0.654691
1703.63, 0.654184
1704.19, 0.654184
1704.75, 0.653256
1705.31, 0.654353
1705.88, 0.654522
1706.44, 0.654016
1707.0, 0.652918
1707.56, 0.653003
1708.12, 0.653087
1708.69, 0.651906
1709.25, 0.651230
1709.81, 0.652159
1710.38, 0.651652
1710.94, 0.651230
1711.51, 0.652159
1712.07, 0.652074
1712.64, 0.650893
1713.2, 0.649711
1713.77, 0.647854
1714.34, 0.646335
1714.9, 0.646504
1715.47, 0.646420
1716.04, 0.646420
1716.61, 0.647264
1717.18, 0.644985
1717.74, 0.643466
1718.31, 0.643719
1718.88, 0.642622
1719.45, 0.642200
1720.02, 0.641778
1720.59, 0.640596
1721.17, 0.638908
1721.74, 0.638655
1722.31, 0.636038
1722.88, 0.635448
1723.45, 0.637726
1724.03, 0.638317
1724.6, 0.635279
1725.18, 0.630890
1725.75, 0.627767
1726.33, 0.627683
1726.9, 0.627430
1727.48, 0.627683
1728.05, 0.626248
1728.63, 0.625320
1729.2, 0.623463
1729.78, 0.623547
1730.36, 0.621353
1730.94, 0.618736
1731.51, 0.617133
1732.09, 0.616964
1732.67, 0.616964
1733.25, 0.614010
1733.83, 0.613335
1734.41, 0.610718
1734.99, 0.609706
1735.57, 0.609874
1736.15, 0.607680
1736.73, 0.606583
1737.32, 0.606414
1737.9, 0.602532
1738.48, 0.598396
1739.07, 0.597299
1739.65, 0.598734
1740.23, 0.598649
1740.82, 0.595189
1741.4, 0.591306
1741.99, 0.588352
1742.57, 0.590884
1743.16, 0.590125
1743.74, 0.585905
1744.33, 0.584048
1744.92, 0.586327
1745.51, 0.583457
1746.09, 0.576705
1746.68, 0.574848
1747.27, 0.574848
1747.86, 0.572232
1748.45, 0.571641
1749.04, 0.571388
1749.63, 0.568265
1750.22, 0.566071
1750.81, 0.565649
1751.4, 0.565480
1751.99, 0.568265
1752.59, 0.568687
1753.18, 0.561682
1753.77, 0.558137
1754.37, 0.560332
1754.96, 0.563201
1755.56, 0.563961
1756.15, 0.564467
1756.74, 0.564552
1757.34, 0.558559
1757.94, 0.554002
1758.53, 0.553073
1759.13, 0.552314
1759.73, 0.550119
1760.32, 0.550372
1760.92, 0.550710
1761.52, 0.548262
1762.12, 0.547925
1762.72, 0.546828
1763.32, 0.546490
1763.92, 0.545899
1764.52, 0.545055
1765.12, 0.544211
1765.72, 0.543958
1766.32, 0.541848
1766.92, 0.543705
1767.53, 0.546912
1768.13, 0.546406
1768.73, 0.544127
1769.34, 0.545899
1769.94, 0.544886
1770.55, 0.543958
1771.15, 0.546152
1771.76, 0.549950
1772.36, 0.554930
1772.97, 0.557800
1773.57, 0.558475
1774.18, 0.559910
1774.79, 0.561851
1775.4, 0.561766
1776.0, 0.563792
1776.61, 0.565649
1777.22, 0.565058
1777.83, 0.565902
1778.44, 0.567421
1779.05, 0.569869
1779.66, 0.572316
1780.27, 0.572907
1780.88, 0.574680
1781.5, 0.578224
1782.11, 0.581010
1782.72, 0.583964
1783.33, 0.585736
1783.95, 0.588352
1784.56, 0.591560
1785.18, 0.592994
1785.79, 0.593838
1786.41, 0.596286
1787.02, 0.600000
1787.64, 0.603291
1788.26, 0.606667
1788.87, 0.610381
1789.49, 0.612238
1790.11, 0.615023
1790.73, 0.619496
1791.35, 0.623210
1791.96, 0.625573
1792.58, 0.627683
1793.21, 0.630890
1793.83, 0.633169
1794.45, 0.634941
1795.07, 0.635954
1795.69, 0.637811
1796.31, 0.639668
1796.93, 0.640427
1797.56, 0.641102
1798.18, 0.640849
1798.8, 0.641524
1799.43, 0.641018
1800.05, 0.641018
1800.68, 0.643381
1801.3, 0.644816
1801.93, 0.645238
1802.56, 0.646673
1803.18, 0.646335
1803.81, 0.646166
1804.44, 0.645576
1805.07, 0.645913
1805.7, 0.647854
1806.33, 0.649627
1806.95, 0.648952
1807.58, 0.649458
1808.22, 0.649880
1808.85, 0.649880
1809.48, 0.649036
1810.11, 0.649796
1810.74, 0.650218
1811.38, 0.649796
1812.01, 0.649711
1812.64, 0.650640
1813.28, 0.651652
1813.91, 0.650640
1814.55, 0.649374
1815.18, 0.649711
1815.82, 0.649627
1816.45, 0.650640
1817.09, 0.651399
1817.73, 0.651399
1818.36, 0.650555
1819.0, 0.650049
1819.64, 0.650977
1820.28, 0.651652
1820.92, 0.650049
1821.56, 0.650049
1822.2, 0.651146
1822.84, 0.651906
1823.48, 0.651906
1824.12, 0.651737
1824.76, 0.650049
1825.41, 0.650133
1826.05, 0.651399
1826.69, 0.651652
1827.34, 0.650808
1827.98, 0.650386
1828.63, 0.650133
1829.27, 0.650386
1829.92, 0.650218
1830.56, 0.650471
1831.21, 0.650471
1831.86, 0.649627
1832.5, 0.648952
1833.15, 0.649458
1833.8, 0.649796
1834.45, 0.647770
1835.1, 0.645491
1835.75, 0.646757
1836.4, 0.647939
1837.05, 0.647348
1837.7, 0.648023
1838.35, 0.648108
1839.01, 0.646842
1839.66, 0.645238
1840.31, 0.645491
1840.96, 0.647095
1841.62, 0.646588
1842.27, 0.646926
1842.93, 0.647179
1843.58, 0.647179
1844.24, 0.645407
1844.9, 0.644732
1845.55, 0.644647
1846.21, 0.644478
1846.87, 0.643972
1847.53, 0.644056
1848.18, 0.644900
1848.84, 0.644816
1849.5, 0.644141
1850.16, 0.643634
1850.82, 0.643381
1851.48, 0.643212
1852.14, 0.642537
1852.81, 0.642790
1853.47, 0.643550
1854.13, 0.643888
1854.8, 0.643128
1855.46, 0.641693
1856.12, 0.641609
1856.79, 0.642453
1857.45, 0.641187
1858.12, 0.640934
1858.79, 0.639921
1859.45, 0.639246
1860.12, 0.639668
1860.79, 0.639921
1861.46, 0.638148
1862.12, 0.638148
1862.79, 0.639077
1863.46, 0.639752
1864.13, 0.638992
1864.8, 0.638064
1865.48, 0.637051
1866.15, 0.636714
1866.82, 0.634772
1867.49, 0.634182
1868.16, 0.634941
1868.84, 0.634688
1869.51, 0.633422
1870.19, 0.632409
1870.86, 0.631734
1871.54, 0.631987
1872.21, 0.631059
1872.89, 0.629877
1873.56, 0.628274
1874.24, 0.628189
1874.92, 0.627683
1875.6, 0.628105
1876.28, 0.626754
1876.96, 0.625151
1877.64, 0.623885
1878.32, 0.623547
1879.0, 0.622872
1879.68, 0.623041
1880.36, 0.622619
1881.04, 0.622197
1881.73, 0.620678
1882.41, 0.619412
1883.09, 0.618314
1883.78, 0.617724
1884.46, 0.616204
1885.15, 0.614601
1885.83, 0.614348
1886.52, 0.614516
1887.21, 0.613419
1887.89, 0.612491
1888.58, 0.611478
1889.27, 0.609790
1889.96, 0.608862
1890.65, 0.608018
1891.34, 0.606752
1892.03, 0.605739
1892.72, 0.604220
1893.41, 0.603376
1894.1, 0.602532
1894.79, 0.601941
1895.49, 0.600759
1896.18, 0.600590
1896.87, 0.598902
1897.57, 0.596624
1898.26, 0.594429
1898.96, 0.592910
1899.65, 0.592319
1900.35, 0.591728
1901.05, 0.590547
1901.74, 0.590209
1902.44, 0.589618
1903.14, 0.587340
1903.84, 0.584639
1904.54, 0.583204
1905.24, 0.582529
1905.94, 0.581347
1906.64, 0.580503
1907.34, 0.578815
1908.04, 0.576790
1908.75, 0.575439
1909.45, 0.575102
1910.15, 0.574258
1910.86, 0.573414
1911.56, 0.571726
1912.27, 0.569953
1912.97, 0.569447
1913.68, 0.569194
1914.39, 0.569025
1915.09, 0.566830
1915.8, 0.565818
1916.51, 0.565142
1917.22, 0.563961
1917.93, 0.562695
1918.64, 0.561260
1919.35, 0.559488
1920.06, 0.560078
1920.77, 0.559572
1921.48, 0.557293
1922.19, 0.556365
1922.91, 0.556787
1923.62, 0.556534
1924.33, 0.556702
1925.05, 0.556534
1925.76, 0.555521
1926.48, 0.554846
1927.19, 0.554086
1927.91, 0.553664
1928.63, 0.553748
1929.35, 0.552736
1930.07, 0.551554
1930.78, 0.551301
1931.5, 0.550963
1932.22, 0.549106
1932.94, 0.549782
1933.66, 0.549697
1934.39, 0.550288
1935.11, 0.550626
1935.83, 0.550457
1936.55, 0.550288
1937.28, 0.549782
1938.0, 0.549106
1938.73, 0.548347
1939.45, 0.547250
1940.18, 0.547418
1940.9, 0.547672
1941.63, 0.547503
1942.36, 0.547418
1943.09, 0.546828
1943.81, 0.546659
1944.54, 0.546574
1945.27, 0.545646
1946.0, 0.544211
1946.73, 0.543452
1947.47, 0.543367
1948.2, 0.543198
1948.93, 0.542945
1949.66, 0.542017
1950.4, 0.541257
1951.13, 0.540835
1951.86, 0.540666
1952.6, 0.540413
1953.34, 0.539907
1954.07, 0.539232
1954.81, 0.538978
1955.55, 0.538219
1956.29, 0.536531
1957.02, 0.536615
1957.76, 0.536615
1958.5, 0.535771
1959.24, 0.535096
1959.98, 0.534505
1960.72, 0.534590
1961.47, 0.535096
1962.21, 0.535012
1962.95, 0.534336
1963.7, 0.534252
1964.44, 0.533999
1965.18, 0.534421
1965.93, 0.534252
1966.67, 0.533914
1967.42, 0.535096
1968.17, 0.536784
1968.92, 0.536193
1969.66, 0.535265
1970.41, 0.535602
1971.16, 0.536784
1971.91, 0.537375
1972.66, 0.537290
1973.41, 0.537206
1974.16, 0.537881
1974.92, 0.538556
1975.67, 0.538978
1976.42, 0.538556
1977.18, 0.538303
1977.93, 0.538810
1978.69, 0.539485
1979.44, 0.539316
1980.2, 0.538978
1980.95, 0.538725
1981.71, 0.537712
1982.47, 0.537544
1983.23, 0.537797
1983.99, 0.538303
1984.74, 0.538050
1985.51, 0.536615
1986.27, 0.535012
1987.03, 0.533914
1987.79, 0.534758
1988.55, 0.534336
1989.32, 0.531720
1990.08, 0.530116
1990.84, 0.530370
1991.61, 0.529357
1992.37, 0.528175
1993.14, 0.526740
1993.9, 0.524799
1994.67, 0.523955
1995.44, 0.523702
1996.21, 0.522098
1996.98, 0.520579
1997.75, 0.518976
1998.52, 0.517372
1999.29, 0.515768
2000.06, 0.514756
2000.83, 0.513912
2001.6, 0.514165
2002.38, 0.513236
2003.15, 0.511126
2003.93, 0.510029
2004.7, 0.510367
2005.48, 0.509692
2006.25, 0.508679
2007.03, 0.507160
2007.81, 0.506822
2008.58, 0.506822
2009.36, 0.505978
2010.14, 0.504796
2010.92, 0.503362
2011.7, 0.503277
2012.48, 0.504037
2013.26, 0.504206
2014.05, 0.504459
2014.83, 0.504881
2015.61, 0.504796
2016.4, 0.504796
2017.18, 0.505809
2017.97, 0.506062
2018.75, 0.506569
2019.54, 0.506906
2020.32, 0.507244
2021.11, 0.507160
2021.9, 0.507582
2022.69, 0.508088
2023.48, 0.508341
2024.27, 0.507160
2025.06, 0.505387
2025.85, 0.505218
2026.64, 0.505809
2027.44, 0.505218
2028.23, 0.504290
2029.02, 0.503615
2029.82, 0.503108
2030.61, 0.501758
2031.41, 0.501505
2032.2, 0.501589
2033.0, 0.501083
2033.8, 0.500914
2034.6, 0.500239
2035.4, 0.499395
2036.2, 0.499564
2037.0, 0.499564
2037.8, 0.498804
2038.6, 0.497538
2039.4, 0.497369
2040.2, 0.497200
2041.01, 0.496778
2041.81, 0.496188
2042.61, 0.495512
2043.42, 0.495090
2044.22, 0.494331
2045.03, 0.493824
2045.84, 0.493402
2046.65, 0.492052
2047.46, 0.491799
2048.26, 0.492474
2049.07, 0.491968
2049.88, 0.489773
2050.69, 0.488676
2051.51, 0.488001
2052.32, 0.487157
2053.13, 0.486566
2053.94, 0.486144
2054.76, 0.485553
2055.57, 0.484794
2056.39, 0.484456
2057.2, 0.483696
2058.02, 0.482093
2058.84, 0.481418
2059.66, 0.481924
2060.48, 0.481840
2061.29, 0.480742
2062.11, 0.480405
2062.94, 0.479983
2063.76, 0.480067
2064.58, 0.479898
2065.4, 0.479476
2066.22, 0.479308
2067.05, 0.478886
2067.87, 0.478970
2068.7, 0.478717
2069.52, 0.479054
2070.35, 0.479814
2071.18, 0.479983
2072.0, 0.480489
2072.83, 0.480574
2073.66, 0.480320
2074.49, 0.480405
2075.32, 0.480489
2076.15, 0.480320
2076.98, 0.479898
2077.82, 0.480574
2078.65, 0.480489
2079.48, 0.479730
2080.32, 0.479983
2081.15, 0.480320
2081.99, 0.481249
2082.83, 0.481164
2083.66, 0.480742
2084.5, 0.479730
2085.34, 0.478379
2086.18, 0.477788
2087.02, 0.477198
2087.86, 0.476860
2088.7, 0.476438
2089.54, 0.476269
2090.39, 0.474581
2091.23, 0.472978
2092.07, 0.472049
2092.92, 0.471205
2093.76, 0.470024
2094.61, 0.468673
2095.45, 0.466648
2096.3, 0.465382
2097.15, 0.464369
2098.0, 0.462512
2098.85, 0.460318
2099.7, 0.458714
2100.55, 0.458208
2101.4, 0.456435
2102.25, 0.453903
2103.1, 0.451287
2103.96, 0.448755
2104.81, 0.445716
2105.67, 0.443016
2106.52, 0.440737
2107.38, 0.438458
2108.24, 0.434407
2109.09, 0.431200
2109.95, 0.427908
2110.81, 0.424870
2111.67, 0.421578
2112.53, 0.418286
2113.39, 0.414910
2114.25, 0.411872
2115.12, 0.407399
2115.98, 0.403179
2116.84, 0.399803
2117.71, 0.395836
2118.58, 0.391278
2119.44, 0.386130
2120.31, 0.380897
2121.18, 0.376171
2122.04, 0.371529
2122.91, 0.367562
2123.78, 0.362836
2124.65, 0.358784
2125.52, 0.355746
2126.4, 0.352792
2127.27, 0.350176
2128.14, 0.347812
2129.02, 0.345618
2129.89, 0.343930
2130.77, 0.341989
2131.64, 0.339879
2132.52, 0.338528
2133.4, 0.336672
2134.27, 0.334646
2135.15, 0.332874
2136.03, 0.331608
2136.91, 0.329751
2137.79, 0.327134
2138.68, 0.325024
2139.56, 0.323421
2140.44, 0.322408
2141.33, 0.320804
2142.21, 0.318694
2143.1, 0.317344
2143.99, 0.316584
2144.87, 0.315825
2145.76, 0.314643
2146.65, 0.313377
2147.54, 0.311098
2148.43, 0.309073
2149.32, 0.306963
2150.21, 0.303756
2151.1, 0.299704
2151.99, 0.295822
2152.89, 0.293459
2153.78, 0.289998
2154.68, 0.286116
2155.57, 0.283415
2156.47, 0.282318
2157.37, 0.281812
2158.27, 0.282824
2159.16, 0.283837
2160.06, 0.285272
2160.96, 0.286876
2161.86, 0.288057
2162.77, 0.288648
2163.67, 0.288057
2164.57, 0.285947
2165.48, 0.284175
2166.38, 0.283078
2167.29, 0.282149
2168.2, 0.281727
2169.1, 0.282656
2170.01, 0.284175
2170.92, 0.286285
2171.83, 0.289239
2172.74, 0.292446
2173.65, 0.294472
2174.56, 0.295062
2175.47, 0.295147
2176.39, 0.293543
2177.3, 0.290505
2178.22, 0.287466
2179.13, 0.285778
2180.05, 0.284175
2180.96, 0.283162
2181.88, 0.284428
2182.8, 0.287804
2183.72, 0.291940
2184.64, 0.297510
2185.56, 0.303418
2186.48, 0.308313
2187.41, 0.312786
2188.33, 0.315572
2189.25, 0.316416
2190.18, 0.317513
2191.1, 0.319370
2192.03, 0.322830
2192.96, 0.329076
2193.89, 0.337178
2194.82, 0.346462
2195.74, 0.355915
2196.68, 0.365283
2197.61, 0.371866
2198.54, 0.376086
2199.47, 0.377690
2200.4, 0.376762
2201.34, 0.372373
2202.28, 0.364692
2203.21, 0.355155
2204.15, 0.345618
2205.08, 0.337347
2206.02, 0.331776
2206.96, 0.327978
2207.9, 0.325109
2208.84, 0.322324
2209.78, 0.320973
2210.73, 0.322746
2211.67, 0.328063
2212.61, 0.336925
2213.56, 0.348572
2214.5, 0.360388
2215.45, 0.371951
2216.4, 0.383682
2217.35, 0.395161
2218.3, 0.406133
2219.24, 0.418962
2220.2, 0.433225
2221.15, 0.446645
2222.1, 0.457954
2223.05, 0.468251
2224.0, 0.477451
2224.96, 0.484878
2225.91, 0.490955
2226.87, 0.496525
2227.83, 0.500914
2228.79, 0.504374
2229.74, 0.507075
2230.7, 0.509776
2231.66, 0.512983
2232.63, 0.515515
2233.59, 0.517288
2234.55, 0.519988
2235.51, 0.522183
2236.48, 0.523786
2237.44, 0.525052
2238.41, 0.526065
2239.38, 0.527753
2240.34, 0.529188
2241.31, 0.529610
2242.28, 0.530623
2243.25, 0.531382
2244.22, 0.532564
2245.19, 0.532480
2246.17, 0.532902
2247.14, 0.533577
2248.12, 0.533999
2249.09, 0.533914
2250.07, 0.534168
2251.04, 0.534505
2252.02, 0.534336
2253.0, 0.533914
2253.98, 0.533914
2254.96, 0.533324
2255.94, 0.533324
2256.92, 0.533492
2257.91, 0.532902
2258.89, 0.532142
2259.88, 0.531298
2260.86, 0.531298
2261.85, 0.531804
2262.83, 0.532142
2263.82, 0.532480
2264.81, 0.532395
2265.8, 0.532480
2266.79, 0.532564
2267.78, 0.533155
2268.78, 0.532733
2269.77, 0.531973
2270.76, 0.531467
2271.76, 0.530960
2272.75, 0.530032
2273.75, 0.529863
2274.75, 0.528850
2275.75, 0.528850
2276.75, 0.528597
2277.75, 0.527669
2278.75, 0.525981
2279.75, 0.525474
2280.75, 0.525812
2281.76, 0.525306
2282.76, 0.524208
2283.77, 0.523618
2284.77, 0.522520
2285.78, 0.521592
2286.79, 0.521086
2287.8, 0.520242
2288.81, 0.519566
2289.82, 0.518976
2290.83, 0.516950
2291.84, 0.515600
2292.86, 0.513996
2293.87, 0.511464
2294.89, 0.508594
2295.91, 0.506316
2296.92, 0.503952
2297.94, 0.500914
2298.96, 0.498382
2299.98, 0.495344
2301.0, 0.491630
2302.02, 0.487663
2303.04, 0.482262
2304.07, 0.476438
2305.09, 0.470277
2306.12, 0.463947
2307.15, 0.457279
2308.17, 0.449177
2309.2, 0.440737
2310.23, 0.432212
2311.26, 0.423519
2312.29, 0.415754
2313.32, 0.408834
2314.35, 0.401997
2315.39, 0.395752
2316.42, 0.390350
2317.46, 0.386299
2318.5, 0.383936
2319.53, 0.382332
2320.57, 0.381150
2321.61, 0.381066
2322.65, 0.382754
2323.69, 0.384864
2324.73, 0.387480
2325.78, 0.390350
2326.82, 0.394148
2327.86, 0.398368
2328.91, 0.402841
2329.96, 0.407652
2331.01, 0.412125
2332.05, 0.416767
2333.1, 0.421156
2334.15, 0.425882
2335.21, 0.431115
2336.26, 0.436179
2337.31, 0.440821
2338.36, 0.445294
2339.42, 0.450358
2340.48, 0.455000
2341.53, 0.458461
2342.59, 0.461499
2343.65, 0.464284
2344.71, 0.466394
2345.77, 0.467998
2346.83, 0.470361
2347.9, 0.472556
2348.96, 0.473568
2350.02, 0.473737
2351.09, 0.473653
2352.16, 0.474581
2353.23, 0.475678
2354.29, 0.475678
2355.36, 0.474328
2356.43, 0.474244
2357.51, 0.473906
2358.58, 0.473315
2359.65, 0.472724
2360.73, 0.471374
2361.8, 0.470108
2362.88, 0.469011
2363.96, 0.467745
2365.03, 0.465888
2366.11, 0.463018
2367.19, 0.459642
2368.27, 0.456688
2369.36, 0.453734
2370.44, 0.450190
2371.53, 0.446054
2372.61, 0.441581
2373.7, 0.436939
2374.78, 0.431622
2375.87, 0.425545
2376.96, 0.419806
2378.05, 0.414488
2379.14, 0.407736
2380.24, 0.400562
2381.33, 0.393895
2382.42, 0.386721
2383.52, 0.379040
2384.61, 0.372373
2385.71, 0.366043
2386.81, 0.359713
2387.91, 0.354058
2389.01, 0.348825
2390.11, 0.344183
2391.22, 0.339879
2392.32, 0.335996
2393.42, 0.333464
2394.53, 0.331270
2395.64, 0.328738
2396.74, 0.326797
2397.85, 0.325615
2398.96, 0.325278
2400.07, 0.325109
2401.18, 0.324940
2402.3, 0.325109
2403.41, 0.324940
2404.52, 0.324180
2405.64, 0.322999
2406.76, 0.321733
2407.88, 0.320129
2408.99, 0.318441
2410.11, 0.316753
2411.23, 0.314643
2412.36, 0.312449
2413.48, 0.309832
2414.6, 0.306372
2415.73, 0.302743
2416.85, 0.300042
2417.98, 0.297426
2419.11, 0.294556
2420.24, 0.291518
2421.37, 0.288732
2422.5, 0.286200
2423.64, 0.283078
2424.77, 0.279533
2425.9, 0.276157
2427.04, 0.272612
2428.18, 0.269405
2429.31, 0.267126
2430.45, 0.265016
2431.59, 0.264256
2432.73, 0.264763
2433.88, 0.265776
2435.02, 0.267210
2436.16, 0.269489
2437.31, 0.271599
2438.45, 0.274553
2439.6, 0.277760
2440.75, 0.280883
2441.9, 0.283922
2443.05, 0.286369
2444.2, 0.288057
2445.35, 0.289661
2446.51, 0.291096
2447.67, 0.291686
2448.82, 0.291940
2449.98, 0.291940
2451.14, 0.291011
2452.3, 0.290252
2453.46, 0.289492
2454.62, 0.288395
2455.78, 0.286876
2456.94, 0.284006
2458.11, 0.280208
2459.28, 0.277001
2460.44, 0.273794
2461.61, 0.270080
2462.78, 0.266282
2463.95, 0.262822
2465.12, 0.260205
2466.3, 0.258602
2467.47, 0.257926
2468.65, 0.258433
2469.82, 0.259446
2471.0, 0.261556
2472.18, 0.264256
2473.36, 0.267464
2474.54, 0.270924
2475.72, 0.274469
2476.9, 0.277676
2478.08, 0.281052
2479.27, 0.284006
2480.46, 0.285778
2481.64, 0.287382
2482.83, 0.288901
2484.02, 0.288648
2485.21, 0.287551
2486.4, 0.285272
2487.6, 0.281136
2488.79, 0.276072
2489.99, 0.271008
2491.18, 0.266198
2492.38, 0.262146
2493.58, 0.258180
2494.78, 0.254213
2495.98, 0.251006
2497.18, 0.247967
2498.39, 0.244254
2499.59, 0.239949
2500.8, 0.235138
2502.01, 0.230074
2503.21, 0.224251
2504.42, 0.218090
2505.63, 0.211844
2506.84, 0.206358
2508.06, 0.201378
2509.27, 0.197412
2510.49, 0.195808
2511.7, 0.194880
2512.92, 0.194036
2514.14, 0.194542
2515.36, 0.195724
2516.58, 0.197749
2517.8, 0.200450
2519.03, 0.204417
2520.25, 0.209228
2521.48, 0.214292
2522.7, 0.219946
2523.93, 0.226614
2525.16, 0.232944
2526.39, 0.238261
2527.62, 0.243156
2528.86, 0.247461
2530.09, 0.250584
2531.33, 0.253284
2532.56, 0.254972
2533.8, 0.256238
2535.04, 0.257336
2536.28, 0.258517
2537.52, 0.260036
2538.76, 0.262484
2540.01, 0.265016
2541.25, 0.267717
2542.5, 0.270080
2543.75, 0.271937
2544.99, 0.274047
2546.24, 0.276072
2547.49, 0.277338
2548.75, 0.278267
2550.0, 0.278942
2551.26, 0.279364
2552.51, 0.279195
2553.77, 0.278014
2555.03, 0.275819
2556.29, 0.273456
2557.55, 0.271599
2558.81, 0.270249
2560.08, 0.269405
2561.34, 0.268983
2562.61, 0.268730
2563.88, 0.269067
2565.14, 0.269067
2566.41, 0.269067
2567.68, 0.269574
2568.96, 0.270586
2570.23, 0.271430
2571.51, 0.271768
2572.78, 0.271599
2574.06, 0.270924
2575.34, 0.269574
2576.62, 0.268054
2577.9, 0.267042
2579.18, 0.266282
2580.47, 0.265776
2581.75, 0.265016
2583.04, 0.264594
2584.32, 0.264594
2585.61, 0.265016
2586.9, 0.266029
2588.2, 0.267801
2589.49, 0.271346
2590.78, 0.275650
2592.08, 0.279786
2593.37, 0.284259
2594.67, 0.289070
2595.97, 0.292362
2597.27, 0.294387
2598.57, 0.295569
2599.88, 0.296835
2601.18, 0.298016
2602.49, 0.298101
2603.79, 0.297426
2605.1, 0.297004
2606.41, 0.296075
2607.72, 0.295653
2609.03, 0.296582
2610.35, 0.298776
2611.66, 0.301899
2612.98, 0.305359
2614.3, 0.307891
2615.62, 0.310086
2616.94, 0.311689
2618.26, 0.312111
2619.58, 0.312786
2620.91, 0.313293
2622.23, 0.313208
2623.56, 0.313630
2624.89, 0.314474
2626.22, 0.315825
2627.55, 0.317091
2628.88, 0.319201
2630.21, 0.321648
2631.55, 0.323758
2632.89, 0.326290
2634.22, 0.328485
2635.56, 0.329329
2636.9, 0.330257
2638.25, 0.331861
2639.59, 0.333886
2640.93, 0.335743
2642.28, 0.336925
2643.63, 0.336756
2644.98, 0.334984
2646.33, 0.332367
2647.68, 0.328316
2649.03, 0.323168
2650.39, 0.317682
2651.74, 0.311689
2653.1, 0.305528
2654.46, 0.299704
2655.82, 0.295062
2657.18, 0.291771
2658.54, 0.289408
2659.9, 0.287298
2661.27, 0.285778
2662.64, 0.285019
2664.01, 0.284512
2665.38, 0.283246
2666.74, 0.281390
2668.12, 0.279364
2669.49, 0.277592
2670.87, 0.275144
2672.24, 0.271262
2673.62, 0.267548
2675.0, 0.264341
2676.38, 0.262062
2677.76, 0.260374
2679.15, 0.259614
2680.54, 0.258939
2681.92, 0.258770
2683.31, 0.259530
2684.7, 0.260880
2686.09, 0.262400
2687.48, 0.263919
2688.88, 0.265522
2690.27, 0.267548
2691.67, 0.269658
2693.07, 0.270671
2694.47, 0.270671
2695.87, 0.269489
2697.27, 0.267632
2698.67, 0.265100
2700.08, 0.262062
2701.49, 0.259277
2702.9, 0.256070
2704.31, 0.252103
2705.72, 0.247883
2707.13, 0.243916
2708.54, 0.240202
2709.96, 0.236320
2711.38, 0.231762
2712.8, 0.225854
2714.22, 0.219693
2715.64, 0.214207
2717.06, 0.209650
2718.49, 0.205598
2719.91, 0.201378
2721.34, 0.196821
2722.77, 0.193023
2724.2, 0.189984
2725.63, 0.186946
2727.07, 0.183486
2728.5, 0.179856
2729.94, 0.175974
2731.38, 0.171923
2732.82, 0.168294
2734.26, 0.164496
2735.7, 0.159938
2737.15, 0.154368
2738.59, 0.148713
2740.04, 0.143142
2741.49, 0.138163
2742.94, 0.134027
2744.39, 0.130314
2745.84, 0.127444
2747.3, 0.125587
2748.76, 0.124068
2750.21, 0.122127
2751.67, 0.120270
2753.14, 0.118329
2754.6, 0.115797
2756.06, 0.112843
2757.53, 0.109129
2759.0, 0.104994
2760.46, 0.101196
2761.94, 0.0974820
2763.41, 0.0934310
2764.88, 0.0891260
2766.36, 0.0849910
2767.83, 0.0809400
2769.31, 0.0771420
2770.79, 0.0739340
2772.27, 0.0707270
2773.76, 0.0684480
2775.24, 0.0669290
2776.73, 0.0651570
2778.22, 0.0633000
2779.71, 0.0616120
2781.2, 0.0605150
2782.69, 0.0594180
2784.18, 0.0581520
2785.68, 0.0565480
2787.18, 0.0547760
2788.68, 0.0535940
2790.18, 0.0524120
2791.68, 0.0509780
2793.19, 0.0496270
2794.69, 0.0486140
2796.2, 0.0475170
2797.71, 0.0459140
2799.22, 0.0440570
2800.73, 0.0427060
2802.24, 0.0408500
2803.76, 0.0393300
2805.28, 0.0378960
2806.8, 0.0366300
2808.32, 0.0356170
2809.84, 0.0346040
2811.36, 0.0331690
2812.89, 0.0319880
2814.42, 0.0307220
2815.94, 0.0292020
2817.48, 0.0276830
2819.01, 0.0261640
2820.54, 0.0243070
2822.08, 0.0227040
2823.61, 0.0212690
2825.15, 0.0194960
2826.69, 0.0174710
2828.23, 0.0157830
2829.78, 0.0147700
2831.32, 0.0140100
2832.87, 0.0140100
2834.42, 0.0151080
2835.97, 0.0170490
2837.52, 0.0194960
2839.08, 0.0216060
2840.63, 0.0231260
2842.19, 0.0237160
2843.75, 0.0232940
2845.31, 0.0226190
2846.87, 0.0213530
2848.44, 0.0196650
2850.0, 0.0180620
2851.57, 0.0167960
2853.14, 0.0165420
2854.71, 0.0182300
2856.28, 0.0229570
2857.86, 0.0307220
2859.43, 0.0407650
2861.01, 0.0514000
2862.59, 0.0592490
2864.17, 0.0631310
2865.76, 0.0639750
2867.34, 0.0615280
2868.93, 0.0571390
2870.52, 0.0521590
2872.11, 0.0476020
2873.7, 0.0440570
2875.29, 0.0418620
2876.89, 0.0403430
2878.49, 0.0394150
2880.08, 0.0391620
2881.69, 0.0394990
2883.29, 0.0399210
2884.89, 0.0403430
2886.5, 0.0406810
2888.11, 0.0405960
2889.72, 0.0407650
2891.33, 0.0411030
2892.94, 0.0414400
2894.56, 0.0416090
2896.17, 0.0424530
2897.79, 0.0436350
2899.42, 0.0443100
2901.04, 0.0443100
2902.66, 0.0443100
2904.29, 0.0438040
2905.92, 0.0432130
2907.55, 0.0428750
2909.18, 0.0428750
2910.81, 0.0433820
2912.45, 0.0442260
2914.08, 0.0449850
2915.72, 0.0457450
2917.36, 0.0462510
2919.01, 0.0466730
2920.65, 0.0470950
2922.3, 0.0473480
2923.94, 0.0476860
2925.59, 0.0478550
2927.25, 0.0476860
2928.9, 0.0476020
2930.56, 0.0475170
2932.21, 0.0475170
2933.87, 0.0474330
2935.53, 0.0470110
2937.2, 0.0467580
2938.86, 0.0465890
2940.53, 0.0465890
2942.2, 0.0466730
2943.87, 0.0470950
2945.54, 0.0472640
2947.22, 0.0477700
2948.89, 0.0482770
2950.57, 0.0487830
2952.25, 0.0489520
2953.93, 0.0489520
2955.62, 0.0492900
2957.3, 0.0498800
2958.99, 0.0507240
2960.68, 0.0514000
2962.37, 0.0517370
2964.07, 0.0522440
2965.76, 0.0528340
2967.46, 0.0533410
2969.16, 0.0535940
2970.86, 0.0535940
2972.56, 0.0537630
2974.27, 0.0540160
2975.98, 0.0543540
2977.69, 0.0547760
2979.4, 0.0551980
2981.11, 0.0561260
2982.83, 0.0572230
2984.54, 0.0581520
2986.26, 0.0584890
2987.98, 0.0587420
2989.71, 0.0594180
2991.43, 0.0599240
2993.16, 0.0607680
2994.89, 0.0614430
2996.62, 0.0620340
2998.35, 0.0624560
3000.09, 0.0624560
3001.83, 0.0626250
3003.57, 0.0625400
3005.31, 0.0622030
3007.05, 0.0619500
3008.79, 0.0617810
3010.54, 0.0614430
3012.29, 0.0614430
3014.04, 0.0616960
3015.8, 0.0619500
3017.55, 0.0620340
3019.31, 0.0624560
3021.07, 0.0630470
3022.83, 0.0636380
3024.59, 0.0641440
3026.36, 0.0643970
3028.13, 0.0648190
3029.9, 0.0653260
3031.67, 0.0654940
3033.44, 0.0656630
3035.22, 0.0656630
3037.0, 0.0657480
3038.78, 0.0658320
3040.56, 0.0657480
3042.34, 0.0656630
3044.13, 0.0657480
3045.92, 0.0658320
3047.71, 0.0660010
3049.5, 0.0658320
3051.3, 0.0653260
3053.09, 0.0648190
3054.89, 0.0649040
3056.69, 0.0649040
3058.5, 0.0643970
3060.3, 0.0640600
3062.11, 0.0640600
3063.92, 0.0640600
3065.73, 0.0640600
3067.55, 0.0638910
3069.36, 0.0638060
3071.18, 0.0637220
3073.0, 0.0637220
3074.82, 0.0637220
3076.65, 0.0637220
3078.48, 0.0638060
3080.31, 0.0638060
3082.14, 0.0637220
3083.97, 0.0634690
3085.8, 0.0633000
3087.64, 0.0639750
3089.48, 0.0646500
3091.33, 0.0648190
3093.17, 0.0651570
3095.02, 0.0658320
3096.87, 0.0661700
3098.72, 0.0665920
3100.57, 0.0671820
3102.43, 0.0678580
3104.28, 0.0685330
3106.14, 0.0689550
3108.01, 0.0692920
3109.87, 0.0698830
3111.74, 0.0701360
3113.61, 0.0698830
3115.48, 0.0693770
3117.35, 0.0692920
3119.23, 0.0690390
3121.1, 0.0690390
3122.98, 0.0691240
3124.87, 0.0689550
3126.75, 0.0688700
3128.64, 0.0689550
3130.53, 0.0692920
3132.42, 0.0694610
3134.31, 0.0697990
3136.21, 0.0703050
3138.11, 0.0707270
3140.01, 0.0708960
3141.91, 0.0711490
3143.82, 0.0714020
3145.73, 0.0716560
3147.64, 0.0718240
3149.55, 0.0717400
3151.46, 0.0719930
3153.38, 0.0720780
3155.3, 0.0719930
3157.22, 0.0720780
3159.14, 0.0721620
3161.07, 0.0724150
3163.0, 0.0728370
3164.93, 0.0731750
3166.86, 0.0733440
3168.8, 0.0731750
3170.74, 0.0731750
3172.68, 0.0734280
3174.62, 0.0737660
3176.56, 0.0741030
3178.51, 0.0740190
3180.46, 0.0737660
3182.42, 0.0736810
3184.37, 0.0741030
3186.33, 0.0743560
3188.29, 0.0742720
3190.25, 0.0742720
3192.21, 0.0745250
3194.18, 0.0746100
3196.15, 0.0750320
3198.12, 0.0751160
3200.09, 0.0751160
3202.07, 0.0755380
3204.05, 0.0753690
3206.03, 0.0748630
3208.02, 0.0749470
3210.0, 0.0752850
3211.99, 0.0754540
3213.98, 0.0754540
3215.98, 0.0752000
3217.97, 0.0752000
3219.97, 0.0752850
3221.97, 0.0754540
3223.98, 0.0757070
3225.98, 0.0760440
3227.99, 0.0759600
3230.0, 0.0761290
3232.02, 0.0764660
3234.03, 0.0766350
3236.05, 0.0765510
3238.07, 0.0767200
3240.1, 0.0769730
3242.12, 0.0771420
3244.15, 0.0771420
3246.18, 0.0774790
3248.22, 0.0775640
3250.25, 0.0775640
3252.29, 0.0779010
3254.33, 0.0778170
3256.38, 0.0777320
3258.43, 0.0779010
3260.47, 0.0780700
3262.53, 0.0780700
3264.58, 0.0782390
3266.64, 0.0782390
3268.7, 0.0784920
3270.76, 0.0784920
3272.82, 0.0785760
3274.89, 0.0790830
3276.96, 0.0792520
3279.04, 0.0795050
3281.11, 0.0798420
3283.19, 0.0797580
3285.27, 0.0796740
3287.35, 0.0797580
3289.44, 0.0800960
3291.53, 0.0803490
3293.62, 0.0804330
3295.71, 0.0806020
3297.81, 0.0806860
3299.91, 0.0804330
3302.01, 0.0805180
3304.11, 0.0806860
3306.22, 0.0809400
3308.33, 0.0813620
3310.44, 0.0813620
3312.56, 0.0814460
3314.68, 0.0820370
3316.8, 0.0825430
3318.92, 0.0826280
3321.05, 0.0826280
3323.18, 0.0828810
3325.31, 0.0831340
3327.44, 0.0834720
3329.58, 0.0835560
3331.72, 0.0837250
3333.86, 0.0841470
3336.01, 0.0843160
3338.16, 0.0844840
3340.31, 0.0844000
3342.46, 0.0846530
3344.61, 0.0849910
3346.77, 0.0854130
3348.94, 0.0859190
3351.1, 0.0864260
3353.27, 0.0868480
3355.44, 0.0869320
3357.61, 0.0871010
3359.79, 0.0874380
3361.97, 0.0878600
3364.15, 0.0883670
3366.33, 0.0886200
3368.52, 0.0891260
3370.71, 0.0892110
3372.9, 0.0892110
3375.1, 0.0893800
3377.3, 0.0899700
3379.5, 0.0906460
3381.71, 0.0907300
3383.91, 0.0908140
3386.12, 0.0913210
3388.34, 0.0914050
3390.55, 0.0916580
3392.77, 0.0919960
3394.99, 0.0924180
3397.22, 0.0928400
3399.45, 0.0929240
3401.68, 0.0930090
3403.91, 0.0933460
3406.15, 0.0935150
3408.39, 0.0937680
3410.63, 0.0942750
3412.87, 0.0943590
3415.12, 0.0946970
3417.37, 0.0952030
3419.63, 0.0955410
3421.88, 0.0957940
3424.14, 0.0963850
3426.41, 0.0969760
3428.67, 0.0973130
3430.94, 0.0979880
3433.21, 0.0983260
3435.49, 0.0984950
3437.77, 0.0989170
3440.05, 0.0995080
3442.33, 0.100183
3444.62, 0.100267
3446.91, 0.100605
3449.2, 0.101111
3451.5, 0.101364
3453.8, 0.101618
3456.1, 0.102124
3458.41, 0.102799
3460.72, 0.103221
3463.03, 0.103306
3465.34, 0.103643
3467.66, 0.103981
3469.98, 0.104234
3472.31, 0.104740
3474.63, 0.105416
3476.96, 0.105838
3479.3, 0.106260
3481.64, 0.106513
3483.97, 0.106682
3486.32, 0.107019
3488.66, 0.107441
3491.01, 0.107694
3493.36, 0.108116
3495.72, 0.108623
3498.08, 0.108792
3500.44, 0.109129
3502.81, 0.109636
3505.18, 0.109973
3507.55, 0.110142
3509.92, 0.110564
3512.3, 0.110817
3514.68, 0.111408
3517.06, 0.112168
3519.45, 0.112505
3521.84, 0.112843
3524.24, 0.113265
3526.64, 0.113687
3529.04, 0.114193
3531.44, 0.114531
3533.85, 0.114784
3536.26, 0.115375
3538.67, 0.115797
3541.09, 0.116134
3543.51, 0.116725
3545.93, 0.117316
3548.36, 0.117822
3550.79, 0.118413
3553.22, 0.118835
3555.66, 0.119004
3558.1, 0.119510
3560.54, 0.120101
3562.99, 0.120354
3565.44, 0.120692
3567.9, 0.121114
3570.35, 0.121620
3572.81, 0.122211
3575.28, 0.122549
3577.75, 0.122886
3580.22, 0.123393
3582.69, 0.123899
3585.17, 0.124237
3587.65, 0.124912
3590.14, 0.125503
3592.62, 0.125925
3595.11, 0.126347
3597.61, 0.127022
3600.11, 0.127528
3602.61, 0.127866
3605.11, 0.128204
3607.62, 0.128710
3610.14, 0.129301
3612.65, 0.129892
3615.17, 0.130314
3617.69, 0.130736
3620.22, 0.131326
3622.75, 0.131833
3625.28, 0.132424
3627.82, 0.133014
3630.36, 0.133352
3632.9, 0.133858
3635.45, 0.134618
3638.0, 0.135124
3640.56, 0.135546
3643.12, 0.136137
3645.68, 0.136559
3648.24, 0.136897
3650.81, 0.137234
3653.39, 0.137825
3655.96, 0.138500
3658.54, 0.138838
3661.13, 0.139176
3663.71, 0.139598
3666.3, 0.140188
3668.9, 0.140695
3671.5, 0.141032
3674.1, 0.141286
3676.7, 0.141708
3679.31, 0.142214
3681.93, 0.142720
3684.54, 0.143227
3687.17, 0.143649
3689.79, 0.143986
3692.42, 0.144577
3695.05, 0.145168
3697.69, 0.145590
3700.32, 0.146012
3702.97, 0.146518
3705.61, 0.147025
3708.27, 0.147447
3710.92, 0.148038
3713.58, 0.148291
3716.24, 0.148713
3718.91, 0.149472
3721.58, 0.150063
3724.25, 0.150570
3726.93, 0.150992
3729.61, 0.151414
3732.29, 0.151836
3734.98, 0.152258
3737.67, 0.152511
3740.37, 0.152933
3743.07, 0.153355
3745.78, 0.153777
3748.49, 0.154283
3751.2, 0.154621
3753.91, 0.154874
3756.63, 0.155212
3759.36, 0.155718
3762.09, 0.155971
3764.82, 0.156224
3767.55, 0.156646
3770.29, 0.156984
3773.04, 0.157322
3775.78, 0.157490
3778.54, 0.157744
3781.29, 0.158166
3784.05, 0.158503
3786.82, 0.158588
3789.59, 0.158588
3792.36, 0.158756
3795.13, 0.159094
3797.92, 0.159347
3800.7, 0.159432
3803.49, 0.159516
3806.28, 0.159938
3809.08, 0.160022
3811.88, 0.160022
3814.68, 0.160276
3817.49, 0.160360
3820.31, 0.160698
3823.12, 0.160866
3825.94, 0.160698
3828.77, 0.160444
3831.6, 0.160444
3834.43, 0.160698
3837.27, 0.160951
3840.11, 0.161035
3842.96, 0.160951
3845.81, 0.160782
3848.67, 0.160613
3851.53, 0.160529
3854.39, 0.160107
3857.26, 0.159600
3860.13, 0.159010
3863.01, 0.157997
3865.89, 0.155971
3868.77, 0.153524
3871.66, 0.152764
3874.55, 0.154368
3877.45, 0.156478
3880.35, 0.157912
3883.26, 0.158756
3886.17, 0.159178
3889.09, 0.159432
3892.01, 0.159600
3894.93, 0.159685
3897.86, 0.159854
3900.79, 0.159854
3903.73, 0.159685
3906.67, 0.159600
3909.62, 0.159432
3912.57, 0.159263
3915.52, 0.159010
3918.48, 0.158925
3921.45, 0.158841
3924.42, 0.158756
3927.39, 0.158503
3930.37, 0.158250
3933.35, 0.158250
3936.34, 0.158334
3939.33, 0.158166
3942.32, 0.157997
3945.32, 0.157659
3948.33, 0.157490
3951.34, 0.157322
3954.35, 0.157153
3957.37, 0.157068
3960.39, 0.156815
3963.42, 0.156731
3966.45, 0.156646
3969.49, 0.156562
3972.53, 0.156478
3975.58, 0.156309
3978.63, 0.156140
3981.68, 0.155802
3984.75, 0.155718
3987.81, 0.155802
3990.88, 0.155380
3993.95, 0.155043
3997.03, 0.154958
4000.12, 0.154705
4003.21, 0.154452
4006.3, 0.154199
4009.4, 0.153946
4012.5, 0.153524
4015.61, 0.153270
4018.72, 0.153102
4021.84, 0.152680
4024.96, 0.152342
4028.09, 0.152004
4031.22, 0.151667
4034.36, 0.151329
4037.5, 0.151076
4040.65, 0.150738
4043.8, 0.150485
4046.96, 0.150316
4050.12, 0.150063
4053.29, 0.149388
4056.46, 0.148882
4059.64, 0.148544
4062.82, 0.148291
4066.0, 0.147700
4069.19, 0.147278
4072.39, 0.147109
4075.59, 0.146687
4078.8, 0.146096
4082.01, 0.145759
4085.23, 0.145590
4088.45, 0.145084
4091.68, 0.144662
4094.91, 0.144577
4098.15, 0.144408
4101.39, 0.144240
4104.63, 0.143902
4107.89, 0.143396
4111.14, 0.143227
4114.41, 0.143142
4117.67, 0.142889
4120.95, 0.142467
4124.23, 0.142298
4127.51, 0.142045
4130.8, 0.141876
4134.09, 0.141708
4137.39, 0.141539
4140.7, 0.141454
4144.01, 0.141454
4147.32, 0.141454
4150.64, 0.141454
4153.97, 0.141539
4157.3, 0.141708
4160.64, 0.141876
4163.98, 0.142130
4167.33, 0.142467
4170.68, 0.142467
4174.04, 0.142298
4177.4, 0.142298
4180.77, 0.142467
4184.14, 0.142467
4187.52, 0.142045
4190.91, 0.141623
4194.3, 0.141454
4197.69, 0.141201
4201.1, 0.140695
4204.5, 0.140357
4207.92, 0.140104
4211.34, 0.139851
4214.76, 0.139260
4218.19, 0.138416
4221.62, 0.137488
4225.06, 0.136475
4228.51, 0.135293
4231.96, 0.134196
4235.42, 0.133099
4238.88, 0.131748
4242.35, 0.130482
4245.83, 0.129301
4249.31, 0.128372
4252.79, 0.127613
4256.28, 0.126600
4259.78, 0.125672
4263.29, 0.124659
4266.79, 0.123562
4270.31, 0.122633
4273.83, 0.122042
4277.35, 0.121367
4280.89, 0.120861
4284.42, 0.120017
4287.97, 0.119173
4291.52, 0.118413
4295.07, 0.117822
4298.63, 0.116978
4302.2, 0.115797
4305.78, 0.114531
4309.35, 0.112927
4312.94, 0.110817
4316.53, 0.108285
4320.13, 0.105584
4323.73, 0.102884
4327.34, 0.100183
4330.96, 0.0978200
4334.58, 0.0957100
4338.21, 0.0940220
4341.84, 0.0927560
4345.48, 0.0916580
4349.12, 0.0907300
4352.77, 0.0897170
4356.43, 0.0887890
4360.1, 0.0881140
4363.76, 0.0875230
4367.44, 0.0872700
4371.12, 0.0872700
4374.81, 0.0873540
4378.51, 0.0876070
4382.21, 0.0881980
4385.92, 0.0890420
4389.63, 0.0898020
4393.35, 0.0903080
4397.08, 0.0908140
4400.81, 0.0911520
4404.55, 0.0912360
4408.29, 0.0912360
4412.04, 0.0911520
4415.8, 0.0906460
4419.57, 0.0899700
4423.34, 0.0891260
4427.12, 0.0882820
4430.9, 0.0872700
4434.69, 0.0866790
4438.49, 0.0862570
4442.29, 0.0856660
4446.1, 0.0853280
4449.92, 0.0848220
4453.74, 0.0842310
4457.57, 0.0837250
4461.41, 0.0833030
4465.25, 0.0827120
4469.1, 0.0821210
4472.95, 0.0814460
4476.82, 0.0806020
4480.69, 0.0795890
4484.56, 0.0784080
4488.44, 0.0773100
4492.33, 0.0765510
4496.23, 0.0759600
4500.13, 0.0757070
4504.04, 0.0760440
4507.96, 0.0765510
4511.88, 0.0767200
4515.81, 0.0768880
4519.75, 0.0770570
4523.69, 0.0770570
4527.65, 0.0768040
4531.6, 0.0765510
4535.57, 0.0759600
4539.54, 0.0753690
4543.52, 0.0748630
4547.5, 0.0744410
4551.5, 0.0741880
4555.5, 0.0741880
4559.5, 0.0738500
4563.52, 0.0734280
4567.54, 0.0726680
4571.56, 0.0713180
4575.6, 0.0696300
4579.64, 0.0678580
4583.69, 0.0664230
4587.75, 0.0651570
4591.81, 0.0643970
4595.88, 0.0644820
4599.96, 0.0652410
4604.04, 0.0663380
4608.14, 0.0675200
4612.24, 0.0690390
4616.34, 0.0706430
4620.46, 0.0720780
4624.58, 0.0732590
4628.71, 0.0745250
4632.84, 0.0762130
4636.99, 0.0780700
4641.14, 0.0802640
4645.3, 0.0826280
4649.47, 0.0849910
4653.64, 0.0868480
4657.82, 0.0879450
4662.01, 0.0879450
4666.21, 0.0871010
4670.41, 0.0860880
4674.62, 0.0852440
4678.84, 0.0846530
4683.07, 0.0844000
4687.3, 0.0841470
4691.54, 0.0838090
4695.79, 0.0833870
4700.05, 0.0827960
4704.31, 0.0819520
4708.59, 0.0809400
4712.87, 0.0795890
4717.15, 0.0782390
4721.45, 0.0771420
4725.76, 0.0762980
4730.07, 0.0762980
4734.39, 0.0777320
4738.72, 0.0802640
4743.05, 0.0838090
4747.39, 0.0881980
4751.75, 0.0929240
4756.1, 0.0978200
4760.47, 0.103137
4764.85, 0.109214
4769.23, 0.116303
4773.62, 0.124321
4778.02, 0.132761
4782.43, 0.140864
4786.85, 0.148206
4791.27, 0.154536
4795.7, 0.159516
4800.14, 0.163483
4804.59, 0.166943
4809.05, 0.169728
4813.51, 0.171670
4817.99, 0.173189
4822.47, 0.174286
4826.96, 0.174286
4831.46, 0.172598
4835.96, 0.170066
4840.48, 0.166859
4845.0, 0.164074
4849.54, 0.163398
4854.08, 0.165508
4858.63, 0.170150
4863.18, 0.175890
4867.75, 0.181207
4872.33, 0.185089
4876.91, 0.187115
4881.5, 0.188296
4886.1, 0.190153
4890.71, 0.193614
4895.33, 0.197665
4899.96, 0.201294
4904.59, 0.204248
4909.24, 0.206864
4913.89, 0.208890
4918.55, 0.210831
4923.22, 0.212435
4927.9, 0.213954
4932.59, 0.214967
4937.29, 0.215980
4942.0, 0.217077
4946.71, 0.217836
4951.44, 0.218512
4956.17, 0.219271
4960.91, 0.219862
4965.67, 0.220115
4970.43, 0.220537
4975.2, 0.220875
4979.98, 0.221044
4984.76, 0.221381
4989.56, 0.221550
4994.37, 0.221803
4999.18, 0.222141
5004.01, 0.222478
5008.84, 0.222732
5013.69, 0.223069
5018.54, 0.223154
5023.4, 0.223154
5028.28, 0.223322
5033.16, 0.223407
5038.05, 0.223407
5042.95, 0.223238
5047.86, 0.223154
5052.78, 0.223069
5057.71, 0.222900
5062.65, 0.222647
5067.6, 0.222310
5072.56, 0.221888
5077.53, 0.221634
5082.5, 0.221466
5087.49, 0.221297
5092.49, 0.220790
5097.5, 0.220284
5102.51, 0.220115
5107.54, 0.219862
5112.58, 0.219356
5117.62, 0.218934
5122.68, 0.218512
5127.75, 0.218174
5132.82, 0.217921
5137.91, 0.217499
5143.01, 0.216992
5148.12, 0.216486
5153.23, 0.216148
5158.36, 0.215726
5163.5, 0.215304
5168.65, 0.215136
5173.81, 0.214882
5178.98, 0.214714
5184.15, 0.214545
5189.34, 0.214207
5194.54, 0.214038
5199.75, 0.213954
5204.98, 0.213701
5210.21, 0.213363
5215.45, 0.213194
5220.7, 0.213110
5225.96, 0.212772
5231.23, 0.212182
5236.52, 0.211591
5241.81, 0.211169
5247.12, 0.210578
5252.44, 0.210072
5257.76, 0.209396
5263.1, 0.208552
5268.45, 0.207877
5273.81, 0.207286
5279.18, 0.206611
5284.56, 0.205936
5289.95, 0.205176
5295.36, 0.204670
5300.77, 0.204248
