Database of Origin,USGS Spectral Database
Sample Description,See USGS database for additional info
Date Added,2017-02-22 02:49:14.895953

Data ID,USGS_top08          
Sample ID,topaz_14.22786
Mineral Name,topaz

Wavelength
1374.38, 0.721847
1374.74, 0.721963
1375.11, 0.722954
1375.47, 0.722954
1375.84, 0.722954
1376.2, 0.723246
1376.57, 0.723771
1376.93, 0.723887
1377.3, 0.724587
1377.67, 0.724645
1378.03, 0.725053
1378.4, 0.725228
1378.76, 0.725228
1379.13, 0.725578
1379.5, 0.726628
1379.87, 0.726336
1380.23, 0.726278
1380.6, 0.726220
1380.97, 0.726919
1381.34, 0.727269
1381.7, 0.726803
1382.07, 0.726103
1382.44, 0.727211
1382.81, 0.727677
1383.18, 0.727444
1383.55, 0.727327
1383.92, 0.727386
1384.29, 0.727386
1384.66, 0.726919
1385.03, 0.727153
1385.4, 0.727736
1385.77, 0.728027
1386.14, 0.727736
1386.51, 0.727386
1386.88, 0.727386
1387.25, 0.727444
1387.62, 0.727386
1387.99, 0.727036
1388.36, 0.727211
1388.74, 0.727444
1389.11, 0.727677
1389.48, 0.728085
1389.85, 0.728435
1390.23, 0.727969
1390.6, 0.727619
1390.97, 0.727852
1391.35, 0.727561
1391.72, 0.727327
1392.09, 0.727677
1392.47, 0.727386
1392.84, 0.727153
1393.21, 0.727094
1393.59, 0.727386
1393.96, 0.727036
1394.34, 0.726570
1394.71, 0.726453
1395.09, 0.726395
1395.46, 0.725928
1395.84, 0.725695
1396.22, 0.725637
1396.59, 0.725170
1396.97, 0.724879
1397.35, 0.724470
1397.72, 0.723654
1398.1, 0.722430
1398.48, 0.721205
1398.85, 0.720622
1399.23, 0.719339
1399.61, 0.717648
1399.99, 0.715374
1400.37, 0.712692
1400.74, 0.709310
1401.12, 0.705287
1401.5, 0.699806
1401.88, 0.692984
1402.26, 0.685288
1402.64, 0.676192
1403.02, 0.666105
1403.4, 0.657242
1403.78, 0.650245
1404.16, 0.648263
1404.54, 0.651178
1404.92, 0.658816
1405.3, 0.667387
1405.68, 0.676017
1406.06, 0.684238
1406.44, 0.691410
1406.83, 0.697182
1407.21, 0.701497
1407.59, 0.705171
1407.97, 0.707911
1408.35, 0.709777
1408.74, 0.711351
1409.12, 0.712401
1409.5, 0.713334
1409.89, 0.714092
1410.27, 0.715083
1410.65, 0.716307
1411.04, 0.717415
1411.42, 0.718115
1411.81, 0.718756
1412.19, 0.719573
1412.58, 0.720389
1412.96, 0.720855
1413.35, 0.721205
1413.73, 0.721205
1414.12, 0.721788
1414.5, 0.722021
1414.89, 0.722430
1415.28, 0.722488
1415.66, 0.722721
1416.05, 0.722255
1416.44, 0.722255
1416.82, 0.722838
1417.21, 0.723013
1417.6, 0.722605
1417.98, 0.722313
1418.37, 0.721905
1418.76, 0.722313
1419.15, 0.722371
1419.54, 0.722721
1419.93, 0.723129
1420.32, 0.722605
1420.71, 0.722488
1421.09, 0.722896
1421.48, 0.723246
1421.88, 0.723071
1422.27, 0.722721
1422.66, 0.722780
1423.05, 0.722371
1423.44, 0.722430
1423.83, 0.722488
1424.22, 0.722430
1424.61, 0.722255
1425.0, 0.722196
1425.39, 0.722196
1425.78, 0.722488
1426.18, 0.722546
1426.57, 0.722488
1426.96, 0.722196
1427.36, 0.722255
1427.75, 0.722371
1428.14, 0.722488
1428.54, 0.722138
1428.93, 0.721905
1429.32, 0.721847
1429.72, 0.721963
1430.11, 0.721905
1430.51, 0.722080
1430.9, 0.721672
1431.3, 0.721497
1431.69, 0.721672
1432.09, 0.721905
1432.48, 0.721963
1432.88, 0.721555
1433.28, 0.721497
1433.67, 0.721264
1434.07, 0.720797
1434.46, 0.721089
1434.86, 0.720914
1435.26, 0.720972
1435.66, 0.720972
1436.05, 0.721205
1436.45, 0.721089
1436.85, 0.721322
1437.25, 0.721205
1437.65, 0.721205
1438.05, 0.721147
1438.44, 0.721205
1438.84, 0.721030
1439.24, 0.721147
1439.64, 0.721147
1440.04, 0.720739
1440.44, 0.720447
1440.84, 0.720622
1441.24, 0.720564
1441.65, 0.720680
1442.05, 0.720564
1442.45, 0.720797
1442.85, 0.720622
1443.25, 0.720855
1443.65, 0.721205
1444.05, 0.720914
1444.46, 0.720331
1444.86, 0.720564
1445.26, 0.720564
1445.67, 0.720505
1446.07, 0.720389
1446.47, 0.720564
1446.88, 0.720272
1447.28, 0.719864
1447.68, 0.719631
1448.09, 0.720097
1448.49, 0.720039
1448.9, 0.720097
1449.3, 0.719689
1449.71, 0.719748
1450.11, 0.719456
1450.52, 0.719573
1450.93, 0.719398
1451.33, 0.719689
1451.74, 0.719689
1452.14, 0.719456
1452.55, 0.719164
1452.96, 0.719164
1453.36, 0.719281
1453.77, 0.719514
1454.18, 0.718931
1454.59, 0.718581
1455.0, 0.718756
1455.41, 0.719106
1455.81, 0.718990
1456.22, 0.718756
1456.63, 0.718523
1457.04, 0.718115
1457.45, 0.718057
1457.86, 0.718640
1458.27, 0.718406
1458.68, 0.718290
1459.09, 0.718115
1459.5, 0.717940
1459.91, 0.717882
1460.32, 0.717940
1460.74, 0.717940
1461.15, 0.718057
1461.56, 0.718173
1461.97, 0.717940
1462.39, 0.717823
1462.8, 0.717823
1463.21, 0.717124
1463.62, 0.717182
1464.04, 0.717415
1464.45, 0.717532
1464.86, 0.717648
1465.28, 0.717998
1465.69, 0.717532
1466.11, 0.717065
1466.52, 0.717124
1466.94, 0.717124
1467.35, 0.716832
1467.77, 0.716774
1468.18, 0.716832
1468.6, 0.717357
1469.02, 0.717415
1469.43, 0.717065
1469.85, 0.716599
1470.27, 0.716949
1470.68, 0.717182
1471.1, 0.717299
1471.52, 0.717007
1471.94, 0.717065
1472.35, 0.717007
1472.77, 0.717357
1473.19, 0.717357
1473.61, 0.717415
1474.03, 0.717124
1474.45, 0.717124
1474.87, 0.717299
1475.29, 0.717182
1475.71, 0.717240
1476.13, 0.717124
1476.55, 0.717007
1476.97, 0.717299
1477.39, 0.717182
1477.81, 0.717182
1478.23, 0.717007
1478.65, 0.717182
1479.07, 0.717415
1479.5, 0.717357
1479.92, 0.717299
1480.34, 0.717648
1480.76, 0.717532
1481.19, 0.717415
1481.61, 0.717415
1482.03, 0.717299
1482.46, 0.717065
1482.88, 0.717182
1483.31, 0.717299
1483.73, 0.717532
1484.16, 0.717823
1484.58, 0.717765
1485.01, 0.717648
1485.43, 0.717823
1485.86, 0.717998
1486.28, 0.717998
1486.71, 0.717707
1487.14, 0.717415
1487.56, 0.717357
1487.99, 0.717940
1488.42, 0.717882
1488.84, 0.717940
1489.27, 0.718173
1489.7, 0.718348
1490.13, 0.718231
1490.56, 0.718173
1490.98, 0.718057
1491.41, 0.717940
1491.84, 0.717882
1492.27, 0.717998
1492.7, 0.718348
1493.13, 0.718348
1493.56, 0.718115
1493.99, 0.718406
1494.42, 0.718581
1494.85, 0.718581
1495.29, 0.718348
1495.72, 0.718581
1496.15, 0.718406
1496.58, 0.718290
1497.01, 0.717998
1497.44, 0.718465
1497.88, 0.718931
1498.31, 0.719164
1498.74, 0.718990
1499.18, 0.719164
1499.61, 0.718756
1500.04, 0.718815
1500.48, 0.718990
1500.91, 0.719164
1501.35, 0.718990
1501.78, 0.718931
1502.22, 0.718990
1502.65, 0.719223
1503.09, 0.719514
1503.53, 0.719631
1503.96, 0.719689
1504.4, 0.720156
1504.83, 0.719864
1505.27, 0.719806
1505.71, 0.719922
1506.15, 0.719981
1506.58, 0.719748
1507.02, 0.719748
1507.46, 0.719806
1507.9, 0.719981
1508.34, 0.720156
1508.78, 0.720214
1509.21, 0.720097
1509.66, 0.720331
1510.09, 0.720331
1510.53, 0.720505
1510.97, 0.720389
1511.42, 0.720564
1511.86, 0.720680
1512.3, 0.720622
1512.74, 0.720447
1513.18, 0.720214
1513.62, 0.720389
1514.06, 0.720739
1514.51, 0.720680
1514.95, 0.720797
1515.39, 0.720972
1515.83, 0.721205
1516.28, 0.721089
1516.72, 0.720914
1517.16, 0.720914
1517.61, 0.721322
1518.05, 0.721438
1518.5, 0.721264
1518.94, 0.720972
1519.39, 0.720855
1519.83, 0.721089
1520.28, 0.721205
1520.73, 0.721205
1521.17, 0.721380
1521.62, 0.721438
1522.07, 0.721672
1522.51, 0.721555
1522.96, 0.721497
1523.41, 0.721555
1523.85, 0.721555
1524.3, 0.721380
1524.75, 0.721438
1525.2, 0.721613
1525.65, 0.721613
1526.1, 0.721613
1526.55, 0.721672
1527.0, 0.721380
1527.45, 0.721089
1527.9, 0.721438
1528.35, 0.721847
1528.8, 0.722138
1529.25, 0.722196
1529.7, 0.722255
1530.15, 0.722196
1530.6, 0.722080
1531.05, 0.722138
1531.51, 0.722080
1531.96, 0.722371
1532.41, 0.722488
1532.87, 0.722663
1533.32, 0.722430
1533.77, 0.722371
1534.23, 0.722663
1534.68, 0.722954
1535.14, 0.723013
1535.59, 0.723071
1536.05, 0.723129
1536.5, 0.723421
1536.96, 0.723654
1537.41, 0.723421
1537.87, 0.723654
1538.32, 0.723771
1538.78, 0.723654
1539.24, 0.723829
1539.7, 0.724062
1540.15, 0.724237
1540.61, 0.724062
1541.07, 0.724295
1541.53, 0.724820
1541.98, 0.724820
1542.44, 0.724470
1542.9, 0.724529
1543.36, 0.724704
1543.82, 0.724937
1544.28, 0.725170
1544.74, 0.725228
1545.2, 0.724995
1545.66, 0.725403
1546.12, 0.725637
1546.59, 0.725753
1547.05, 0.725695
1547.51, 0.725986
1547.97, 0.726161
1548.43, 0.726161
1548.9, 0.726278
1549.36, 0.726336
1549.82, 0.726336
1550.29, 0.726570
1550.75, 0.726744
1551.21, 0.727036
1551.68, 0.727094
1552.14, 0.727269
1552.61, 0.727153
1553.07, 0.727502
1553.54, 0.727677
1554.0, 0.727561
1554.47, 0.727444
1554.93, 0.727736
1555.4, 0.728085
1555.87, 0.728377
1556.34, 0.728435
1556.8, 0.728610
1557.27, 0.728727
1557.74, 0.728785
1558.21, 0.728610
1558.68, 0.728844
1559.14, 0.729018
1559.61, 0.729193
1560.08, 0.729135
1560.55, 0.729135
1561.02, 0.729193
1561.49, 0.729427
1561.96, 0.729485
1562.43, 0.729776
1562.9, 0.729893
1563.38, 0.730126
1563.85, 0.730301
1564.32, 0.730243
1564.79, 0.730010
1565.26, 0.730418
1565.74, 0.730359
1566.21, 0.730534
1566.68, 0.730768
1567.16, 0.730943
1567.63, 0.730709
1568.1, 0.730826
1568.58, 0.730768
1569.05, 0.730768
1569.53, 0.730943
1570.0, 0.731059
1570.48, 0.731351
1570.96, 0.731701
1571.43, 0.731642
1571.91, 0.731701
1572.39, 0.731642
1572.86, 0.731642
1573.34, 0.731817
1573.82, 0.731992
1574.3, 0.731759
1574.77, 0.732109
1575.25, 0.732109
1575.73, 0.732109
1576.21, 0.732284
1576.69, 0.732284
1577.17, 0.732342
1577.65, 0.732400
1578.13, 0.732517
1578.61, 0.732575
1579.09, 0.732459
1579.57, 0.732459
1580.05, 0.732867
1580.54, 0.733158
1581.02, 0.733275
1581.5, 0.732925
1581.98, 0.733100
1582.47, 0.733216
1582.95, 0.733158
1583.43, 0.733158
1583.92, 0.733216
1584.4, 0.733450
1584.88, 0.733391
1585.37, 0.733450
1585.85, 0.733566
1586.34, 0.733566
1586.82, 0.733508
1587.31, 0.733566
1587.8, 0.733800
1588.28, 0.734149
1588.77, 0.734149
1589.26, 0.734149
1589.74, 0.734383
1590.23, 0.734266
1590.72, 0.734324
1591.21, 0.734499
1591.7, 0.734441
1592.19, 0.734383
1592.67, 0.734441
1593.16, 0.734674
1593.65, 0.734791
1594.14, 0.734791
1594.63, 0.734791
1595.12, 0.734966
1595.61, 0.735316
1596.11, 0.735374
1596.6, 0.735199
1597.09, 0.735141
1597.58, 0.735257
1598.08, 0.735549
1598.57, 0.735432
1599.06, 0.735607
1599.55, 0.735782
1600.05, 0.736132
1600.54, 0.736132
1601.04, 0.736482
1601.53, 0.736715
1602.03, 0.736948
1602.52, 0.736715
1603.02, 0.736657
1603.51, 0.736773
1604.01, 0.737181
1604.5, 0.737356
1605.0, 0.737473
1605.5, 0.737706
1606.0, 0.737881
1606.49, 0.737940
1606.99, 0.738114
1607.49, 0.738114
1607.99, 0.737940
1608.49, 0.738056
1608.99, 0.738231
1609.49, 0.738348
1609.99, 0.738697
1610.49, 0.738872
1610.99, 0.738756
1611.49, 0.738756
1611.99, 0.739339
1612.49, 0.739805
1612.99, 0.739630
1613.49, 0.739514
1614.0, 0.739689
1614.5, 0.739980
1615.0, 0.740097
1615.51, 0.740447
1616.01, 0.740622
1616.51, 0.740738
1617.02, 0.740913
1617.52, 0.741146
1618.03, 0.741321
1618.53, 0.741380
1619.04, 0.741263
1619.54, 0.741788
1620.05, 0.741904
1620.55, 0.741671
1621.06, 0.741904
1621.57, 0.742312
1622.08, 0.742662
1622.58, 0.742721
1623.09, 0.742896
1623.6, 0.742896
1624.11, 0.743012
1624.62, 0.743129
1625.13, 0.743304
1625.64, 0.743362
1626.15, 0.743653
1626.66, 0.743829
1627.17, 0.744120
1627.68, 0.744178
1628.19, 0.744353
1628.7, 0.744412
1629.21, 0.744878
1629.72, 0.744936
1630.24, 0.744820
1630.75, 0.744878
1631.26, 0.745111
1631.78, 0.745228
1632.29, 0.745286
1632.8, 0.745461
1633.32, 0.745286
1633.83, 0.745111
1634.35, 0.745461
1634.86, 0.745753
1635.38, 0.745986
1635.9, 0.746277
1636.41, 0.746511
1636.93, 0.746161
1637.45, 0.746102
1637.96, 0.746336
1638.48, 0.746511
1639.0, 0.746627
1639.52, 0.746802
1640.04, 0.746919
1640.56, 0.746977
1641.08, 0.746627
1641.59, 0.746802
1642.11, 0.747035
1642.63, 0.747210
1643.16, 0.747094
1643.68, 0.747444
1644.2, 0.747560
1644.72, 0.747560
1645.24, 0.747502
1645.76, 0.747793
1646.29, 0.747618
1646.81, 0.747618
1647.33, 0.747910
1647.86, 0.748260
1648.38, 0.748260
1648.9, 0.748376
1649.43, 0.748143
1649.95, 0.747852
1650.48, 0.747852
1651.0, 0.748493
1651.53, 0.748901
1652.06, 0.748726
1652.58, 0.748551
1653.11, 0.748726
1653.64, 0.748668
1654.17, 0.749018
1654.69, 0.748901
1655.22, 0.748960
1655.75, 0.749368
1656.28, 0.749484
1656.81, 0.749309
1657.34, 0.749309
1657.87, 0.749426
1658.4, 0.749543
1658.93, 0.749484
1659.46, 0.749601
1659.99, 0.749834
1660.52, 0.749893
1661.05, 0.750126
1661.59, 0.750242
1662.12, 0.750126
1662.65, 0.750476
1663.19, 0.750592
1663.72, 0.750534
1664.26, 0.750709
1664.79, 0.750709
1665.32, 0.751000
1665.86, 0.751059
1666.39, 0.750884
1666.93, 0.751000
1667.47, 0.751234
1668.0, 0.751234
1668.54, 0.751525
1669.08, 0.751817
1669.61, 0.751875
1670.15, 0.751817
1670.69, 0.751933
1671.23, 0.752225
1671.77, 0.752225
1672.31, 0.752050
1672.85, 0.752108
1673.39, 0.752341
1673.93, 0.752225
1674.47, 0.752225
1675.01, 0.752458
1675.55, 0.752575
1676.09, 0.752516
1676.64, 0.752341
1677.18, 0.752516
1677.72, 0.752516
1678.26, 0.752108
1678.81, 0.751758
1679.35, 0.751467
1679.89, 0.751234
1680.44, 0.750767
1680.98, 0.750650
1681.53, 0.750009
1682.07, 0.749309
1682.62, 0.749251
1683.17, 0.749718
1683.71, 0.750009
1684.26, 0.750417
1684.81, 0.751000
1685.36, 0.751875
1685.9, 0.752808
1686.45, 0.753507
1687.0, 0.753916
1687.55, 0.754324
1688.1, 0.754849
1688.65, 0.755140
1689.2, 0.755257
1689.75, 0.755723
1690.3, 0.756073
1690.85, 0.756306
1691.41, 0.756714
1691.96, 0.756948
1692.51, 0.756831
1693.06, 0.756889
1693.61, 0.757006
1694.17, 0.757472
1694.72, 0.757531
1695.28, 0.757822
1695.83, 0.758172
1696.39, 0.758172
1696.94, 0.757997
1697.5, 0.758289
1698.05, 0.758639
1698.61, 0.758814
1699.17, 0.758814
1699.72, 0.758755
1700.28, 0.758872
1700.84, 0.759397
1701.4, 0.759455
1701.95, 0.759222
1702.51, 0.759047
1703.07, 0.759280
1703.63, 0.759397
1704.19, 0.759805
1704.75, 0.759746
1705.31, 0.759805
1705.88, 0.759863
1706.44, 0.760038
1707.0, 0.760096
1707.56, 0.760155
1708.12, 0.759980
1708.69, 0.760213
1709.25, 0.760271
1709.81, 0.760504
1710.38, 0.760679
1710.94, 0.760738
1711.51, 0.760679
1712.07, 0.760679
1712.64, 0.760913
1713.2, 0.760854
1713.77, 0.760563
1714.34, 0.760738
1714.9, 0.761029
1715.47, 0.760913
1716.04, 0.760971
1716.61, 0.761088
1717.18, 0.761088
1717.74, 0.761204
1718.31, 0.761204
1718.88, 0.761262
1719.45, 0.761321
1720.02, 0.761146
1720.59, 0.761029
1721.17, 0.761496
1721.74, 0.761671
1722.31, 0.761612
1722.88, 0.761612
1723.45, 0.761612
1724.03, 0.761671
1724.6, 0.761729
1725.18, 0.761846
1725.75, 0.761904
1726.33, 0.762079
1726.9, 0.762020
1727.48, 0.762137
1728.05, 0.762487
1728.63, 0.762545
1729.2, 0.762429
1729.78, 0.762487
1730.36, 0.762545
1730.94, 0.762429
1731.51, 0.762545
1732.09, 0.762545
1732.67, 0.762895
1733.25, 0.763245
1733.83, 0.763303
1734.41, 0.763420
1734.99, 0.763536
1735.57, 0.763653
1736.15, 0.763886
1736.73, 0.763828
1737.32, 0.763886
1737.9, 0.763886
1738.48, 0.763945
1739.07, 0.764178
1739.65, 0.764469
1740.23, 0.764586
1740.82, 0.764819
1741.4, 0.764878
1741.99, 0.764819
1742.57, 0.765052
1743.16, 0.765052
1743.74, 0.765052
1744.33, 0.765461
1744.92, 0.765577
1745.51, 0.765752
1746.09, 0.765869
1746.68, 0.766102
1747.27, 0.766219
1747.86, 0.766335
1748.45, 0.766219
1749.04, 0.766510
1749.63, 0.766568
1750.22, 0.766627
1750.81, 0.766743
1751.4, 0.766802
1751.99, 0.766802
1752.59, 0.766977
1753.18, 0.767093
1753.77, 0.767151
1754.37, 0.766918
1754.96, 0.767385
1755.56, 0.767560
1756.15, 0.767385
1756.74, 0.767851
1757.34, 0.768434
1757.94, 0.768201
1758.53, 0.768201
1759.13, 0.768551
1759.73, 0.768842
1760.32, 0.768842
1760.92, 0.769017
1761.52, 0.769134
1762.12, 0.769309
1762.72, 0.769309
1763.32, 0.769484
1763.92, 0.769600
1764.52, 0.769717
1765.12, 0.769892
1765.72, 0.770009
1766.32, 0.769950
1766.92, 0.770184
1767.53, 0.770475
1768.13, 0.770592
1768.73, 0.770650
1769.34, 0.770767
1769.94, 0.770650
1770.55, 0.770942
1771.15, 0.771350
1771.76, 0.771466
1772.36, 0.771350
1772.97, 0.771466
1773.57, 0.771699
1774.18, 0.771874
1774.79, 0.771583
1775.4, 0.771758
1776.0, 0.771933
1776.61, 0.772224
1777.22, 0.772224
1777.83, 0.772283
1778.44, 0.772224
1779.05, 0.772399
1779.66, 0.772691
1780.27, 0.772632
1780.88, 0.772691
1781.5, 0.772691
1782.11, 0.772866
1782.72, 0.772982
1783.33, 0.772924
1783.95, 0.772924
1784.56, 0.772982
1785.18, 0.773157
1785.79, 0.773157
1786.41, 0.773157
1787.02, 0.773274
1787.64, 0.773041
1788.26, 0.773215
1788.87, 0.773507
1789.49, 0.773449
1790.11, 0.773449
1790.73, 0.773507
1791.35, 0.773332
1791.96, 0.773507
1792.58, 0.773624
1793.21, 0.773624
1793.83, 0.773682
1794.45, 0.773799
1795.07, 0.773799
1795.69, 0.773740
1796.31, 0.773973
1796.93, 0.773857
1797.56, 0.773915
1798.18, 0.773915
1798.8, 0.774032
1799.43, 0.774207
1800.05, 0.774556
1800.68, 0.774556
1801.3, 0.774440
1801.93, 0.774382
1802.56, 0.774790
1803.18, 0.774731
1803.81, 0.774848
1804.44, 0.774965
1805.07, 0.774906
1805.7, 0.774848
1806.33, 0.774965
1806.95, 0.774965
1807.58, 0.774965
1808.22, 0.775023
1808.85, 0.775198
1809.48, 0.775140
1810.11, 0.775023
1810.74, 0.775198
1811.38, 0.775315
1812.01, 0.775431
1812.64, 0.775606
1813.28, 0.775723
1813.91, 0.775606
1814.55, 0.775606
1815.18, 0.775956
1815.82, 0.776073
1816.45, 0.776131
1817.09, 0.776014
1817.73, 0.776014
1818.36, 0.775839
1819.0, 0.776014
1819.64, 0.776248
1820.28, 0.776364
1820.92, 0.776248
1821.56, 0.776656
1822.2, 0.776830
1822.84, 0.776830
1823.48, 0.776714
1824.12, 0.776889
1824.76, 0.777005
1825.41, 0.777297
1826.05, 0.777530
1826.69, 0.777355
1827.34, 0.777297
1827.98, 0.777472
1828.63, 0.777472
1829.27, 0.777414
1829.92, 0.777588
1830.56, 0.777997
1831.21, 0.778113
1831.86, 0.778055
1832.5, 0.778288
1833.15, 0.778521
1833.8, 0.778463
1834.45, 0.778755
1835.1, 0.778813
1835.75, 0.778988
1836.4, 0.778988
1837.05, 0.778988
1837.7, 0.779338
1838.35, 0.779221
1839.01, 0.779338
1839.66, 0.779862
1840.31, 0.779688
1840.96, 0.779746
1841.62, 0.780154
1842.27, 0.780096
1842.93, 0.780096
1843.58, 0.780154
1844.24, 0.780154
1844.9, 0.780271
1845.55, 0.780271
1846.21, 0.780621
1846.87, 0.781145
1847.53, 0.780970
1848.18, 0.781087
1848.84, 0.781145
1849.5, 0.781145
1850.16, 0.781262
1850.82, 0.781437
1851.48, 0.781495
1852.14, 0.781379
1852.81, 0.781553
1853.47, 0.781903
1854.13, 0.781962
1854.8, 0.781845
1855.46, 0.781903
1856.12, 0.781962
1856.79, 0.782078
1857.45, 0.782020
1858.12, 0.782136
1858.79, 0.782078
1859.45, 0.782195
1860.12, 0.782253
1860.79, 0.782253
1861.46, 0.782195
1862.12, 0.782253
1862.79, 0.782311
1863.46, 0.782661
1864.13, 0.782836
1864.8, 0.782720
1865.48, 0.782720
1866.15, 0.782778
1866.82, 0.782953
1867.49, 0.783419
1868.16, 0.783069
1868.84, 0.782953
1869.51, 0.782778
1870.19, 0.782953
1870.86, 0.783419
1871.54, 0.783303
1872.21, 0.783303
1872.89, 0.783711
1873.56, 0.783186
1874.24, 0.782894
1874.92, 0.783069
1875.6, 0.782953
1876.28, 0.783011
1876.96, 0.783011
1877.64, 0.782953
1878.32, 0.782894
1879.0, 0.782953
1879.68, 0.783011
1880.36, 0.783069
1881.04, 0.783244
1881.73, 0.783069
1882.41, 0.783069
1883.09, 0.783128
1883.78, 0.783361
1884.46, 0.783186
1885.15, 0.782836
1885.83, 0.782720
1886.52, 0.782661
1887.21, 0.782661
1887.89, 0.782778
1888.58, 0.782836
1889.27, 0.782953
1889.96, 0.783128
1890.65, 0.782836
1891.34, 0.782720
1892.03, 0.782953
1892.72, 0.782953
1893.41, 0.782953
1894.1, 0.782836
1894.79, 0.782778
1895.49, 0.782778
1896.18, 0.782953
1896.87, 0.783011
1897.57, 0.783011
1898.26, 0.782778
1898.96, 0.782894
1899.65, 0.783128
1900.35, 0.783244
1901.05, 0.783128
1901.74, 0.783011
1902.44, 0.783244
1903.14, 0.783303
1903.84, 0.783011
1904.54, 0.783361
1905.24, 0.783536
1905.94, 0.783361
1906.64, 0.783711
1907.34, 0.783594
1908.04, 0.783303
1908.75, 0.783303
1909.45, 0.783361
1910.15, 0.783769
1910.86, 0.783944
1911.56, 0.783886
1912.27, 0.783827
1912.97, 0.784410
1913.68, 0.784644
1914.39, 0.784469
1915.09, 0.784002
1915.8, 0.783769
1916.51, 0.783769
1917.22, 0.784119
1917.93, 0.784236
1918.64, 0.784061
1919.35, 0.784236
1920.06, 0.784585
1920.77, 0.784644
1921.48, 0.784527
1922.19, 0.784469
1922.91, 0.784469
1923.62, 0.784819
1924.33, 0.785169
1925.05, 0.784877
1925.76, 0.784994
1926.48, 0.785227
1927.19, 0.785343
1927.91, 0.785110
1928.63, 0.785402
1929.35, 0.785518
1930.07, 0.785518
1930.78, 0.785460
1931.5, 0.785518
1932.22, 0.785635
1932.94, 0.785752
1933.66, 0.785927
1934.39, 0.785985
1935.11, 0.786043
1935.83, 0.786451
1936.55, 0.786685
1937.28, 0.786393
1938.0, 0.786160
1938.73, 0.786510
1939.45, 0.786859
1940.18, 0.786976
1940.9, 0.786918
1941.63, 0.787093
1942.36, 0.787326
1943.09, 0.787384
1943.81, 0.787384
1944.54, 0.787559
1945.27, 0.787501
1946.0, 0.787676
1946.73, 0.787792
1947.47, 0.787967
1948.2, 0.788026
1948.93, 0.787967
1949.66, 0.787734
1950.4, 0.787851
1951.13, 0.787909
1951.86, 0.787734
1952.6, 0.787734
1953.34, 0.788142
1954.07, 0.788317
1954.81, 0.788200
1955.55, 0.788084
1956.29, 0.788142
1957.02, 0.788317
1957.76, 0.788434
1958.5, 0.788317
1959.24, 0.788317
1959.98, 0.788550
1960.72, 0.788550
1961.47, 0.788609
1962.21, 0.788609
1962.95, 0.788317
1963.7, 0.788259
1964.44, 0.788375
1965.18, 0.788375
1965.93, 0.788142
1966.67, 0.788375
1967.42, 0.788375
1968.17, 0.788375
1968.92, 0.788550
1969.66, 0.788725
1970.41, 0.788609
1971.16, 0.788667
1971.91, 0.788667
1972.66, 0.788609
1973.41, 0.788492
1974.16, 0.788550
1974.92, 0.788725
1975.67, 0.788842
1976.42, 0.788900
1977.18, 0.788900
1977.93, 0.788842
1978.69, 0.788842
1979.44, 0.788667
1980.2, 0.788667
1980.95, 0.788667
1981.71, 0.788725
1982.47, 0.789017
1983.23, 0.789075
1983.99, 0.789017
1984.74, 0.788958
1985.51, 0.789017
1986.27, 0.789017
1987.03, 0.788900
1987.79, 0.789017
1988.55, 0.788958
1989.32, 0.789192
1990.08, 0.789192
1990.84, 0.789250
1991.61, 0.789133
1992.37, 0.788958
1993.14, 0.789133
1993.9, 0.789075
1994.67, 0.789017
1995.44, 0.789017
1996.21, 0.789017
1996.98, 0.788842
1997.75, 0.788725
1998.52, 0.788667
1999.29, 0.788784
2000.06, 0.788842
2000.83, 0.788725
2001.6, 0.788958
2002.38, 0.788958
2003.15, 0.789133
2003.93, 0.789192
2004.7, 0.789250
2005.48, 0.789133
2006.25, 0.789017
2007.03, 0.789075
2007.81, 0.789075
2008.58, 0.789192
2009.36, 0.789308
2010.14, 0.789250
2010.92, 0.789367
2011.7, 0.789483
2012.48, 0.789483
2013.26, 0.789542
2014.05, 0.789658
2014.83, 0.789833
2015.61, 0.790008
2016.4, 0.790300
2017.18, 0.790533
2017.97, 0.790649
2018.75, 0.790591
2019.54, 0.790824
2020.32, 0.790999
2021.11, 0.790883
2021.9, 0.790708
2022.69, 0.791116
2023.48, 0.791233
2024.27, 0.791174
2025.06, 0.791174
2025.85, 0.791116
2026.64, 0.791116
2027.44, 0.791291
2028.23, 0.791291
2029.02, 0.791407
2029.82, 0.791524
2030.61, 0.791641
2031.41, 0.791699
2032.2, 0.791524
2033.0, 0.791582
2033.8, 0.791641
2034.6, 0.791757
2035.4, 0.791816
2036.2, 0.791699
2037.0, 0.791407
2037.8, 0.791233
2038.6, 0.791407
2039.4, 0.791699
2040.2, 0.791757
2041.01, 0.791582
2041.81, 0.791349
2042.61, 0.791466
2043.42, 0.791349
2044.22, 0.791291
2045.03, 0.790999
2045.84, 0.790708
2046.65, 0.790591
2047.46, 0.790766
2048.26, 0.790533
2049.07, 0.790241
2049.88, 0.789950
2050.69, 0.789658
2051.51, 0.789542
2052.32, 0.789367
2053.13, 0.788900
2053.94, 0.788492
2054.76, 0.788084
2055.57, 0.787792
2056.39, 0.787151
2057.2, 0.786510
2058.02, 0.785868
2058.84, 0.785343
2059.66, 0.784469
2060.48, 0.783419
2061.29, 0.782545
2062.11, 0.781495
2062.94, 0.780329
2063.76, 0.778988
2064.58, 0.777297
2065.4, 0.775548
2066.22, 0.773390
2067.05, 0.770883
2067.87, 0.767735
2068.7, 0.764353
2069.52, 0.760446
2070.35, 0.755956
2071.18, 0.750592
2072.0, 0.743653
2072.83, 0.735374
2073.66, 0.725870
2074.49, 0.714383
2075.32, 0.700856
2076.15, 0.685288
2076.98, 0.667154
2077.82, 0.646105
2078.65, 0.622199
2079.48, 0.595086
2080.32, 0.568206
2081.15, 0.546341
2081.99, 0.535554
2082.83, 0.538819
2083.66, 0.553804
2084.5, 0.575378
2085.34, 0.599109
2086.18, 0.622199
2087.02, 0.643540
2087.86, 0.662548
2088.7, 0.679574
2089.54, 0.694442
2090.39, 0.706978
2091.23, 0.717474
2092.07, 0.726278
2092.92, 0.733800
2093.76, 0.740447
2094.61, 0.745636
2095.45, 0.750184
2096.3, 0.754266
2097.15, 0.757822
2098.0, 0.760971
2098.85, 0.763478
2099.7, 0.765635
2100.55, 0.767793
2101.4, 0.769425
2102.25, 0.771000
2103.1, 0.772632
2103.96, 0.773857
2104.81, 0.774673
2105.67, 0.775723
2106.52, 0.776656
2107.38, 0.777472
2108.24, 0.778055
2109.09, 0.778580
2109.95, 0.779221
2110.81, 0.779921
2111.67, 0.780562
2112.53, 0.781087
2113.39, 0.781495
2114.25, 0.781845
2115.12, 0.782136
2115.98, 0.782195
2116.84, 0.782195
2117.71, 0.782545
2118.58, 0.782894
2119.44, 0.783011
2120.31, 0.782664
2121.18, 0.783011
2122.04, 0.783185
2122.91, 0.782953
2123.78, 0.782780
2124.65, 0.782953
2125.52, 0.782664
2126.4, 0.782376
2127.27, 0.781798
2128.14, 0.780931
2129.02, 0.780295
2129.89, 0.779775
2130.77, 0.778677
2131.64, 0.777752
2132.52, 0.776885
2133.4, 0.775671
2134.27, 0.773648
2135.15, 0.771857
2136.03, 0.770238
2136.91, 0.769429
2137.79, 0.768620
2138.68, 0.766771
2139.56, 0.765384
2140.44, 0.764748
2141.33, 0.763939
2142.21, 0.763650
2143.1, 0.763939
2143.99, 0.763765
2144.87, 0.763419
2145.76, 0.762667
2146.65, 0.761338
2147.54, 0.760760
2148.43, 0.759373
2149.32, 0.757986
2150.21, 0.756946
2151.1, 0.756079
2151.99, 0.755963
2152.89, 0.756136
2153.78, 0.757003
2154.68, 0.757928
2155.57, 0.758968
2156.47, 0.760240
2157.37, 0.761280
2158.27, 0.762263
2159.16, 0.763419
2160.06, 0.765441
2160.96, 0.766713
2161.86, 0.767407
2162.77, 0.768736
2163.67, 0.769834
2164.57, 0.770527
2165.48, 0.770932
2166.38, 0.770701
2167.29, 0.770181
2168.2, 0.769892
2169.1, 0.770181
2170.01, 0.769834
2170.92, 0.770181
2171.83, 0.770643
2172.74, 0.771163
2173.65, 0.771221
2174.56, 0.771626
2175.47, 0.771915
2176.39, 0.772608
2177.3, 0.773244
2178.22, 0.773475
2179.13, 0.773706
2180.05, 0.774226
2180.96, 0.774631
2181.88, 0.774862
2182.8, 0.775151
2183.72, 0.776018
2184.64, 0.776134
2185.56, 0.776596
2186.48, 0.777405
2187.41, 0.777694
2188.33, 0.777578
2189.25, 0.777752
2190.18, 0.778156
2191.1, 0.777867
2192.03, 0.777116
2192.96, 0.776134
2193.89, 0.775498
2194.82, 0.775151
2195.74, 0.774804
2196.68, 0.774226
2197.61, 0.773186
2198.54, 0.772435
2199.47, 0.772377
2200.4, 0.771568
2201.34, 0.770990
2202.28, 0.771163
2203.21, 0.770990
2204.15, 0.770701
2205.08, 0.770412
2206.02, 0.769776
2206.96, 0.769949
2207.9, 0.769892
2208.84, 0.770238
2209.78, 0.770065
2210.73, 0.770007
2211.67, 0.770816
2212.61, 0.771337
2213.56, 0.771626
2214.5, 0.772203
2215.45, 0.773070
2216.4, 0.774284
2217.35, 0.775267
2218.3, 0.776365
2219.24, 0.777463
2220.2, 0.778908
2221.15, 0.780121
2222.1, 0.780931
2223.05, 0.781682
2224.0, 0.782144
2224.96, 0.782144
2225.91, 0.782722
2226.87, 0.783185
2227.83, 0.783763
2228.79, 0.784283
2229.74, 0.784456
2230.7, 0.784514
2231.66, 0.784514
2232.63, 0.784572
2233.59, 0.784918
2234.55, 0.785034
2235.51, 0.784745
2236.48, 0.784225
2237.44, 0.784167
2238.41, 0.784456
2239.38, 0.784803
2240.34, 0.785034
2241.31, 0.784456
2242.28, 0.784976
2243.25, 0.785207
2244.22, 0.784803
2245.19, 0.784225
2246.17, 0.784167
2247.14, 0.784167
2248.12, 0.783936
2249.09, 0.783647
2250.07, 0.783185
2251.04, 0.782780
2252.02, 0.782260
2253.0, 0.781451
2253.98, 0.780295
2254.96, 0.778850
2255.94, 0.777232
2256.92, 0.774631
2257.91, 0.771279
2258.89, 0.768042
2259.88, 0.765962
2260.86, 0.764863
2261.85, 0.765673
2262.83, 0.767464
2263.82, 0.769660
2264.81, 0.771683
2265.8, 0.774053
2266.79, 0.775556
2267.78, 0.776943
2268.78, 0.777578
2269.77, 0.777925
2270.76, 0.778677
2271.76, 0.780121
2272.75, 0.780815
2273.75, 0.781682
2274.75, 0.781798
2275.75, 0.781566
2276.75, 0.781451
2277.75, 0.781335
2278.75, 0.781220
2279.75, 0.781740
2280.75, 0.781971
2281.76, 0.781509
2282.76, 0.781220
2283.77, 0.781335
2284.77, 0.781046
2285.78, 0.780353
2286.79, 0.780006
2287.8, 0.779601
2288.81, 0.779255
2289.82, 0.778445
2290.83, 0.777694
2291.84, 0.777521
2292.86, 0.776769
2293.87, 0.775787
2294.89, 0.774458
2295.91, 0.773995
2296.92, 0.773128
2297.94, 0.772724
2298.96, 0.771799
2299.98, 0.770990
2301.0, 0.770296
2302.02, 0.769776
2303.04, 0.769198
2304.07, 0.768967
2305.09, 0.768620
2306.12, 0.768678
2307.15, 0.768794
2308.17, 0.768100
2309.2, 0.767927
2310.23, 0.767753
2311.26, 0.767175
2312.29, 0.766886
2313.32, 0.766597
2314.35, 0.766308
2315.39, 0.765846
2316.42, 0.765557
2317.46, 0.765037
2318.5, 0.764459
2319.53, 0.763419
2320.57, 0.762031
2321.61, 0.760991
2322.65, 0.760182
2323.69, 0.759084
2324.73, 0.758853
2325.78, 0.758217
2326.82, 0.758159
2327.86, 0.758159
2328.91, 0.758448
2329.96, 0.758275
2331.01, 0.758159
2332.05, 0.758217
2333.1, 0.758275
2334.15, 0.758044
2335.21, 0.757581
2336.26, 0.757524
2337.31, 0.757524
2338.36, 0.757177
2339.42, 0.756888
2340.48, 0.756136
2341.53, 0.755732
2342.59, 0.755674
2343.65, 0.755674
2344.71, 0.755443
2345.77, 0.754981
2346.83, 0.754634
2347.9, 0.754345
2348.96, 0.754113
2350.02, 0.754345
2351.09, 0.754576
2352.16, 0.755385
2353.23, 0.755905
2354.29, 0.756194
2355.36, 0.756021
2356.43, 0.755616
2357.51, 0.755269
2358.58, 0.755096
2359.65, 0.754691
2360.73, 0.753825
2361.8, 0.753016
2362.88, 0.752611
2363.96, 0.752264
2365.03, 0.751975
2366.11, 0.751455
2367.19, 0.751108
2368.27, 0.750819
2369.36, 0.750646
2370.44, 0.750241
2371.53, 0.750068
2372.61, 0.749605
2373.7, 0.749201
2374.78, 0.749317
2375.87, 0.750068
2376.96, 0.750299
2378.05, 0.750472
2379.14, 0.750415
2380.24, 0.750819
2381.33, 0.750935
2382.42, 0.751166
2383.52, 0.751050
2384.61, 0.750877
2385.71, 0.751050
2386.81, 0.751166
2387.91, 0.751166
2389.01, 0.750068
2390.11, 0.748681
2391.22, 0.748392
2392.32, 0.748045
2393.42, 0.747351
2394.53, 0.747236
2395.64, 0.746658
2396.74, 0.746138
2397.85, 0.746022
2398.96, 0.745560
2400.07, 0.745040
2401.18, 0.744751
2402.3, 0.744924
2403.41, 0.745155
2404.52, 0.744520
2405.64, 0.743999
2406.76, 0.743132
2407.88, 0.741977
2408.99, 0.740647
2410.11, 0.739029
2411.23, 0.737411
2412.36, 0.735850
2413.48, 0.734810
2414.6, 0.733712
2415.73, 0.733192
2416.85, 0.732729
2417.98, 0.732382
2419.11, 0.732267
2420.24, 0.732151
2421.37, 0.731862
2422.5, 0.731689
2423.64, 0.731169
2424.77, 0.730938
2425.9, 0.730822
2427.04, 0.730938
2428.18, 0.731169
2429.31, 0.730938
2430.45, 0.730706
2431.59, 0.730591
2432.73, 0.730649
2433.88, 0.730649
2435.02, 0.731169
2436.16, 0.731978
2437.31, 0.733249
2438.45, 0.734521
2439.6, 0.734694
2440.75, 0.734579
2441.9, 0.734348
2443.05, 0.733134
2444.2, 0.731342
2445.35, 0.729435
2446.51, 0.728221
2447.67, 0.727123
2448.82, 0.726487
2449.98, 0.726025
2451.14, 0.725158
2452.3, 0.724118
2453.46, 0.722673
2454.62, 0.720997
2455.78, 0.718916
2456.94, 0.716836
2458.11, 0.714870
2459.28, 0.712848
2460.44, 0.710709
2461.61, 0.708918
2462.78, 0.707184
2463.95, 0.705797
2465.12, 0.704467
2466.3, 0.702733
2467.47, 0.701173
2468.65, 0.700075
2469.82, 0.699208
2471.0, 0.698861
2472.18, 0.698861
2473.36, 0.699150
2474.54, 0.699555
2475.72, 0.699786
2476.9, 0.699613
2478.08, 0.699497
2479.27, 0.698803
2480.46, 0.697936
2481.64, 0.696896
2482.83, 0.694989
2484.02, 0.692793
2485.21, 0.690654
2486.4, 0.688805
2487.6, 0.686955
2488.79, 0.685973
2489.99, 0.685279
2491.18, 0.683545
2492.38, 0.681118
2493.58, 0.677650
2494.78, 0.673142
2495.98, 0.667941
2497.18, 0.662970
2498.39, 0.659387
2499.59, 0.656671
2500.8, 0.654706
2502.01, 0.653607
2503.21, 0.653145
2504.42, 0.653376
2505.63, 0.653550
2506.84, 0.653665
2508.06, 0.653261
2509.27, 0.652105
2510.49, 0.649966
2511.7, 0.647366
2512.92, 0.643551
2514.14, 0.638812
2515.36, 0.632743
2516.58, 0.626790
2517.8, 0.622225
2519.03, 0.619277
2520.25, 0.617717
2521.48, 0.616561
2522.7, 0.616040
2523.93, 0.615752
2525.16, 0.614885
2526.39, 0.613093
2527.62, 0.610088
2528.86, 0.605984
2530.09, 0.601823
2531.33, 0.598933
2532.56, 0.598124
2533.8, 0.598240
2535.04, 0.598124
2536.28, 0.599164
2537.52, 0.602112
2538.76, 0.605059
2540.01, 0.607256
2541.25, 0.606967
2542.5, 0.604597
2543.75, 0.601649
2544.99, 0.598644
2546.24, 0.596852
2547.49, 0.596910
2548.75, 0.598240
2550.0, 0.599684
2551.26, 0.601996
2552.51, 0.605233
2553.77, 0.609799
2555.03, 0.614596
2556.29, 0.620375
2557.55, 0.626155
2558.81, 0.630720
2560.08, 0.633379
2561.34, 0.635575
2562.61, 0.637887
2563.88, 0.641239
2565.14, 0.645921
2566.41, 0.650140
2567.68, 0.652452
2568.96, 0.653954
2570.23, 0.656439
2571.51, 0.659098
2572.78, 0.661179
2574.06, 0.665513
2575.34, 0.668865
2576.62, 0.672507
2577.9, 0.676899
2579.18, 0.680656
2580.47, 0.682332
2581.75, 0.682447
2583.04, 0.680598
2584.32, 0.679384
2585.61, 0.676783
2586.9, 0.674183
2588.2, 0.673894
2589.49, 0.674934
2590.78, 0.675743
2592.08, 0.674183
2593.37, 0.669848
2594.67, 0.666843
2595.97, 0.667478
2597.27, 0.666843
2598.57, 0.664531
2599.88, 0.661814
2601.18, 0.660312
2602.49, 0.660427
2603.79, 0.660774
2605.1, 0.662103
2606.41, 0.664762
2607.72, 0.666785
2609.03, 0.668114
2610.35, 0.669559
2611.66, 0.670773
2612.98, 0.670946
2614.3, 0.669675
2615.62, 0.666207
2616.94, 0.663953
2618.26, 0.663490
2619.58, 0.662624
2620.91, 0.665340
2622.23, 0.669328
2623.56, 0.672853
2624.89, 0.675165
2626.22, 0.677824
2627.55, 0.682101
2628.88, 0.683661
2630.21, 0.686204
2631.55, 0.690307
2632.89, 0.692735
2634.22, 0.695336
2635.56, 0.697590
2636.9, 0.698803
2638.25, 0.699670
2639.59, 0.700479
2640.93, 0.701057
2642.28, 0.701809
2643.63, 0.702387
2644.98, 0.702502
2646.33, 0.703311
2647.68, 0.704467
2649.03, 0.704814
2650.39, 0.704294
2651.74, 0.703600
2653.1, 0.703889
2654.46, 0.704525
2655.82, 0.704872
2657.18, 0.704930
2658.54, 0.703947
2659.9, 0.703543
2661.27, 0.703427
2662.64, 0.702444
2664.01, 0.699786
2665.38, 0.697936
2666.74, 0.697994
2668.12, 0.697994
2669.49, 0.695162
2670.87, 0.695914
2672.24, 0.697590
2673.62, 0.696838
2675.0, 0.694180
2676.38, 0.691926
2677.76, 0.690712
2679.15, 0.690250
2680.54, 0.690423
2681.92, 0.688805
2683.31, 0.686782
2684.7, 0.684759
2686.09, 0.683141
2687.48, 0.681234
2688.88, 0.679500
2690.27, 0.677246
2691.67, 0.673547
2693.07, 0.669154
2694.47, 0.666034
2695.87, 0.664011
2697.27, 0.661641
2698.67, 0.657422
2700.08, 0.652509
2701.49, 0.647944
2702.9, 0.644071
2704.31, 0.639101
2705.72, 0.634073
2707.13, 0.627311
2708.54, 0.619335
2709.96, 0.611359
2711.38, 0.605117
2712.8, 0.598124
2714.22, 0.589166
2715.64, 0.578531
2717.06, 0.566221
2718.49, 0.552812
2719.91, 0.537843
2721.34, 0.522296
2722.77, 0.505131
2724.2, 0.484672
2725.63, 0.462016
2727.07, 0.435314
2728.5, 0.403469
2729.94, 0.365844
2731.38, 0.321284
2732.82, 0.268575
2734.26, 0.208237
2735.7, 0.147840
2737.15, 0.101546
2738.59, 0.0718400
2740.04, 0.0628810
2741.49, 0.0744980
2742.94, 0.0973270
2744.39, 0.124260
2745.84, 0.150730
2747.3, 0.171826
2748.76, 0.189280
2750.21, 0.215114
2751.67, 0.253895
2753.14, 0.296663
2754.6, 0.339027
2756.06, 0.380120
2757.53, 0.410231
2759.0, 0.430864
2760.46, 0.445660
2761.94, 0.455832
2763.41, 0.462420
2764.88, 0.471321
2766.36, 0.487041
2767.83, 0.502993
2769.31, 0.512009
2770.79, 0.512587
2772.27, 0.507674
2773.76, 0.507038
2775.24, 0.513916
2776.73, 0.522354
2778.22, 0.526747
2779.71, 0.523510
2781.2, 0.519869
2782.69, 0.525995
2784.18, 0.537381
2785.68, 0.545299
2787.18, 0.549171
2788.68, 0.550501
2790.18, 0.551194
2791.68, 0.553679
2793.19, 0.557609
2794.69, 0.560152
2796.2, 0.561193
2797.71, 0.561539
2799.22, 0.561366
2800.73, 0.560095
2802.24, 0.559054
2803.76, 0.559863
2805.28, 0.561077
2806.8, 0.560788
2808.32, 0.559574
2809.84, 0.557320
2811.36, 0.554720
2812.89, 0.551830
2814.42, 0.547380
2815.94, 0.540271
2817.48, 0.529925
2819.01, 0.519869
2820.54, 0.515823
2822.08, 0.517384
2823.61, 0.518944
2825.15, 0.518540
2826.69, 0.518829
2828.23, 0.521719
2829.78, 0.526805
2831.32, 0.532468
2832.87, 0.537612
2834.42, 0.542120
2835.97, 0.545241
2837.52, 0.547322
2839.08, 0.548998
2840.63, 0.550327
2842.19, 0.551194
2843.75, 0.551541
2845.31, 0.551021
2846.87, 0.549807
2848.44, 0.548073
2850.0, 0.545819
2851.57, 0.542409
2853.14, 0.537786
2854.71, 0.532006
2856.28, 0.524839
2857.86, 0.516690
2859.43, 0.508426
2861.01, 0.499930
2862.59, 0.490393
2864.17, 0.480857
2865.76, 0.473806
2867.34, 0.472881
2868.93, 0.478430
2870.52, 0.487908
2872.11, 0.497849
2873.7, 0.506056
2875.29, 0.511836
2876.89, 0.515650
2878.49, 0.517846
2880.08, 0.518887
2881.69, 0.520158
2883.29, 0.521950
2884.89, 0.524319
2886.5, 0.527209
2888.11, 0.529636
2889.72, 0.530619
2891.33, 0.530157
2892.94, 0.528596
2894.56, 0.526053
2896.17, 0.521487
2897.79, 0.514321
2899.42, 0.504900
2901.04, 0.498947
2902.66, 0.500739
2904.29, 0.499872
2905.92, 0.487157
2907.55, 0.462941
2909.18, 0.440574
2910.81, 0.443810
2912.45, 0.465773
2914.08, 0.483053
2915.72, 0.490798
2917.36, 0.490682
2919.01, 0.485192
2920.65, 0.478083
2922.3, 0.472130
2923.94, 0.470512
2925.59, 0.479066
2927.25, 0.495653
2928.9, 0.510680
2930.56, 0.519580
2932.21, 0.524839
2933.87, 0.529463
2935.53, 0.534491
2937.2, 0.538710
2938.86, 0.541485
2940.53, 0.542525
2942.2, 0.542583
2943.87, 0.543103
2945.54, 0.543739
2947.22, 0.544143
2948.89, 0.544028
2950.57, 0.543218
2952.25, 0.542178
2953.93, 0.541080
2955.62, 0.540213
2957.3, 0.539288
2958.99, 0.538190
2960.68, 0.537092
2962.37, 0.536341
2964.07, 0.535474
2965.76, 0.534722
2967.46, 0.534491
2969.16, 0.535069
2970.86, 0.535821
2972.56, 0.536456
2974.27, 0.536572
2975.98, 0.536225
2977.69, 0.535589
2979.4, 0.535127
2981.11, 0.535185
2982.83, 0.535532
2984.54, 0.535821
2986.26, 0.536687
2987.98, 0.537901
2989.71, 0.539288
2991.43, 0.541080
2993.16, 0.542814
2994.89, 0.544085
2996.62, 0.544779
2998.35, 0.545126
3000.09, 0.545646
3001.83, 0.546397
3003.57, 0.546686
3005.31, 0.547206
3007.05, 0.548189
3008.79, 0.549287
3010.54, 0.550963
3012.29, 0.552755
3014.04, 0.554488
3015.8, 0.556049
3017.55, 0.557378
3019.31, 0.558765
3021.07, 0.559748
3022.83, 0.560788
3024.59, 0.561597
3026.36, 0.562060
3028.13, 0.562464
3029.9, 0.562927
3031.67, 0.563273
3033.44, 0.563678
3035.22, 0.564371
3037.0, 0.565354
3038.78, 0.566625
3040.56, 0.567897
3042.34, 0.569226
3044.13, 0.570324
3045.92, 0.571191
3047.71, 0.571827
3049.5, 0.572463
3051.3, 0.573041
3053.09, 0.573850
3054.89, 0.574775
3056.69, 0.575757
3058.5, 0.576566
3060.3, 0.577318
3062.11, 0.577953
3063.92, 0.578416
3065.73, 0.578820
3067.55, 0.579167
3069.36, 0.579572
3071.18, 0.579629
3073.0, 0.579803
3074.82, 0.580207
3076.65, 0.580670
3078.48, 0.581306
3080.31, 0.581710
3082.14, 0.581999
3083.97, 0.582346
3085.8, 0.582808
3087.64, 0.583560
3089.48, 0.584022
3091.33, 0.584484
3093.17, 0.585178
3095.02, 0.585640
3096.87, 0.586102
3098.72, 0.586680
3100.57, 0.587258
3102.43, 0.587952
3104.28, 0.588530
3106.14, 0.588992
3108.01, 0.589339
3109.87, 0.589686
3111.74, 0.590148
3113.61, 0.590668
3115.48, 0.591073
3117.35, 0.591478
3119.23, 0.592171
3121.1, 0.592807
3122.98, 0.593269
3124.87, 0.593674
3126.75, 0.594194
3128.64, 0.594541
3130.53, 0.594656
3132.42, 0.594830
3134.31, 0.595234
3136.21, 0.595639
3138.11, 0.595928
3140.01, 0.596332
3141.91, 0.596852
3143.82, 0.597315
3145.73, 0.597777
3147.64, 0.598124
3149.55, 0.598471
3151.46, 0.598702
3153.38, 0.598991
3155.3, 0.599453
3157.22, 0.599684
3159.14, 0.599973
3161.07, 0.600320
3163.0, 0.600725
3164.93, 0.601187
3166.86, 0.601649
3168.8, 0.601996
3170.74, 0.602516
3172.68, 0.603037
3174.62, 0.603557
3176.56, 0.604077
3178.51, 0.604655
3180.46, 0.605348
3182.42, 0.605811
3184.37, 0.606157
3186.33, 0.606504
3188.29, 0.606909
3190.25, 0.607198
3192.21, 0.607487
3194.18, 0.607718
3196.15, 0.608180
3198.12, 0.608643
3200.09, 0.609105
3202.07, 0.609336
3204.05, 0.609567
3206.03, 0.609856
3208.02, 0.610319
3210.0, 0.610666
3211.99, 0.611070
3213.98, 0.611359
3215.98, 0.611590
3217.97, 0.612110
3219.97, 0.612515
3221.97, 0.612746
3223.98, 0.613093
3225.98, 0.613440
3227.99, 0.613671
3230.0, 0.614018
3232.02, 0.614307
3234.03, 0.614596
3236.05, 0.614885
3238.07, 0.615231
3240.1, 0.615520
3242.12, 0.615752
3244.15, 0.616040
3246.18, 0.616387
3248.22, 0.617023
3250.25, 0.617485
3252.29, 0.617774
3254.33, 0.618121
3256.38, 0.618468
3258.43, 0.618930
3260.47, 0.619393
3262.53, 0.619797
3264.58, 0.620086
3266.64, 0.620549
3268.7, 0.621011
3270.76, 0.621473
3272.82, 0.621936
3274.89, 0.622514
3276.96, 0.622860
3279.04, 0.623149
3281.11, 0.623670
3283.19, 0.624016
3285.27, 0.624421
3287.35, 0.624825
3289.44, 0.625288
3291.53, 0.625635
3293.62, 0.625808
3295.71, 0.626212
3297.81, 0.626559
3299.91, 0.626906
3302.01, 0.627368
3304.11, 0.627889
3306.22, 0.628235
3308.33, 0.628698
3310.44, 0.629160
3312.56, 0.629565
3314.68, 0.629854
3316.8, 0.630085
3318.92, 0.630547
3321.05, 0.631009
3323.18, 0.631356
3325.31, 0.631645
3327.44, 0.631876
3329.58, 0.632050
3331.72, 0.632454
3333.86, 0.632686
3336.01, 0.632859
3338.16, 0.633032
3340.31, 0.633321
3342.46, 0.633321
3344.61, 0.633321
3346.77, 0.633264
3348.94, 0.633206
3351.1, 0.633206
3353.27, 0.633032
3355.44, 0.632743
3357.61, 0.632454
3359.79, 0.632050
3361.97, 0.631587
3364.15, 0.631067
3366.33, 0.630489
3368.52, 0.629911
3370.71, 0.629565
3372.9, 0.629449
3375.1, 0.629276
3377.3, 0.629391
3379.5, 0.629854
3381.71, 0.630432
3383.91, 0.631067
3386.12, 0.631530
3388.34, 0.631530
3390.55, 0.631472
3392.77, 0.631241
3394.99, 0.630836
3397.22, 0.630143
3399.45, 0.629102
3401.68, 0.628120
3403.91, 0.627022
3406.15, 0.625866
3408.39, 0.624710
3410.63, 0.624016
3412.87, 0.623496
3415.12, 0.623381
3417.37, 0.623901
3419.63, 0.625230
3421.88, 0.627022
3424.14, 0.629102
3426.41, 0.631414
3428.67, 0.633841
3430.94, 0.635922
3433.21, 0.637483
3435.49, 0.638754
3437.77, 0.639852
3440.05, 0.640950
3442.33, 0.641991
3444.62, 0.642915
3446.91, 0.643956
3449.2, 0.644938
3451.5, 0.645921
3453.8, 0.646672
3456.1, 0.647250
3458.41, 0.647655
3460.72, 0.648117
3463.03, 0.648521
3465.34, 0.648753
3467.66, 0.648926
3469.98, 0.648984
3472.31, 0.649042
3474.63, 0.649388
3476.96, 0.649677
3479.3, 0.649735
3481.64, 0.649793
3483.97, 0.649735
3486.32, 0.649562
3488.66, 0.649099
3491.01, 0.648637
3493.36, 0.647886
3495.72, 0.646961
3498.08, 0.646267
3500.44, 0.646325
3502.81, 0.647077
3505.18, 0.648579
3507.55, 0.650544
3509.92, 0.652509
3512.3, 0.654532
3514.68, 0.656208
3517.06, 0.657653
3519.45, 0.658751
3521.84, 0.659618
3524.24, 0.660485
3526.64, 0.661121
3529.04, 0.661699
3531.44, 0.662277
3533.85, 0.662739
3536.26, 0.663144
3538.67, 0.663317
3541.09, 0.663606
3543.51, 0.664011
3545.93, 0.664300
3548.36, 0.664589
3550.79, 0.664935
3553.22, 0.665224
3555.66, 0.665456
3558.1, 0.665744
3560.54, 0.666091
3562.99, 0.666438
3565.44, 0.666727
3567.9, 0.667016
3570.35, 0.667247
3572.81, 0.667478
3575.28, 0.667883
3577.75, 0.668230
3580.22, 0.668519
3582.69, 0.668750
3585.17, 0.669097
3587.65, 0.669270
3590.14, 0.669501
3592.62, 0.669848
3595.11, 0.670021
3597.61, 0.670368
3600.11, 0.670541
3602.61, 0.670830
3605.11, 0.671177
3607.62, 0.671408
3610.14, 0.671466
3612.65, 0.671582
3615.17, 0.671697
3617.69, 0.671929
3620.22, 0.672218
3622.75, 0.672333
3625.28, 0.672564
3627.82, 0.672853
3630.36, 0.673027
3632.9, 0.673373
3635.45, 0.673662
3638.0, 0.673894
3640.56, 0.674356
3643.12, 0.674761
3645.68, 0.675107
3648.24, 0.675454
3650.81, 0.675859
3653.39, 0.676321
3655.96, 0.676783
3658.54, 0.677304
3661.13, 0.677593
3663.71, 0.678171
3666.3, 0.678748
3668.9, 0.679326
3671.5, 0.679962
3674.1, 0.680425
3676.7, 0.680945
3679.31, 0.681465
3681.93, 0.681869
3684.54, 0.682274
3687.17, 0.682621
3689.79, 0.682968
3692.42, 0.683430
3695.05, 0.683661
3697.69, 0.684008
3700.32, 0.684297
3702.97, 0.684470
3705.61, 0.684586
3708.27, 0.684181
3710.92, 0.682563
3713.58, 0.679962
3716.24, 0.680251
3718.91, 0.683141
3721.58, 0.685048
3724.25, 0.685684
3726.93, 0.686031
3729.61, 0.686377
3732.29, 0.686493
3734.98, 0.686666
3737.67, 0.686898
3740.37, 0.687013
3743.07, 0.687013
3745.78, 0.687013
3748.49, 0.687013
3751.2, 0.687071
3753.91, 0.686955
3756.63, 0.686898
3759.36, 0.686724
3762.09, 0.686666
3764.82, 0.686551
3767.55, 0.686435
3770.29, 0.686320
3773.04, 0.686146
3775.78, 0.685915
3778.54, 0.685626
3781.29, 0.685279
3784.05, 0.685048
3786.82, 0.684701
3789.59, 0.684412
3792.36, 0.684123
3795.13, 0.683892
3797.92, 0.683430
3800.7, 0.683083
3803.49, 0.682679
3806.28, 0.682274
3809.08, 0.681869
3811.88, 0.681580
3814.68, 0.681176
3817.49, 0.680829
3820.31, 0.680367
3823.12, 0.679904
3825.94, 0.679500
3828.77, 0.679037
3831.6, 0.678633
3834.43, 0.678171
3837.27, 0.677650
3840.11, 0.677246
3842.96, 0.677015
3845.81, 0.676783
3848.67, 0.676726
3851.53, 0.676668
3854.39, 0.676899
3857.26, 0.677304
3860.13, 0.677650
3863.01, 0.678113
3865.89, 0.678575
3868.77, 0.679384
3871.66, 0.680193
3874.55, 0.681060
3877.45, 0.681812
3880.35, 0.682563
3883.26, 0.683545
3886.17, 0.684470
3889.09, 0.685337
3892.01, 0.686088
3894.93, 0.686840
3897.86, 0.687533
3900.79, 0.688111
3903.73, 0.688689
3906.67, 0.689094
3909.62, 0.689441
3912.57, 0.689903
3915.52, 0.690307
3918.48, 0.690481
3921.45, 0.690596
3924.42, 0.690596
3927.39, 0.690712
3930.37, 0.690885
3933.35, 0.690885
3936.34, 0.690770
3939.33, 0.690943
3942.32, 0.691001
3945.32, 0.691001
3948.33, 0.691001
3951.34, 0.691117
3954.35, 0.691174
3957.37, 0.691174
3960.39, 0.691117
3963.42, 0.691174
3966.45, 0.691290
3969.49, 0.691232
3972.53, 0.691174
3975.58, 0.691117
3978.63, 0.691059
3981.68, 0.691059
3984.75, 0.691001
3987.81, 0.690828
3990.88, 0.690712
3993.95, 0.690596
3997.03, 0.690307
4000.12, 0.690019
4003.21, 0.689614
4006.3, 0.688863
4009.4, 0.687707
4012.5, 0.686551
4015.61, 0.685106
4018.72, 0.683777
4021.84, 0.682736
4024.96, 0.682563
4028.09, 0.683199
4031.22, 0.684297
4034.36, 0.685453
4037.5, 0.686609
4040.65, 0.687533
4043.8, 0.688342
4046.96, 0.688863
4050.12, 0.689325
4053.29, 0.689556
4056.46, 0.689730
4059.64, 0.689787
4062.82, 0.689845
4066.0, 0.689845
4069.19, 0.689903
4072.39, 0.689845
4075.59, 0.689614
4078.8, 0.689441
4082.01, 0.689441
4085.23, 0.689267
4088.45, 0.689036
4091.68, 0.688863
4094.91, 0.688631
4098.15, 0.688400
4101.39, 0.688169
4104.63, 0.688053
4107.89, 0.687996
4111.14, 0.687822
4114.41, 0.687591
4117.67, 0.687533
4120.95, 0.687476
4124.23, 0.687360
4127.51, 0.687302
4130.8, 0.687244
4134.09, 0.687187
4137.39, 0.687013
4140.7, 0.686898
4144.01, 0.686898
4147.32, 0.686840
4150.64, 0.686666
4153.97, 0.686609
4157.3, 0.686493
4160.64, 0.686377
4163.98, 0.686204
4167.33, 0.685973
4170.68, 0.685742
4174.04, 0.685510
4177.4, 0.685221
4180.77, 0.685106
4184.14, 0.684933
4187.52, 0.684701
4190.91, 0.684297
4194.3, 0.683777
4197.69, 0.683256
4201.1, 0.682505
4204.5, 0.681349
4207.92, 0.680020
4211.34, 0.678459
4214.76, 0.676726
4218.19, 0.674876
4221.62, 0.673084
4225.06, 0.671524
4228.51, 0.670079
4231.96, 0.668808
4235.42, 0.667883
4238.88, 0.667016
4242.35, 0.666380
4245.83, 0.665860
4249.31, 0.665918
4252.79, 0.665860
4256.28, 0.664704
4259.78, 0.661005
4263.29, 0.656093
4266.79, 0.650949
4270.31, 0.645921
4273.83, 0.640719
4277.35, 0.634708
4280.89, 0.627946
4284.42, 0.620491
4287.97, 0.611764
4291.52, 0.601765
4295.07, 0.590264
4298.63, 0.577202
4302.2, 0.563447
4305.78, 0.550616
4309.35, 0.540964
4312.94, 0.536919
4316.53, 0.539866
4320.13, 0.549171
4323.73, 0.562522
4327.34, 0.577607
4330.96, 0.592171
4334.58, 0.605348
4338.21, 0.616676
4341.84, 0.626328
4345.48, 0.634419
4349.12, 0.641355
4352.77, 0.647308
4356.43, 0.652220
4360.1, 0.656382
4363.76, 0.659965
4367.44, 0.662913
4371.12, 0.665167
4374.81, 0.667016
4378.51, 0.668634
4382.21, 0.669964
4385.92, 0.670946
4389.63, 0.671640
4393.35, 0.672275
4397.08, 0.672738
4400.81, 0.673142
4404.55, 0.673489
4408.29, 0.673662
4412.04, 0.673662
4415.8, 0.673662
4419.57, 0.673605
4423.34, 0.673720
4427.12, 0.673605
4430.9, 0.673547
4434.69, 0.673489
4438.49, 0.673431
4442.29, 0.673200
4446.1, 0.673027
4449.92, 0.672911
4453.74, 0.672795
4457.57, 0.672622
4461.41, 0.672507
4465.25, 0.672160
4469.1, 0.671871
4472.95, 0.671524
4476.82, 0.671293
4480.69, 0.670946
4484.56, 0.670599
4488.44, 0.670137
4492.33, 0.669790
4496.23, 0.669501
4500.13, 0.669212
4504.04, 0.668750
4507.96, 0.668345
4511.88, 0.667941
4515.81, 0.667536
4519.75, 0.666958
4523.69, 0.666322
4527.65, 0.665744
4531.6, 0.665109
4535.57, 0.664300
4539.54, 0.663548
4543.52, 0.662681
4547.5, 0.661872
4551.5, 0.661121
4555.5, 0.660601
4559.5, 0.660081
4563.52, 0.659503
4567.54, 0.658867
4571.56, 0.658404
4575.6, 0.658115
4579.64, 0.657769
4583.69, 0.657249
4587.75, 0.656728
4591.81, 0.656150
4595.88, 0.655688
4599.96, 0.655110
4604.04, 0.654590
4608.14, 0.654012
4612.24, 0.653550
4616.34, 0.653030
4620.46, 0.652567
4624.58, 0.652163
4628.71, 0.651989
4632.84, 0.651931
4636.99, 0.651816
4641.14, 0.651642
4645.3, 0.651642
4649.47, 0.651585
4653.64, 0.651527
4657.82, 0.651353
4662.01, 0.651238
4666.21, 0.651065
4670.41, 0.650891
4674.62, 0.650544
4678.84, 0.650198
4683.07, 0.649793
4687.3, 0.649446
4691.54, 0.648926
4695.79, 0.648521
4700.05, 0.648059
4704.31, 0.647481
4708.59, 0.647019
4712.87, 0.646614
4717.15, 0.646094
4721.45, 0.645458
4725.76, 0.644880
4730.07, 0.644360
4734.39, 0.643782
4738.72, 0.643146
4743.05, 0.642511
4747.39, 0.641875
4751.75, 0.641066
4756.1, 0.640430
4760.47, 0.639679
4764.85, 0.638927
4769.23, 0.638118
4773.62, 0.637309
4778.02, 0.636269
4782.43, 0.635402
4786.85, 0.634419
4791.27, 0.633264
4795.7, 0.631992
4800.14, 0.630720
4804.59, 0.629218
4809.05, 0.627542
4813.51, 0.625750
4817.99, 0.623958
4822.47, 0.621878
4826.96, 0.619855
4831.46, 0.617543
4835.96, 0.615116
4840.48, 0.612457
4845.0, 0.609799
4849.54, 0.606793
4854.08, 0.603557
4858.63, 0.599973
4863.18, 0.596217
4867.75, 0.592055
4872.33, 0.587547
4876.91, 0.582461
4881.5, 0.576797
4886.1, 0.570671
4890.71, 0.563967
4895.33, 0.556627
4899.96, 0.548651
4904.59, 0.540155
4909.24, 0.531255
4913.89, 0.522239
4918.55, 0.513223
4923.22, 0.504727
4927.9, 0.496866
4932.59, 0.490162
4937.29, 0.484614
4942.0, 0.480395
4946.71, 0.477678
4951.44, 0.476407
4956.17, 0.476696
4960.91, 0.478256
4965.67, 0.480626
4970.43, 0.483400
4975.2, 0.486406
4979.98, 0.489122
4984.76, 0.491434
4989.56, 0.493168
4994.37, 0.494266
4999.18, 0.494555
5004.01, 0.494323
5008.84, 0.493746
5013.69, 0.492647
5018.54, 0.491145
5023.4, 0.489700
5028.28, 0.487966
5033.16, 0.485943
5038.05, 0.483805
5042.95, 0.481551
5047.86, 0.478892
5052.78, 0.476118
5057.71, 0.473344
5062.65, 0.470281
5067.6, 0.466986
5072.56, 0.463519
5077.53, 0.459820
5082.5, 0.455947
5087.49, 0.451960
5092.49, 0.447798
5097.5, 0.443579
5102.51, 0.439360
5107.54, 0.435257
5112.58, 0.431327
5117.62, 0.427512
5122.68, 0.424044
5127.75, 0.420461
5132.82, 0.417051
5137.91, 0.413641
5143.01, 0.410058
5148.12, 0.406359
5153.23, 0.402776
5158.36, 0.398903
5163.5, 0.394511
5168.65, 0.389887
5173.81, 0.384975
5178.98, 0.379600
5184.15, 0.373820
5189.34, 0.367867
5194.54, 0.361394
5199.75, 0.354574
5204.98, 0.347523
5210.21, 0.339837
5215.45, 0.332092
5220.7, 0.324521
5225.96, 0.316545
5231.23, 0.308512
5236.52, 0.300420
5241.81, 0.292791
5247.12, 0.285509
5252.44, 0.278747
5257.76, 0.272563
5263.1, 0.267246
5268.45, 0.262449
5273.81, 0.258403
5279.18, 0.254704
5284.56, 0.251467
5289.95, 0.248289
5295.36, 0.245457
5300.77, 0.242683
5306.2, 0.239735
5311.63, 0.236614
5317.08, 0.233667
5322.54, 0.230719
5328.01, 0.228003
5333.49, 0.225402
5338.98, 0.223148
5344.49, 0.220836
5350.0, 0.218987
5355.53, 0.217715
5361.07, 0.216848
5366.62, 0.216097
5372.18, 0.215866
5377.75, 0.215750
5383.34, 0.216039
5388.93, 0.216501
5394.54, 0.217195
5400.16, 0.217888
5405.79, 0.218293
5411.44, 0.218177
5417.09, 0.217426
5422.76, 0.216444
5428.43, 0.215750
5434.12, 0.214190
5439.83, 0.212109
5445.54, 0.209855
5451.26, 0.207543
5457.0, 0.205000
5462.75, 0.202630
5468.52, 0.200897
5474.29, 0.199452
5480.08, 0.198007
5485.88, 0.197140
5491.69, 0.196215
5497.51, 0.195290
5503.35, 0.194308
5509.2, 0.193614
5515.06, 0.193094
5520.93, 0.193152
5526.82, 0.193730
5532.71, 0.195175
5538.63, 0.196909
5544.55, 0.199394
5550.49, 0.202573
5556.44, 0.206792
5562.4, 0.211473
5568.37, 0.216848
5574.36, 0.222396
5580.36, 0.229332
5586.37, 0.237250
5592.4, 0.245226
5598.44, 0.253259
5604.49, 0.261871
5610.56, 0.270020
5616.63, 0.278111
5622.73, 0.285914
5628.83, 0.292849
5634.95, 0.298686
5641.08, 0.304466
5647.23, 0.310823
5653.39, 0.316314
5659.56, 0.321573
5665.74, 0.326024
5671.94, 0.329491
5678.15, 0.333421
5684.38, 0.337178
5690.62, 0.340010
5696.87, 0.342784
5703.14, 0.344287
5709.42, 0.344865
5715.72, 0.345674
5722.03, 0.345905
5728.35, 0.345385
5734.69, 0.343593
5741.03, 0.341108
5747.4, 0.338045
5753.78, 0.335444
5760.17, 0.331514
5766.58, 0.327873
5773.0, 0.326890
5779.44, 0.326197
5785.88, 0.325966
5792.35, 0.326659
5798.83, 0.328046
5805.32, 0.330416
5811.83, 0.332497
5818.35, 0.334462
5824.89, 0.338392
5831.45, 0.343478
5838.01, 0.348621
5844.59, 0.353650
5851.19, 0.358389
5857.8, 0.362723
5864.43, 0.367116
5871.07, 0.370757
5877.73, 0.371971
5884.4, 0.375496
5891.09, 0.378733
5897.79, 0.381796
5904.5, 0.386362
5911.23, 0.389598
5917.98, 0.392373
5924.75, 0.394684
5931.53, 0.395320
5938.32, 0.396881
5945.13, 0.400291
5951.96, 0.402024
5958.8, 0.402256
5965.65, 0.400868
5972.53, 0.400233
5979.42, 0.399192
5986.32, 0.396881
5993.24, 0.395378
6000.18, 0.394511
6007.13, 0.391968
6014.1, 0.389194
6021.08, 0.387518
6028.09, 0.385495
6035.1, 0.382316
6042.14, 0.377404
6049.19, 0.373473
6056.25, 0.373705
6063.34, 0.371913
6070.44, 0.368676
6077.55, 0.367174
6084.69, 0.366480
6091.84, 0.364862
6099.0, 0.363012
6106.19, 0.360470
6113.39, 0.358389
6120.61, 0.358504
6127.84, 0.358389
6135.09, 0.357060
6142.36, 0.355673
6149.65, 0.354459
6156.95, 0.352725
6164.27, 0.351569
6171.61, 0.350644
6178.97, 0.348217
6186.34, 0.346599
6193.73, 0.346367
6201.14, 0.345558
6208.57, 0.343998
6216.01, 0.342553
6223.47, 0.341050
6230.95, 0.339432
6238.45, 0.337756
6245.97, 0.336195
6253.5, 0.334751
6261.06, 0.333421
6268.63, 0.332150
6276.21, 0.331456
6283.82, 0.330763
6291.45, 0.330127
6299.1, 0.329433
6306.76, 0.328682
6314.44, 0.327815
6322.14, 0.326775
6329.86, 0.325214
6337.6, 0.322787
6345.35, 0.320822
6353.13, 0.320475
6360.92, 0.319030
6368.74, 0.316776
6376.57, 0.315794
6384.43, 0.314927
6392.3, 0.313655
6400.19, 0.311806
6408.1, 0.308223
6416.03, 0.306431
6423.98, 0.306835
6431.95, 0.306257
6439.94, 0.305333
6447.95, 0.304003
6455.98, 0.302559
6464.03, 0.301172
6472.1, 0.299091
6480.19, 0.296952
6488.31, 0.294583
6496.44, 0.294120
6504.59, 0.295045
6512.76, 0.294525
6520.95, 0.293311
6529.16, 0.293427
6537.4, 0.292676
6545.65, 0.291288
6553.92, 0.289728
6562.22, 0.288052
6570.54, 0.285682
6578.88, 0.284469
6587.23, 0.282793
6595.61, 0.280828
6604.02, 0.279036
6612.44, 0.276782
6620.89, 0.274065
6629.35, 0.270482
6637.84, 0.267419
6646.35, 0.266783
6654.88, 0.265570
6663.44, 0.263316
6672.01, 0.260888
6680.61, 0.259097
6689.23, 0.257883
6697.88, 0.256438
6706.54, 0.254299
6715.23, 0.252797
6723.94, 0.251872
6732.67, 0.251352
6741.42, 0.250716
6750.2, 0.250138
6759.0, 0.249618
6767.82, 0.248925
6776.67, 0.248231
6785.54, 0.247711
6794.44, 0.247711
6803.35, 0.248231
6812.29, 0.247884
6821.26, 0.247017
6830.24, 0.246324
6839.25, 0.245746
6848.29, 0.243954
6857.35, 0.241296
6866.43, 0.239619
6875.54, 0.239215
6884.67, 0.237770
6893.82, 0.235978
6903.0, 0.233724
6912.2, 0.231759
6921.43, 0.229852
6930.69, 0.228003
6939.96, 0.225980
6949.27, 0.223784
6958.59, 0.221298
6967.95, 0.220142
6977.33, 0.218813
6986.73, 0.217195
6996.16, 0.215808
7005.61, 0.214825
7015.09, 0.213496
7024.6, 0.212571
7034.13, 0.211589
7043.69, 0.210375
7053.27, 0.209797
7062.88, 0.209508
7072.52, 0.208757
7082.18, 0.207890
7091.87, 0.206792
7101.58, 0.205636
7111.32, 0.204249
7121.09, 0.202977
7130.88, 0.201417
7140.71, 0.199394
7150.56, 0.197255
7160.43, 0.195290
7170.33, 0.193383
7180.27, 0.192054
7190.23, 0.190378
7200.21, 0.188471
7210.23, 0.186563
7220.27, 0.185003
7230.34, 0.183153
7240.44, 0.181420
7250.56, 0.179455
7260.72, 0.177547
7270.9, 0.175524
7281.12, 0.173848
7291.36, 0.172230
7301.63, 0.170323
7311.93, 0.168069
7322.25, 0.165757
7332.61, 0.163041
7343.0, 0.160440
7353.41, 0.157781
7363.86, 0.155065
7374.33, 0.152291
7384.83, 0.149632
7395.37, 0.146974
7405.93, 0.144546
7416.53, 0.142119
7427.15, 0.139980
7437.81, 0.137900
7448.5, 0.135992
7459.22, 0.134027
7469.96, 0.132178
7480.74, 0.130444
7491.55, 0.128768
7502.39, 0.126919
7513.27, 0.125127
7524.17, 0.123220
7535.11, 0.121428
7546.08, 0.119521
7557.08, 0.117845
7568.11, 0.115995
7579.17, 0.114204
7590.27, 0.112470
7601.4, 0.110967
7612.56, 0.109233
7623.76, 0.107615
7634.98, 0.106054
7646.24, 0.104610
7657.54, 0.102933
7668.87, 0.101489
7680.23, 0.0998700
7691.62, 0.0983100
7703.05, 0.0967490
7714.51, 0.0952470
7726.01, 0.0934550
7737.54, 0.0917790
7749.11, 0.0897560
7760.71, 0.0875020
7772.35, 0.0849590
7784.02, 0.0825900
7795.72, 0.0799310
7807.46, 0.0772720
7819.23, 0.0744400
7831.04, 0.0717820
7842.89, 0.0691230
7854.77, 0.0666380
7866.69, 0.0640950
7878.65, 0.0618410
7890.64, 0.0594710
7902.67, 0.0573330
7914.74, 0.0550790
7926.84, 0.0529410
7938.98, 0.0505710
7951.16, 0.0484900
7963.37, 0.0464670
7975.62, 0.0446760
7987.91, 0.0427690
8000.24, 0.0410350
8012.6, 0.0391850
8025.01, 0.0374510
8037.45, 0.0357750
8049.93, 0.0341570
8062.45, 0.0324230
8075.01, 0.0309780
8087.61, 0.0294180
8100.24, 0.0280890
8112.91, 0.0265280
8125.63, 0.0251410
8138.39, 0.0235800
8151.18, 0.0221930
8164.02, 0.0206910
8176.9, 0.0193040
8189.81, 0.0177430
8202.77, 0.0164140
8215.77, 0.0150850
8228.82, 0.0139290
8241.9, 0.0127730
8255.02, 0.0119060
8268.19, 0.0108080
8281.39, 0.00988300
8294.65, 0.00878500
8307.94, 0.00791800
8321.28, 0.00705100
8334.66, 0.00618400
8348.08, 0.00543300
8361.54, 0.00485500
8375.05, 0.00433500
8388.6, 0.00387200
8402.2, 0.00323700
8415.84, 0.00289000
8429.52, 0.00231200
8443.25, 0.00190700
8457.02, 0.00167600
8470.84, 0.00179200
8484.7, 0.00173400
8498.61, 0.00202300
8512.57, 0.00242700
8526.57, 0.00352600
8540.62, 0.00497000
8554.71, 0.00647300
8568.85, 0.00739800
8583.04, 0.00780200
8597.27, 0.00710900
8611.55, 0.00612600
8625.88, 0.00514400
8640.26, 0.00427700
8654.68, 0.00329400
8669.16, 0.00277400
8683.68, 0.00237000
8698.25, 0.00184900
8712.87, 0.00127100
8727.53, 0.00109800
8742.25, 0.000751000
8757.02, 0.000694000
8771.83, 0.000694000
8786.7, 0.00109800
8801.62, 0.00115600
8816.59, 0.00132900
8831.61, 0.00144500
8846.68, 0.00184900
8861.8, 0.00219600
8876.97, 0.00277400
8892.2, 0.00341000
8907.48, 0.00427700
8922.81, 0.00514400
8938.2, 0.00635700
8953.63, 0.00745600
8969.13, 0.00907400
8984.67, 0.0105190
9000.27, 0.0123100
9015.92, 0.0142180
9031.63, 0.0162980
9047.39, 0.0184950
9063.21, 0.0217310
9079.08, 0.0246790
9095.01, 0.0278570
9111.0, 0.0316140
9127.04, 0.0360060
9143.13, 0.0406300
9159.28, 0.0457740
9175.49, 0.0510330
9191.76, 0.0572750
9208.09, 0.0637480
9224.47, 0.0706260
9240.92, 0.0778500
9257.42, 0.0852480
9273.98, 0.0926460
9290.6, 0.100391
9307.28, 0.108135
9324.02, 0.115822
9340.82, 0.123798
9357.68, 0.131831
9374.6, 0.139460
9391.58, 0.147205
9408.62, 0.154545
9425.73, 0.161943
9442.9, 0.168994
9460.13, 0.176045
9477.42, 0.183269
9494.78, 0.189858
9512.2, 0.196157
9529.69, 0.202110
9547.24, 0.207254
9564.86, 0.211993
9582.54, 0.215866
9600.28, 0.219218
9618.1, 0.222339
9635.97, 0.225633
9653.92, 0.228638
9671.93, 0.231239
9690.01, 0.233724
9708.16, 0.236094
9726.37, 0.238175
9744.65, 0.240602
9763.0, 0.242914
9781.43, 0.245110
9799.92, 0.247133
9818.48, 0.249271
9837.1, 0.251063
9855.8, 0.252277
9874.58, 0.252450
9893.42, 0.251236
9912.34, 0.248462
9931.33, 0.244359
9950.39, 0.239099
9969.52, 0.233435
9988.74, 0.227367
10008.0, 0.221530
10027.4, 0.216155
10046.8, 0.211589
10066.3, 0.208063
10085.9, 0.205405
10105.6, 0.203440
10125.3, 0.203151
10145.1, 0.205405
10165.0, 0.211473
10185.0, 0.221703
10205.0, 0.235111
10225.2, 0.249156
10245.4, 0.261640
10265.7, 0.271118
10286.0, 0.278053
10306.5, 0.283486
10327.0, 0.287763
10347.6, 0.291115
10368.3, 0.294063
10389.1, 0.296143
10409.9, 0.297762
10430.9, 0.298686
10451.9, 0.299322
10473.0, 0.299495
10494.2, 0.299033
10515.5, 0.298108
10536.9, 0.296606
10558.4, 0.293774
10579.9, 0.289786
10601.5, 0.284237
10623.3, 0.276262
10645.1, 0.266321
10667.0, 0.256207
10689.0, 0.248173
10711.1, 0.244127
10733.2, 0.244127
10755.5, 0.246786
10777.9, 0.249791
10800.3, 0.251988
10822.9, 0.252855
10845.5, 0.252161
10868.2, 0.249329
10891.1, 0.245746
10914.0, 0.242394
10937.0, 0.240544
10960.2, 0.241411
10983.4, 0.245399
11006.7, 0.250832
11030.1, 0.256380
11053.6, 0.261119
11077.3, 0.264298
11101.0, 0.265049
11124.8, 0.264067
11148.7, 0.261986
11172.7, 0.260079
11196.9, 0.259501
11221.1, 0.260888
11245.4, 0.263605
11269.9, 0.266552
11294.4, 0.268517
11319.1, 0.269557
11343.9, 0.269384
11368.8, 0.268170
11393.7, 0.265627
11418.8, 0.262217
11444.0, 0.257941
11469.4, 0.252912
11494.8, 0.246613
11520.3, 0.239677
11546.0, 0.232511
11571.8, 0.225228
11597.7, 0.217484
11623.7, 0.208930
11649.8, 0.199105
11676.0, 0.188586
11702.4, 0.178010
11728.9, 0.168647
11755.5, 0.160787
11782.2, 0.154603
11809.0, 0.149285
11836.0, 0.144662
11863.0, 0.140327
11890.3, 0.136513
11917.6, 0.132871
11945.0, 0.129693
11972.6, 0.127150
12000.4, 0.125242
12028.2, 0.123162
12056.2, 0.121486
12084.3, 0.120041
12112.5, 0.118885
12140.9, 0.117729
12169.4, 0.116920
12198.0, 0.116284
12226.8, 0.115764
12255.7, 0.115186
12284.7, 0.114839
12313.9, 0.114146
12343.2, 0.113626
12372.7, 0.113221
12402.3, 0.112990
12432.0, 0.112412
12461.9, 0.112239
12491.9, 0.112007
12522.1, 0.111372
12552.4, 0.110447
12582.9, 0.109696
12613.5, 0.108251
12644.3, 0.107268
12675.2, 0.106459
12706.3, 0.104956
12737.5, 0.102529
12768.9, 0.0998700
12800.4, 0.0972120
12832.1, 0.0940910
12863.9, 0.0897560
12895.9, 0.0849590
12928.1, 0.0803930
12960.4, 0.0770990
12992.9, 0.0759430
13025.5, 0.0772150
13058.3, 0.0787170
13091.3, 0.0800470
13124.4, 0.0805670
13157.8, 0.0798730
13191.2, 0.0780820
13224.9, 0.0762320
13258.7, 0.0739200
13292.7, 0.0716660
13326.9, 0.0688920
13361.2, 0.0659440
13395.7, 0.0628240
13430.4, 0.0601650
13465.3, 0.0569860
13500.4, 0.0538070
13535.7, 0.0502820
13571.1, 0.0464670
13606.7, 0.0421910
13642.5, 0.0385490
13678.5, 0.0344460
13714.7, 0.0306320
13751.1, 0.0269900
13787.6, 0.0233490
13824.4, 0.0195350
13861.4, 0.0162400
13898.5, 0.0132930
13935.9, 0.0113860
13973.5, 0.0102880
14011.2, 0.0112120
14049.2, 0.0135240
14087.4, 0.0165870
14125.8, 0.0188410
14164.3, 0.0195350
14203.2, 0.0184370
14242.2, 0.0169340
14281.4, 0.0160670
14320.9, 0.0167610
14360.5, 0.0190150
14400.4, 0.0240430
14440.5, 0.0317870
14480.9, 0.0430000
14521.4, 0.0573330
14562.2, 0.0732840
14603.3, 0.0882530
14644.5, 0.101142
14686.0, 0.111892
14727.7, 0.123913
14769.7, 0.138535
14811.9, 0.155585
14854.3, 0.173444
14897.0, 0.189915
14939.9, 0.203151
14983.1, 0.215981
15026.5, 0.228060
15070.2, 0.237192
15114.2, 0.244821
15158.3, 0.251525
15202.8, 0.256496
15247.5, 0.260426
15292.5, 0.263373
15337.7, 0.265801
15383.2, 0.268170
15429.0, 0.270193
15475.1, 0.270887
15521.4, 0.271811
15568.0, 0.272505
15614.9, 0.272563
15662.1, 0.272563
15709.6, 0.272563
15757.3, 0.272389
15805.4, 0.271465
15853.7, 0.269673
15902.3, 0.267939
15951.2, 0.265859
16000.5, 0.263373
16050.0, 0.260715
16099.8, 0.257594
16150.0, 0.252970
16200.5, 0.246035
16251.3, 0.236325
16302.4, 0.224130
16353.8, 0.209970
16405.5, 0.194424
16457.6, 0.177605
16510.0, 0.161943
16562.8, 0.146858
16615.9, 0.134316
16669.3, 0.123509
16723.1, 0.114204
16777.2, 0.105476
16831.7, 0.0964600
16886.5, 0.0873870
16941.7, 0.0819540
16997.2, 0.0824740
17053.1, 0.0853640
17109.4, 0.0866930
17166.1, 0.0863460
17223.1, 0.0828210
17280.5, 0.0772150
17338.3, 0.0714350
17396.5, 0.0674470
17455.1, 0.0672160
17514.0, 0.0710880
17573.4, 0.0755960
17633.2, 0.0773300
17693.4, 0.0753070
17754.0, 0.0727640
17815.0, 0.0759430
17876.4, 0.0921840
17938.3, 0.122006
18000.5, 0.155469
18063.3, 0.181131
18126.4, 0.198643
18190.0, 0.208352
18254.1, 0.211935
18318.6, 0.211878
18383.5, 0.208641
18449.0, 0.202399
18514.9, 0.194944
18581.2, 0.186217
18648.0, 0.178703
18715.4, 0.171305
18783.2, 0.167722
18851.5, 0.170149
18920.3, 0.172230
18989.6, 0.166855
19059.4, 0.158648
19129.7, 0.151193
19200.6, 0.146627
19272.0, 0.142177
19343.9, 0.140211
19416.3, 0.143217
19489.3, 0.147667
19562.8, 0.149921
19637.0, 0.151135
19711.6, 0.152637
19786.8, 0.161769
19862.6, 0.178703
19939.0, 0.195695
20016.0, 0.207427
20093.6, 0.213207
20171.8, 0.213149
20250.6, 0.208583
20330.0, 0.200376
20410.0, 0.193441
20490.7, 0.197660
20572.0, 0.214421
20654.0, 0.223668
20736.6, 0.217310
20819.9, 0.202977
20903.8, 0.185234
20988.5, 0.164312
21073.8, 0.145586
21159.8, 0.145124
21246.5, 0.181940
21334.0, 0.232742
21422.1, 0.265165
21511.0, 0.272216
21600.7, 0.274759
21691.0, 0.284642
21782.1, 0.294352
21874.0, 0.298108
21966.7, 0.296201
22060.2, 0.285509
22154.5, 0.273603
22249.6, 0.262044
22345.5, 0.254242
22442.2, 0.247017
22539.8, 0.240602
22638.2, 0.232684
22737.5, 0.223726
22837.7, 0.214767
22938.7, 0.202284
23040.7, 0.189626
23143.5, 0.180264
23247.3, 0.170670
23352.1, 0.161943
23457.7, 0.150152
23564.4, 0.142003
23672.0, 0.147494
23780.5, 0.157550
23890.1, 0.158417
24000.7, 0.157030
24112.3, 0.148361
24225.0, 0.141367
24338.7, 0.136455
24453.5, 0.129115
24569.4, 0.117556
24686.4, 0.110620
24804.5, 0.109060
