Database of Origin, USGS Spectral Database
Sample Description, See USGS database for additional info
Date Added,2016-08-10 02:54:40.027594

Data ID,USGS_hed04          
Sample ID, hedenbergite_nmnh119197.9229
Mineral Name, hedenbergite
Material Class,Inosilicate

Wavelength
1597.58, 0.532557
1598.08, 0.533001
1598.57, 0.533223
1599.06, 0.533389
1599.55, 0.533500
1600.05, 0.533778
1600.54, 0.534055
1601.04, 0.534166
1601.53, 0.534222
1602.03, 0.534222
1602.52, 0.534444
1603.02, 0.534499
1603.51, 0.534944
1604.01, 0.535165
1604.5, 0.535388
1605.0, 0.535832
1605.5, 0.535943
1606.0, 0.535998
1606.49, 0.536498
1606.99, 0.536775
1607.49, 0.536831
1607.99, 0.536942
1608.49, 0.537275
1608.99, 0.537552
1609.49, 0.537663
1609.99, 0.537830
1610.49, 0.538163
1610.99, 0.538274
1611.49, 0.538496
1611.99, 0.538663
1612.49, 0.538940
1612.99, 0.538940
1613.49, 0.539329
1614.0, 0.539384
1614.5, 0.539551
1615.0, 0.539828
1615.51, 0.540050
1616.01, 0.540217
1616.51, 0.540716
1617.02, 0.541050
1617.52, 0.540938
1618.03, 0.541272
1618.53, 0.541494
1619.04, 0.541716
1619.54, 0.541827
1620.05, 0.542104
1620.55, 0.542604
1621.06, 0.542826
1621.57, 0.542770
1622.08, 0.543159
1622.58, 0.543325
1623.09, 0.543325
1623.6, 0.543603
1624.11, 0.543769
1624.62, 0.544103
1625.13, 0.544325
1625.64, 0.544491
1626.15, 0.544713
1626.66, 0.545046
1627.17, 0.545268
1627.68, 0.545379
1628.19, 0.545768
1628.7, 0.545990
1629.21, 0.546101
1629.72, 0.546267
1630.24, 0.546434
1630.75, 0.546378
1631.26, 0.546378
1631.78, 0.546822
1632.29, 0.547211
1632.8, 0.547100
1633.32, 0.547156
1633.83, 0.547489
1634.35, 0.547822
1634.86, 0.547933
1635.38, 0.548321
1635.9, 0.548654
1636.41, 0.548765
1636.93, 0.548876
1637.45, 0.549154
1637.96, 0.549209
1638.48, 0.549376
1639.0, 0.549487
1639.52, 0.549653
1640.04, 0.549764
1640.56, 0.549764
1641.08, 0.550153
1641.59, 0.550542
1642.11, 0.550819
1642.63, 0.550819
1643.16, 0.550875
1643.68, 0.550986
1644.2, 0.551152
1644.72, 0.551485
1645.24, 0.551818
1645.76, 0.551985
1646.29, 0.552429
1646.81, 0.552595
1647.33, 0.552706
1647.86, 0.552651
1648.38, 0.552929
1648.9, 0.552984
1649.43, 0.553095
1649.95, 0.553484
1650.48, 0.553539
1651.0, 0.553428
1651.53, 0.553928
1652.06, 0.554150
1652.58, 0.554039
1653.11, 0.553983
1653.64, 0.554483
1654.17, 0.554982
1654.69, 0.555315
1655.22, 0.555482
1655.75, 0.555315
1656.28, 0.555426
1656.81, 0.555593
1657.34, 0.555815
1657.87, 0.555926
1658.4, 0.555982
1658.93, 0.556259
1659.46, 0.556537
1659.99, 0.556481
1660.52, 0.556870
1661.05, 0.557036
1661.59, 0.557147
1662.12, 0.557369
1662.65, 0.557480
1663.19, 0.557702
1663.72, 0.557813
1664.26, 0.558146
1664.79, 0.558257
1665.32, 0.558202
1665.86, 0.558590
1666.39, 0.558924
1666.93, 0.559146
1667.47, 0.559479
1668.0, 0.559590
1668.54, 0.559756
1669.08, 0.559923
1669.61, 0.560145
1670.15, 0.560422
1670.69, 0.560700
1671.23, 0.560644
1671.77, 0.560811
1672.31, 0.561033
1672.85, 0.561199
1673.39, 0.561477
1673.93, 0.561477
1674.47, 0.561643
1675.01, 0.562032
1675.55, 0.562365
1676.09, 0.562365
1676.64, 0.562365
1677.18, 0.562920
1677.72, 0.563198
1678.26, 0.563253
1678.81, 0.563642
1679.35, 0.563975
1679.89, 0.564141
1680.44, 0.564141
1680.98, 0.564086
1681.53, 0.564252
1682.07, 0.564641
1682.62, 0.565141
1683.17, 0.565307
1683.71, 0.565141
1684.26, 0.565363
1684.81, 0.565640
1685.36, 0.565640
1685.9, 0.565640
1686.45, 0.565918
1687.0, 0.566140
1687.55, 0.566417
1688.1, 0.566806
1688.65, 0.567028
1689.2, 0.567139
1689.75, 0.567583
1690.3, 0.567694
1690.85, 0.567527
1691.41, 0.567750
1691.96, 0.568027
1692.51, 0.568416
1693.06, 0.568305
1693.61, 0.568416
1694.17, 0.568693
1694.72, 0.569137
1695.28, 0.569248
1695.83, 0.569248
1696.39, 0.569470
1696.94, 0.569637
1697.5, 0.569914
1698.05, 0.570081
1698.61, 0.570414
1699.17, 0.570580
1699.72, 0.570747
1700.28, 0.570969
1700.84, 0.570858
1701.4, 0.571025
1701.95, 0.571136
1702.51, 0.571413
1703.07, 0.571524
1703.63, 0.571691
1704.19, 0.571913
1704.75, 0.572079
1705.31, 0.572079
1705.88, 0.572246
1706.44, 0.572412
1707.0, 0.572690
1707.56, 0.572856
1708.12, 0.573078
1708.69, 0.573189
1709.25, 0.573523
1709.81, 0.573689
1710.38, 0.573744
1710.94, 0.573856
1711.51, 0.574078
1712.07, 0.574355
1712.64, 0.574577
1713.2, 0.574688
1713.77, 0.574855
1714.34, 0.574966
1714.9, 0.574966
1715.47, 0.575188
1716.04, 0.575410
1716.61, 0.575576
1717.18, 0.575854
1717.74, 0.575798
1718.31, 0.575909
1718.88, 0.576409
1719.45, 0.576742
1720.02, 0.576853
1720.59, 0.576909
1721.17, 0.577131
1721.74, 0.576964
1722.31, 0.577131
1722.88, 0.577353
1723.45, 0.577575
1724.03, 0.577797
1724.6, 0.577963
1725.18, 0.578019
1725.75, 0.578130
1726.33, 0.578296
1726.9, 0.578407
1727.48, 0.578629
1728.05, 0.578907
1728.63, 0.579129
1729.2, 0.579184
1729.78, 0.579462
1730.36, 0.579629
1730.94, 0.579573
1731.51, 0.579629
1732.09, 0.579962
1732.67, 0.580295
1733.25, 0.580406
1733.83, 0.580461
1734.41, 0.580628
1734.99, 0.580794
1735.57, 0.580683
1736.15, 0.580850
1736.73, 0.581349
1737.32, 0.581682
1737.9, 0.581904
1738.48, 0.581960
1739.07, 0.581960
1739.65, 0.581849
1740.23, 0.582182
1740.82, 0.582460
1741.4, 0.582682
1741.99, 0.582904
1742.57, 0.583070
1743.16, 0.583181
1743.74, 0.583348
1744.33, 0.583514
1744.92, 0.583792
1745.51, 0.583958
1746.09, 0.584125
1746.68, 0.584402
1747.27, 0.584402
1747.86, 0.584513
1748.45, 0.584902
1749.04, 0.585179
1749.63, 0.585290
1750.22, 0.585346
1750.81, 0.585513
1751.4, 0.585790
1751.99, 0.586068
1752.59, 0.586123
1753.18, 0.586179
1753.77, 0.586456
1754.37, 0.586734
1754.96, 0.586845
1755.56, 0.587122
1756.15, 0.587122
1756.74, 0.587178
1757.34, 0.587289
1757.94, 0.587455
1758.53, 0.587566
1759.13, 0.587899
1759.73, 0.588454
1760.32, 0.588843
1760.92, 0.588677
1761.52, 0.588621
1762.12, 0.589010
1762.72, 0.589287
1763.32, 0.589454
1763.92, 0.589454
1764.52, 0.589620
1765.12, 0.589676
1765.72, 0.590009
1766.32, 0.590231
1766.92, 0.590397
1767.53, 0.590508
1768.13, 0.590730
1768.73, 0.590675
1769.34, 0.590841
1769.94, 0.591119
1770.55, 0.591230
1771.15, 0.591341
1771.76, 0.591452
1772.36, 0.591452
1772.97, 0.591785
1773.57, 0.592285
1774.18, 0.592507
1774.79, 0.592451
1775.4, 0.592507
1776.0, 0.592784
1776.61, 0.592895
1777.22, 0.592895
1777.83, 0.592840
1778.44, 0.593062
1779.05, 0.593506
1779.66, 0.593728
1780.27, 0.593839
1780.88, 0.594061
1781.5, 0.594061
1782.11, 0.594061
1782.72, 0.594394
1783.33, 0.594616
1783.95, 0.594505
1784.56, 0.594561
1785.18, 0.594783
1785.79, 0.595005
1786.41, 0.595171
1787.02, 0.595171
1787.64, 0.595227
1788.26, 0.595560
1788.87, 0.595615
1789.49, 0.595726
1790.11, 0.595948
1790.73, 0.596115
1791.35, 0.596115
1791.96, 0.596170
1792.58, 0.596226
1793.21, 0.596614
1793.83, 0.596781
1794.45, 0.596725
1795.07, 0.596836
1795.69, 0.597003
1796.31, 0.597169
1796.93, 0.597447
1797.56, 0.597503
1798.18, 0.597614
1798.8, 0.597669
1799.43, 0.597836
1800.05, 0.598058
1800.68, 0.598113
1801.3, 0.598335
1801.93, 0.598502
1802.56, 0.598502
1803.18, 0.598613
1803.81, 0.598779
1804.44, 0.598779
1805.07, 0.598724
1805.7, 0.599001
1806.33, 0.599334
1806.95, 0.599445
1807.58, 0.599501
1808.22, 0.599556
1808.85, 0.599778
1809.48, 0.599834
1810.11, 0.600000
1810.74, 0.600278
1811.38, 0.600444
1812.01, 0.600611
1812.64, 0.600722
1813.28, 0.600667
1813.91, 0.601000
1814.55, 0.601444
1815.18, 0.601666
1815.82, 0.601721
1816.45, 0.601777
1817.09, 0.601666
1817.73, 0.601888
1818.36, 0.601943
1819.0, 0.602110
1819.64, 0.602498
1820.28, 0.602887
1820.92, 0.603053
1821.56, 0.603109
1822.2, 0.603164
1822.84, 0.603275
1823.48, 0.603387
1824.12, 0.603442
1824.76, 0.603498
1825.41, 0.603942
1826.05, 0.604441
1826.69, 0.604219
1827.34, 0.604053
1827.98, 0.604219
1828.63, 0.604497
1829.27, 0.604885
1829.92, 0.605052
1830.56, 0.605274
1831.21, 0.605440
1831.86, 0.605551
1832.5, 0.605718
1833.15, 0.605662
1833.8, 0.605829
1834.45, 0.606328
1835.1, 0.606606
1835.75, 0.606939
1836.4, 0.607161
1837.05, 0.607217
1837.7, 0.607161
1838.35, 0.606939
1839.01, 0.607272
1839.66, 0.607661
1840.31, 0.607550
1840.96, 0.607883
1841.62, 0.608660
1842.27, 0.608438
1842.93, 0.608105
1843.58, 0.607994
1844.24, 0.608216
1844.9, 0.608493
1845.55, 0.608660
1846.21, 0.609104
1846.87, 0.609770
1847.53, 0.609770
1848.18, 0.609715
1848.84, 0.609548
1849.5, 0.609493
1850.16, 0.609770
1850.82, 0.609826
1851.48, 0.609826
1852.14, 0.610103
1852.81, 0.610270
1853.47, 0.610769
1854.13, 0.611047
1854.8, 0.610936
1855.46, 0.610769
1856.12, 0.611047
1856.79, 0.611158
1857.45, 0.611158
1858.12, 0.611047
1858.79, 0.611435
1859.45, 0.611879
1860.12, 0.611990
1860.79, 0.611879
1861.46, 0.611990
1862.12, 0.612046
1862.79, 0.612046
1863.46, 0.612157
1864.13, 0.612323
1864.8, 0.612601
1865.48, 0.612657
1866.15, 0.612435
1866.82, 0.612823
1867.49, 0.613489
1868.16, 0.613378
1868.84, 0.613101
1869.51, 0.613045
1870.19, 0.613600
1870.86, 0.614211
1871.54, 0.613711
1872.21, 0.613822
1872.89, 0.614544
1873.56, 0.614433
1874.24, 0.613989
1874.92, 0.614044
1875.6, 0.614044
1876.28, 0.614211
1876.96, 0.614433
1877.64, 0.614155
1878.32, 0.614155
1879.0, 0.614211
1879.68, 0.614488
1880.36, 0.614544
1881.04, 0.614433
1881.73, 0.614488
1882.41, 0.614599
1883.09, 0.614821
1883.78, 0.615154
1884.46, 0.615210
1885.15, 0.615265
1885.83, 0.615265
1886.52, 0.615210
1887.21, 0.615154
1887.89, 0.615154
1888.58, 0.615377
1889.27, 0.615654
1889.96, 0.616043
1890.65, 0.616043
1891.34, 0.615876
1892.03, 0.615765
1892.72, 0.615876
1893.41, 0.616098
1894.1, 0.616154
1894.79, 0.616209
1895.49, 0.616320
1896.18, 0.616487
1896.87, 0.616431
1897.57, 0.616542
1898.26, 0.616598
1898.96, 0.617264
1899.65, 0.617486
1900.35, 0.617208
1901.05, 0.617208
1901.74, 0.617153
1902.44, 0.617430
1903.14, 0.617541
1903.84, 0.617486
1904.54, 0.617874
1905.24, 0.618208
1905.94, 0.618208
1906.64, 0.618318
1907.34, 0.618318
1908.04, 0.618208
1908.75, 0.618263
1909.45, 0.618318
1910.15, 0.618485
1910.86, 0.618818
1911.56, 0.618874
1912.27, 0.618707
1912.97, 0.619151
1913.68, 0.619595
1914.39, 0.619540
1915.09, 0.619762
1915.8, 0.619873
1916.51, 0.619762
1917.22, 0.619706
1917.93, 0.619873
1918.64, 0.620150
1919.35, 0.620705
1920.06, 0.621205
1920.77, 0.621094
1921.48, 0.620983
1922.19, 0.620983
1922.91, 0.620927
1923.62, 0.621372
1924.33, 0.621538
1925.05, 0.621482
1925.76, 0.621649
1926.48, 0.621982
1927.19, 0.621982
1927.91, 0.622093
1928.63, 0.622149
1929.35, 0.622371
1930.07, 0.622593
1930.78, 0.622593
1931.5, 0.622537
1932.22, 0.622704
1932.94, 0.622981
1933.66, 0.623314
1934.39, 0.623259
1935.11, 0.623314
1935.83, 0.623592
1936.55, 0.623703
1937.28, 0.623869
1938.0, 0.624092
1938.73, 0.624425
1939.45, 0.624202
1940.18, 0.624313
1940.9, 0.624425
1941.63, 0.624647
1942.36, 0.624813
1943.09, 0.624758
1943.81, 0.624924
1944.54, 0.625035
1945.27, 0.625091
1946.0, 0.625202
1946.73, 0.625257
1947.47, 0.625479
1948.2, 0.625701
1948.93, 0.625812
1949.66, 0.625812
1950.4, 0.626034
1951.13, 0.626145
1951.86, 0.626145
1952.6, 0.626201
1953.34, 0.626256
1954.07, 0.626367
1954.81, 0.626534
1955.55, 0.626645
1956.29, 0.626756
1957.02, 0.626867
1957.76, 0.626756
1958.5, 0.626756
1959.24, 0.626811
1959.98, 0.626978
1960.72, 0.627089
1961.47, 0.627200
1962.21, 0.627255
1962.95, 0.627255
1963.7, 0.627255
1964.44, 0.627200
1965.18, 0.627311
1965.93, 0.627533
1966.67, 0.627644
1967.42, 0.627644
1968.17, 0.627755
1968.92, 0.627755
1969.66, 0.627922
1970.41, 0.627922
1971.16, 0.627866
1971.91, 0.627977
1972.66, 0.628088
1973.41, 0.628310
1974.16, 0.628366
1974.92, 0.628477
1975.67, 0.628421
1976.42, 0.628421
1977.18, 0.628588
1977.93, 0.628754
1978.69, 0.628865
1979.44, 0.628921
1980.2, 0.629032
1980.95, 0.628976
1981.71, 0.629143
1982.47, 0.629198
1983.23, 0.628976
1983.99, 0.629032
1984.74, 0.629254
1985.51, 0.629531
1986.27, 0.629753
1987.03, 0.629753
1987.79, 0.629698
1988.55, 0.629809
1989.32, 0.629864
1990.08, 0.629975
1990.84, 0.629975
1991.61, 0.630086
1992.37, 0.630086
1993.14, 0.630253
1993.9, 0.630309
1994.67, 0.630475
1995.44, 0.630642
1996.21, 0.630753
1996.98, 0.630864
1997.75, 0.630919
1998.52, 0.630919
1999.29, 0.631030
2000.06, 0.631141
2000.83, 0.631197
2001.6, 0.631419
2002.38, 0.631585
2003.15, 0.631696
2003.93, 0.631863
2004.7, 0.631974
2005.48, 0.632418
2006.25, 0.632584
2007.03, 0.632307
2007.81, 0.632251
2008.58, 0.632640
2009.36, 0.632806
2010.14, 0.633139
2010.92, 0.633195
2011.7, 0.633251
2012.48, 0.633417
2013.26, 0.633584
2014.05, 0.633695
2014.83, 0.633861
2015.61, 0.633861
2016.4, 0.633972
2017.18, 0.633972
2017.97, 0.634139
2018.75, 0.634416
2019.54, 0.634805
2020.32, 0.634860
2021.11, 0.635027
2021.9, 0.635082
2022.69, 0.635193
2023.48, 0.635304
2024.27, 0.635415
2025.06, 0.635249
2025.85, 0.635249
2026.64, 0.635582
2027.44, 0.635748
2028.23, 0.635915
2029.02, 0.636193
2029.82, 0.636359
2030.61, 0.636526
2031.41, 0.636581
2032.2, 0.636637
2033.0, 0.636692
2033.8, 0.637025
2034.6, 0.637192
2035.4, 0.637136
2036.2, 0.637303
2037.0, 0.637414
2037.8, 0.637636
2038.6, 0.637858
2039.4, 0.637913
2040.2, 0.637802
2041.01, 0.637913
2041.81, 0.638135
2042.61, 0.638191
2043.42, 0.638302
2044.22, 0.638246
2045.03, 0.638302
2045.84, 0.638413
2046.65, 0.638413
2047.46, 0.638302
2048.26, 0.638690
2049.07, 0.638690
2049.88, 0.638746
2050.69, 0.638690
2051.51, 0.638690
2052.32, 0.638746
2053.13, 0.638746
2053.94, 0.638801
2054.76, 0.638857
2055.57, 0.638968
2056.39, 0.639023
2057.2, 0.638968
2058.02, 0.639079
2058.84, 0.639135
2059.66, 0.639190
2060.48, 0.639135
2061.29, 0.639246
2062.11, 0.639301
2062.94, 0.639357
2063.76, 0.639523
2064.58, 0.639634
2065.4, 0.639579
2066.22, 0.639412
2067.05, 0.639301
2067.87, 0.639357
2068.7, 0.639357
2069.52, 0.639468
2070.35, 0.639357
2071.18, 0.639357
2072.0, 0.639412
2072.83, 0.639412
2073.66, 0.639412
2074.49, 0.639301
2075.32, 0.639301
2076.15, 0.639246
2076.98, 0.639301
2077.82, 0.639412
2078.65, 0.639412
2079.48, 0.639468
2080.32, 0.639412
2081.15, 0.639468
2081.99, 0.639412
2082.83, 0.639412
2083.66, 0.639412
2084.5, 0.639412
2085.34, 0.639301
2086.18, 0.639246
2087.02, 0.639357
2087.86, 0.639468
2088.7, 0.639690
2089.54, 0.639745
2090.39, 0.639745
2091.23, 0.639801
2092.07, 0.639856
2092.92, 0.639801
2093.76, 0.639745
2094.61, 0.639745
2095.45, 0.639801
2096.3, 0.639967
2097.15, 0.639745
2098.0, 0.639745
2098.85, 0.640134
2099.7, 0.640134
2100.55, 0.640189
2101.4, 0.640189
2102.25, 0.640411
2103.1, 0.640467
2103.96, 0.640411
2104.81, 0.640522
2105.67, 0.640522
2106.52, 0.640522
2107.38, 0.640633
2108.24, 0.640744
2109.09, 0.640800
2109.95, 0.641022
2110.81, 0.641188
2111.67, 0.641244
2112.53, 0.641410
2113.39, 0.641410
2114.25, 0.641466
2115.12, 0.641577
2115.98, 0.641799
2116.84, 0.641910
2117.71, 0.641799
2118.58, 0.641743
2119.44, 0.641966
2120.31, 0.642132
2121.18, 0.642076
2122.04, 0.642188
2122.91, 0.642521
2123.78, 0.642798
2124.65, 0.642854
2125.52, 0.642854
2126.4, 0.642798
2127.27, 0.642798
2128.14, 0.642965
2129.02, 0.643131
2129.89, 0.643464
2130.77, 0.643520
2131.64, 0.643464
2132.52, 0.643631
2133.4, 0.643686
2134.27, 0.643853
2135.15, 0.644186
2136.03, 0.644297
2136.91, 0.644241
2137.79, 0.644075
2138.68, 0.644186
2139.56, 0.644352
2140.44, 0.644519
2141.33, 0.644685
2142.21, 0.644685
2143.1, 0.644630
2143.99, 0.644852
2144.87, 0.645019
2145.76, 0.645130
2146.65, 0.645130
2147.54, 0.645185
2148.43, 0.645463
2149.32, 0.645463
2150.21, 0.645518
2151.1, 0.645463
2151.99, 0.645629
2152.89, 0.645629
2153.78, 0.645629
2154.68, 0.645740
2155.57, 0.645740
2156.47, 0.645685
2157.37, 0.645629
2158.27, 0.645629
2159.16, 0.645685
2160.06, 0.645740
2160.96, 0.645740
2161.86, 0.645905
2162.77, 0.645520
2163.67, 0.645685
2164.57, 0.645960
2165.48, 0.645960
2166.38, 0.646235
2167.29, 0.646180
2168.2, 0.645850
2169.1, 0.645520
2170.01, 0.645740
2170.92, 0.645685
2171.83, 0.645575
2172.74, 0.645850
2173.65, 0.645685
2174.56, 0.645300
2175.47, 0.645520
2176.39, 0.645905
2177.3, 0.645795
2178.22, 0.645520
2179.13, 0.645520
2180.05, 0.645355
2180.96, 0.645355
2181.88, 0.645575
2182.8, 0.645520
2183.72, 0.645410
2184.64, 0.645300
2185.56, 0.645410
2186.48, 0.645355
2187.41, 0.645135
2188.33, 0.645135
2189.25, 0.645190
2190.18, 0.644860
2191.1, 0.645355
2192.03, 0.645355
2192.96, 0.645520
2193.89, 0.645520
2194.82, 0.645190
2195.74, 0.645465
2196.68, 0.645520
2197.61, 0.644970
2198.54, 0.645465
2199.47, 0.645575
2200.4, 0.645245
2201.34, 0.644915
2202.28, 0.645355
2203.21, 0.645740
2204.15, 0.645245
2205.08, 0.645245
2206.02, 0.645080
2206.96, 0.645025
2207.9, 0.644860
2208.84, 0.644970
2209.78, 0.645355
2210.73, 0.645685
2211.67, 0.645410
2212.61, 0.645410
2213.56, 0.645960
2214.5, 0.645960
2215.45, 0.645575
2216.4, 0.645190
2217.35, 0.645080
2218.3, 0.645135
2219.24, 0.645410
2220.2, 0.645465
2221.15, 0.645135
2222.1, 0.645080
2223.05, 0.645135
2224.0, 0.645300
2224.96, 0.645685
2225.91, 0.645465
2226.87, 0.645080
2227.83, 0.645080
2228.79, 0.645190
2229.74, 0.645355
2230.7, 0.645685
2231.66, 0.645520
2232.63, 0.645245
2233.59, 0.645135
2234.55, 0.645465
2235.51, 0.645960
2236.48, 0.645465
2237.44, 0.645245
2238.41, 0.645410
2239.38, 0.645960
2240.34, 0.646345
2241.31, 0.645740
2242.28, 0.645630
2243.25, 0.645850
2244.22, 0.645575
2245.19, 0.645300
2246.17, 0.645795
2247.14, 0.646125
2248.12, 0.645575
2249.09, 0.645300
2250.07, 0.645575
2251.04, 0.645960
2252.02, 0.646180
2253.0, 0.646290
2253.98, 0.646180
2254.96, 0.646290
2255.94, 0.646345
2256.92, 0.646290
2257.91, 0.646510
2258.89, 0.646510
2259.88, 0.646455
2260.86, 0.646070
2261.85, 0.646070
2262.83, 0.646290
2263.82, 0.646455
2264.81, 0.646950
2265.8, 0.647225
2266.79, 0.647225
2267.78, 0.646895
2268.78, 0.646730
2269.77, 0.646730
2270.76, 0.647170
2271.76, 0.647225
2272.75, 0.647225
2273.75, 0.647170
2274.75, 0.647060
2275.75, 0.647115
2276.75, 0.646840
2277.75, 0.646785
2278.75, 0.647060
2279.75, 0.647280
2280.75, 0.647115
2281.76, 0.647170
2282.76, 0.647170
2283.77, 0.646895
2284.77, 0.646785
2285.78, 0.647005
2286.79, 0.647115
2287.8, 0.647444
2288.81, 0.646840
2289.82, 0.646015
2290.83, 0.645630
2291.84, 0.645850
2292.86, 0.646125
2293.87, 0.646345
2294.89, 0.646510
2295.91, 0.646675
2296.92, 0.646290
2297.94, 0.645960
2298.96, 0.645850
2299.98, 0.645960
2301.0, 0.645905
2302.02, 0.645905
2303.04, 0.646015
2304.07, 0.646455
2305.09, 0.646290
2306.12, 0.646235
2307.15, 0.646235
2308.17, 0.646235
2309.2, 0.646015
2310.23, 0.645960
2311.26, 0.646125
2312.29, 0.645960
2313.32, 0.646070
2314.35, 0.646070
2315.39, 0.645905
2316.42, 0.645740
2317.46, 0.645795
2318.5, 0.645630
2319.53, 0.645795
2320.57, 0.646400
2321.61, 0.646125
2322.65, 0.645905
2323.69, 0.645795
2324.73, 0.646015
2325.78, 0.646345
2326.82, 0.646620
2327.86, 0.646730
2328.91, 0.646785
2329.96, 0.646840
2331.01, 0.646510
2332.05, 0.646730
2333.1, 0.647060
2334.15, 0.647005
2335.21, 0.647060
2336.26, 0.646840
2337.31, 0.647280
2338.36, 0.647939
2339.42, 0.647994
2340.48, 0.647774
2341.53, 0.647499
2342.59, 0.647389
2343.65, 0.647609
2344.71, 0.647829
2345.77, 0.648324
2346.83, 0.648104
2347.9, 0.647774
2348.96, 0.647719
2350.02, 0.647774
2351.09, 0.648104
2352.16, 0.648159
2353.23, 0.648324
2354.29, 0.648324
2355.36, 0.648269
2356.43, 0.648489
2357.51, 0.649094
2358.58, 0.649644
2359.65, 0.649369
2360.73, 0.649369
2361.8, 0.649204
2362.88, 0.649094
2363.96, 0.649039
2365.03, 0.649204
2366.11, 0.649369
2367.19, 0.649534
2368.27, 0.649864
2369.36, 0.650138
2370.44, 0.650633
2371.53, 0.650578
2372.61, 0.650688
2373.7, 0.650523
2374.78, 0.650413
2375.87, 0.650633
2376.96, 0.650743
2378.05, 0.650963
2379.14, 0.650743
2380.24, 0.650908
2381.33, 0.651018
2382.42, 0.651183
2383.52, 0.651183
2384.61, 0.651293
2385.71, 0.651623
2386.81, 0.651843
2387.91, 0.652063
2389.01, 0.651953
2390.11, 0.651733
2391.22, 0.652008
2392.32, 0.652283
2393.42, 0.652283
2394.53, 0.652503
2395.64, 0.652888
2396.74, 0.652997
2397.85, 0.652723
2398.96, 0.652558
2400.07, 0.652888
2401.18, 0.653437
2402.3, 0.653382
2403.41, 0.653272
2404.52, 0.653437
2405.64, 0.653547
2406.76, 0.654042
2407.88, 0.654372
2408.99, 0.654592
2410.11, 0.654427
2411.23, 0.654427
2412.36, 0.654702
2413.48, 0.654702
2414.6, 0.655087
2415.73, 0.655527
2416.85, 0.655527
2417.98, 0.655472
2419.11, 0.655362
2420.24, 0.655032
2421.37, 0.654922
2422.5, 0.655197
2423.64, 0.655252
2424.77, 0.655417
2425.9, 0.655581
2427.04, 0.655636
2428.18, 0.655856
2429.31, 0.656186
2430.45, 0.656241
2431.59, 0.656241
2432.73, 0.656076
2433.88, 0.656241
2435.02, 0.656406
2436.16, 0.656461
2437.31, 0.656461
2438.45, 0.656626
2439.6, 0.656626
2440.75, 0.656681
2441.9, 0.657011
2443.05, 0.657066
2444.2, 0.657066
2445.35, 0.656956
2446.51, 0.657176
2447.67, 0.656956
2448.82, 0.657231
2449.98, 0.657286
2451.14, 0.657396
2452.3, 0.657671
2453.46, 0.657451
2454.62, 0.657341
2455.78, 0.657616
2456.94, 0.658001
2458.11, 0.657946
2459.28, 0.658056
2460.44, 0.658276
2461.61, 0.658550
2462.78, 0.658605
2463.95, 0.658550
2465.12, 0.658770
2466.3, 0.658825
2467.47, 0.658715
2468.65, 0.658770
2469.82, 0.659100
2471.0, 0.659375
2472.18, 0.659540
2473.36, 0.659485
2474.54, 0.659540
2475.72, 0.659705
2476.9, 0.659650
2478.08, 0.659815
2479.27, 0.660145
2480.46, 0.660090
2481.64, 0.660475
2482.83, 0.660750
2484.02, 0.660530
2485.21, 0.660475
2486.4, 0.660585
2487.6, 0.660695
2488.79, 0.660915
2489.99, 0.661025
2491.18, 0.661299
2492.38, 0.661849
2493.58, 0.661849
2494.78, 0.661959
2495.98, 0.662014
2497.18, 0.662069
2498.39, 0.662179
2499.59, 0.662509
2500.8, 0.662509
2502.01, 0.662509
2503.21, 0.662839
2504.42, 0.663224
2505.63, 0.663499
2506.84, 0.663554
2508.06, 0.663774
2509.27, 0.663993
2510.49, 0.663993
2511.7, 0.664158
2512.92, 0.664543
2514.14, 0.665038
2515.36, 0.665258
2516.58, 0.665258
2517.8, 0.665148
2519.03, 0.665478
2520.25, 0.665863
2521.48, 0.665863
2522.7, 0.666138
2523.93, 0.666742
2525.16, 0.667017
2526.39, 0.666742
2527.62, 0.666852
2528.86, 0.667182
2530.09, 0.667732
2531.33, 0.668227
2532.56, 0.668777
2533.8, 0.668667
2535.04, 0.668667
2536.28, 0.668832
2537.52, 0.668887
2538.76, 0.669052
2540.01, 0.669381
2541.25, 0.670151
2542.5, 0.670811
2543.75, 0.670976
2544.99, 0.670646
2546.24, 0.670921
2547.49, 0.671801
2548.75, 0.671856
2550.0, 0.671966
2551.26, 0.672845
2552.51, 0.673340
2553.77, 0.672625
2555.03, 0.672295
2556.29, 0.672295
2557.55, 0.672405
2558.81, 0.673065
2560.08, 0.674989
2561.34, 0.677024
2562.61, 0.677189
2563.88, 0.677024
2565.14, 0.675704
2566.41, 0.674385
2567.68, 0.674660
2568.96, 0.676254
2570.23, 0.676419
2571.51, 0.675539
2572.78, 0.677409
2574.06, 0.677299
2575.34, 0.676089
2576.62, 0.677574
2577.9, 0.676694
2579.18, 0.675814
2580.47, 0.676859
2581.75, 0.677189
2583.04, 0.678783
2584.32, 0.679553
2585.61, 0.677738
2586.9, 0.678673
2588.2, 0.678343
2589.49, 0.677409
2590.78, 0.676749
2592.08, 0.676969
2593.37, 0.680927
2594.67, 0.686315
2595.97, 0.682852
2597.27, 0.678288
2598.57, 0.676529
2599.88, 0.676639
2601.18, 0.677738
2602.49, 0.678508
2603.79, 0.679443
2605.1, 0.681477
2606.41, 0.680652
2607.72, 0.678838
2609.03, 0.678453
2610.35, 0.677848
2611.66, 0.677134
2612.98, 0.677519
2614.3, 0.677299
2615.62, 0.679553
2616.94, 0.681312
2618.26, 0.679223
2619.58, 0.680268
2620.91, 0.680817
2622.23, 0.677629
2623.56, 0.676639
2624.89, 0.677519
2626.22, 0.680103
2627.55, 0.679333
2628.88, 0.679168
2630.21, 0.681642
2631.55, 0.679773
2632.89, 0.678233
2634.22, 0.678178
2635.56, 0.676859
2636.9, 0.676749
2638.25, 0.676584
2639.59, 0.676584
2640.93, 0.677134
2642.28, 0.677354
2643.63, 0.677189
2644.98, 0.678233
2646.33, 0.678123
2647.68, 0.677024
2649.03, 0.676529
2650.39, 0.676859
2651.74, 0.678123
2653.1, 0.678508
2654.46, 0.678068
2655.82, 0.677958
2657.18, 0.676694
2658.54, 0.677683
2659.9, 0.678288
2661.27, 0.677574
2662.64, 0.677134
2664.01, 0.679608
2665.38, 0.682687
2666.74, 0.682742
2668.12, 0.679828
2669.49, 0.681862
2670.87, 0.682632
2672.24, 0.677189
2673.62, 0.675594
2675.0, 0.677079
2676.38, 0.679003
2677.76, 0.678013
2679.15, 0.676694
2680.54, 0.673835
2681.92, 0.672350
2683.31, 0.672240
2684.7, 0.671416
2686.09, 0.670371
2687.48, 0.669162
2688.88, 0.667567
2690.27, 0.665918
2691.67, 0.665643
2693.07, 0.667182
2694.47, 0.666962
2695.87, 0.664048
2697.27, 0.661299
2698.67, 0.659210
2700.08, 0.658660
2701.49, 0.657781
2702.9, 0.655472
2704.31, 0.653217
2705.72, 0.651568
2707.13, 0.650248
2708.54, 0.650138
2709.96, 0.650084
2711.38, 0.647389
2712.8, 0.641617
2714.22, 0.637493
2715.64, 0.633699
2717.06, 0.629191
2718.49, 0.623033
2719.91, 0.616326
2721.34, 0.608354
2722.77, 0.606649
2724.2, 0.611598
2725.63, 0.612477
2727.07, 0.609508
2728.5, 0.604505
2729.94, 0.596973
2731.38, 0.591145
2732.82, 0.589825
2734.26, 0.591970
2735.7, 0.592794
2737.15, 0.591860
2738.59, 0.592135
2740.04, 0.590100
2741.49, 0.583668
2742.94, 0.576355
2744.39, 0.571792
2745.84, 0.570912
2747.3, 0.571187
2748.76, 0.571132
2750.21, 0.570637
2751.67, 0.569868
2753.14, 0.569153
2754.6, 0.571352
2756.06, 0.570747
2757.53, 0.566349
2759.0, 0.564535
2760.46, 0.564480
2761.94, 0.565579
2763.41, 0.565139
2764.88, 0.563270
2766.36, 0.562720
2767.83, 0.562390
2769.31, 0.561511
2770.79, 0.560961
2772.27, 0.559092
2773.76, 0.557277
2775.24, 0.556343
2776.73, 0.555848
2778.22, 0.555078
2779.71, 0.554418
2781.2, 0.553869
2782.69, 0.552769
2784.18, 0.551559
2785.68, 0.551559
2787.18, 0.551339
2788.68, 0.549305
2790.18, 0.547051
2791.68, 0.545402
2793.19, 0.544082
2794.69, 0.542323
2796.2, 0.540508
2797.71, 0.538694
2799.22, 0.536605
2800.73, 0.534790
2802.24, 0.533856
2803.76, 0.531712
2805.28, 0.528083
2806.8, 0.525004
2808.32, 0.522255
2809.84, 0.519121
2811.36, 0.516537
2812.89, 0.514228
2814.42, 0.512194
2815.94, 0.510269
2817.48, 0.508785
2819.01, 0.507960
2820.54, 0.507245
2822.08, 0.505926
2823.61, 0.504881
2825.15, 0.504551
2826.69, 0.504332
2828.23, 0.504112
2829.78, 0.503947
2831.32, 0.504112
2832.87, 0.504387
2834.42, 0.504661
2835.97, 0.504991
2837.52, 0.505541
2839.08, 0.506036
2840.63, 0.506036
2842.19, 0.506366
2843.75, 0.506861
2845.31, 0.507300
2846.87, 0.507740
2848.44, 0.507960
2850.0, 0.507905
2851.57, 0.507795
2853.14, 0.508235
2854.71, 0.508345
2856.28, 0.507850
2857.86, 0.507410
2859.43, 0.506916
2861.01, 0.506036
2862.59, 0.505266
2864.17, 0.504496
2865.76, 0.503562
2867.34, 0.502462
2868.93, 0.500868
2870.52, 0.499493
2872.11, 0.498064
2873.7, 0.496524
2875.29, 0.494875
2876.89, 0.493500
2878.49, 0.492016
2880.08, 0.490861
2881.69, 0.489982
2883.29, 0.489102
2884.89, 0.488332
2886.5, 0.487783
2888.11, 0.487618
2889.72, 0.487618
2891.33, 0.487563
2892.94, 0.487673
2894.56, 0.488112
2896.17, 0.488827
2897.79, 0.489542
2899.42, 0.490532
2901.04, 0.491631
2902.66, 0.492346
2904.29, 0.493171
2905.92, 0.494105
2907.55, 0.494820
2909.18, 0.495920
2910.81, 0.496854
2912.45, 0.497624
2914.08, 0.498339
2915.72, 0.499108
2917.36, 0.499988
2919.01, 0.500538
2920.65, 0.500978
2922.3, 0.501692
2923.94, 0.502242
2925.59, 0.502682
2927.25, 0.503067
2928.9, 0.503397
2930.56, 0.503892
2932.21, 0.504167
2933.87, 0.504441
2935.53, 0.504661
2937.2, 0.505046
2938.86, 0.505321
2940.53, 0.505486
2942.2, 0.505376
2943.87, 0.505596
2945.54, 0.505816
2947.22, 0.506201
2948.89, 0.506256
2950.57, 0.506091
2952.25, 0.506146
2953.93, 0.506366
2955.62, 0.506311
2957.3, 0.506036
2958.99, 0.505761
2960.68, 0.505761
2962.37, 0.505761
2964.07, 0.505761
2965.76, 0.505816
2967.46, 0.505816
2969.16, 0.505871
2970.86, 0.505871
2972.56, 0.505926
2974.27, 0.506256
2975.98, 0.506586
2977.69, 0.506861
2979.4, 0.507026
2981.11, 0.507300
2982.83, 0.508015
2984.54, 0.508675
2986.26, 0.509225
2987.98, 0.509720
2989.71, 0.510544
2991.43, 0.511259
2993.16, 0.511754
2994.89, 0.512304
2996.62, 0.513018
2998.35, 0.513898
3000.09, 0.514613
3001.83, 0.515053
3003.57, 0.515492
3005.31, 0.516152
3007.05, 0.516977
3008.79, 0.517802
3010.54, 0.518351
3012.29, 0.518956
3014.04, 0.519616
3015.8, 0.520056
3017.55, 0.520606
3019.31, 0.521375
3021.07, 0.521870
3022.83, 0.522420
3024.59, 0.522915
3026.36, 0.523245
3028.13, 0.523575
3029.9, 0.524069
3031.67, 0.524784
3033.44, 0.525389
3035.22, 0.525774
3037.0, 0.526104
3038.78, 0.526598
3040.56, 0.527148
3042.34, 0.527753
3044.13, 0.528083
3045.92, 0.528358
3047.71, 0.528688
3049.5, 0.529182
3051.3, 0.529677
3053.09, 0.530117
3054.89, 0.530557
3056.69, 0.530887
3058.5, 0.531272
3060.3, 0.531767
3062.11, 0.532151
3063.92, 0.532591
3065.73, 0.532976
3067.55, 0.533251
3069.36, 0.533636
3071.18, 0.533911
3073.0, 0.534241
3074.82, 0.534680
3076.65, 0.535010
3078.48, 0.535505
3080.31, 0.535890
3082.14, 0.536330
3083.97, 0.536880
3085.8, 0.537320
3087.64, 0.537704
3089.48, 0.538089
3091.33, 0.538584
3093.17, 0.539189
3095.02, 0.539629
3096.87, 0.539904
3098.72, 0.540508
3100.57, 0.541003
3102.43, 0.541608
3104.28, 0.542158
3106.14, 0.542598
3108.01, 0.543147
3109.87, 0.543807
3111.74, 0.544247
3113.61, 0.544907
3115.48, 0.545402
3117.35, 0.545896
3119.23, 0.546556
3121.1, 0.547216
3122.98, 0.547766
3124.87, 0.548316
3126.75, 0.548920
3128.64, 0.549525
3130.53, 0.550130
3132.42, 0.550735
3134.31, 0.551339
3136.21, 0.551889
3138.11, 0.552329
3140.01, 0.553044
3141.91, 0.553649
3143.82, 0.554088
3145.73, 0.554913
3147.64, 0.555628
3149.55, 0.556178
3151.46, 0.556727
3153.38, 0.557277
3155.3, 0.557882
3157.22, 0.558322
3159.14, 0.558872
3161.07, 0.559641
3163.0, 0.560356
3164.93, 0.560741
3166.86, 0.561181
3168.8, 0.561786
3170.74, 0.562610
3172.68, 0.563105
3174.62, 0.563600
3176.56, 0.564095
3178.51, 0.564535
3180.46, 0.565084
3182.42, 0.565689
3184.37, 0.566184
3186.33, 0.566569
3188.29, 0.567009
3190.25, 0.567559
3192.21, 0.568218
3194.18, 0.568713
3196.15, 0.569098
3198.12, 0.569703
3200.09, 0.570253
3202.07, 0.570692
3204.05, 0.571132
3206.03, 0.571517
3208.02, 0.572012
3210.0, 0.572562
3211.99, 0.573112
3213.98, 0.573496
3215.98, 0.573661
3217.97, 0.574156
3219.97, 0.574761
3221.97, 0.575201
3223.98, 0.575641
3225.98, 0.576135
3227.99, 0.576520
3230.0, 0.576905
3232.02, 0.577235
3234.03, 0.577510
3236.05, 0.577895
3238.07, 0.578280
3240.1, 0.578774
3242.12, 0.579104
3244.15, 0.579324
3246.18, 0.579599
3248.22, 0.580094
3250.25, 0.580479
3252.29, 0.580589
3254.33, 0.581029
3256.38, 0.581578
3258.43, 0.581908
3260.47, 0.582238
3262.53, 0.582513
3264.58, 0.582788
3266.64, 0.583228
3268.7, 0.583558
3270.76, 0.583833
3272.82, 0.584053
3274.89, 0.584492
3276.96, 0.584822
3279.04, 0.585097
3281.11, 0.585372
3283.19, 0.585702
3285.27, 0.585922
3287.35, 0.586142
3289.44, 0.586472
3291.53, 0.586692
3293.62, 0.587021
3295.71, 0.587241
3297.81, 0.587461
3299.91, 0.587571
3302.01, 0.587626
3304.11, 0.587901
3306.22, 0.588176
3308.33, 0.588396
3310.44, 0.588616
3312.56, 0.588946
3314.68, 0.589001
3316.8, 0.588781
3318.92, 0.588781
3321.05, 0.588946
3323.18, 0.588946
3325.31, 0.588836
3327.44, 0.588781
3329.58, 0.588671
3331.72, 0.588561
3333.86, 0.588286
3336.01, 0.588176
3338.16, 0.587901
3340.31, 0.587406
3342.46, 0.586802
3344.61, 0.586197
3346.77, 0.585537
3348.94, 0.584822
3351.1, 0.584162
3353.27, 0.583613
3355.44, 0.583118
3357.61, 0.582403
3359.79, 0.581688
3361.97, 0.580809
3364.15, 0.579874
3366.33, 0.578939
3368.52, 0.578170
3370.71, 0.577565
3372.9, 0.577180
3375.1, 0.576795
3377.3, 0.576685
3379.5, 0.576960
3381.71, 0.577345
3383.91, 0.577785
3386.12, 0.578280
3388.34, 0.578555
3390.55, 0.578719
3392.77, 0.578445
3394.99, 0.577840
3397.22, 0.577070
3399.45, 0.576025
3401.68, 0.574706
3403.91, 0.573386
3406.15, 0.572012
3408.39, 0.570857
3410.63, 0.569703
3412.87, 0.568988
3415.12, 0.569043
3417.37, 0.569923
3419.63, 0.571407
3421.88, 0.573441
3424.14, 0.575861
3426.41, 0.578390
3428.67, 0.580699
3430.94, 0.582568
3433.21, 0.584217
3435.49, 0.585537
3437.77, 0.586857
3440.05, 0.588066
3442.33, 0.589001
3444.62, 0.589825
3446.91, 0.590760
3449.2, 0.591585
3451.5, 0.592355
3453.8, 0.593179
3456.1, 0.593784
3458.41, 0.594389
3460.72, 0.594994
3463.03, 0.594939
3465.34, 0.594884
3467.66, 0.594719
3469.98, 0.594224
3472.31, 0.593729
3474.63, 0.593564
3476.96, 0.593564
3479.3, 0.593674
3481.64, 0.593674
3483.97, 0.593729
3486.32, 0.593839
3488.66, 0.594059
3491.01, 0.593894
3493.36, 0.593344
3495.72, 0.592465
3498.08, 0.591860
3500.44, 0.591915
3502.81, 0.592739
3505.18, 0.594169
3507.55, 0.596478
3509.92, 0.599117
3512.3, 0.601701
3514.68, 0.603845
3517.06, 0.605715
3519.45, 0.607529
3521.84, 0.609068
3524.24, 0.610278
3526.64, 0.611433
3529.04, 0.612477
3531.44, 0.613302
3533.85, 0.614182
3536.26, 0.614841
3538.67, 0.615391
3541.09, 0.616106
3543.51, 0.616546
3545.93, 0.616986
3548.36, 0.617260
3550.79, 0.617700
3553.22, 0.618250
3555.66, 0.618635
3558.1, 0.619020
3560.54, 0.619405
3562.99, 0.619790
3565.44, 0.620119
3567.9, 0.620394
3570.35, 0.620724
3572.81, 0.620944
3575.28, 0.621274
3577.75, 0.621604
3580.22, 0.621879
3582.69, 0.622044
3585.17, 0.622319
3587.65, 0.622703
3590.14, 0.623033
3592.62, 0.623363
3595.11, 0.623528
3597.61, 0.623638
3600.11, 0.623858
3602.61, 0.624133
3605.11, 0.624353
3607.62, 0.624573
3610.14, 0.624848
3612.65, 0.624958
3615.17, 0.625123
3617.69, 0.625507
3620.22, 0.625727
3622.75, 0.625782
3625.28, 0.626002
3627.82, 0.626222
3630.36, 0.626387
3632.9, 0.626552
3635.45, 0.626772
3638.0, 0.627102
3640.56, 0.627432
3643.12, 0.627652
3645.68, 0.627872
3648.24, 0.627982
3650.81, 0.628201
3653.39, 0.628476
3655.96, 0.628696
3658.54, 0.629026
3661.13, 0.629301
3663.71, 0.629521
3666.3, 0.629686
3668.9, 0.629906
3671.5, 0.630236
3674.1, 0.630621
3676.7, 0.630950
3679.31, 0.631060
3681.93, 0.631390
3684.54, 0.631665
3687.17, 0.632050
3689.79, 0.632380
3692.42, 0.632655
3695.05, 0.632875
3697.69, 0.633040
3700.32, 0.633205
3702.97, 0.633535
3705.61, 0.633809
3708.27, 0.634084
3710.92, 0.634194
3713.58, 0.634414
3716.24, 0.634744
3718.91, 0.634854
3721.58, 0.635129
3724.25, 0.635349
3726.93, 0.635624
3729.61, 0.635844
3732.29, 0.636119
3734.98, 0.636284
3737.67, 0.636449
3740.37, 0.636613
3743.07, 0.636668
3745.78, 0.636833
3748.49, 0.636998
3751.2, 0.637273
3753.91, 0.637493
3756.63, 0.637713
3759.36, 0.637713
3762.09, 0.637823
3764.82, 0.637988
3767.55, 0.638263
3770.29, 0.638373
3773.04, 0.638538
3775.78, 0.638703
3778.54, 0.638758
3781.29, 0.638813
3784.05, 0.638813
3786.82, 0.638868
3789.59, 0.638868
3792.36, 0.638868
3795.13, 0.638813
3797.92, 0.638758
3800.7, 0.638593
3803.49, 0.638373
3806.28, 0.638263
3809.08, 0.638208
3811.88, 0.638043
3814.68, 0.637878
3817.49, 0.637768
3820.31, 0.637548
3823.12, 0.637273
3825.94, 0.636998
3828.77, 0.636833
3831.6, 0.636613
3834.43, 0.636393
3837.27, 0.636174
3840.11, 0.635954
3842.96, 0.635789
3845.81, 0.635624
3848.67, 0.635459
3851.53, 0.635294
3854.39, 0.635184
3857.26, 0.635129
3860.13, 0.634964
3863.01, 0.634964
3865.89, 0.634854
3868.77, 0.634744
3871.66, 0.634744
3874.55, 0.634689
3877.45, 0.634579
3880.35, 0.634414
3883.26, 0.634304
3886.17, 0.634249
3889.09, 0.634084
3892.01, 0.633974
3894.93, 0.633864
3897.86, 0.633864
3900.79, 0.633754
3903.73, 0.633699
3906.67, 0.633699
3909.62, 0.633645
3912.57, 0.633480
3915.52, 0.633370
3918.48, 0.633205
3921.45, 0.633205
3924.42, 0.633205
3927.39, 0.632985
3930.37, 0.632710
3933.35, 0.632490
3936.34, 0.632435
3939.33, 0.632105
3942.32, 0.631500
3945.32, 0.630786
3948.33, 0.630126
3951.34, 0.629356
3954.35, 0.628751
3957.37, 0.628146
3960.39, 0.627487
3963.42, 0.627047
3966.45, 0.626717
3969.49, 0.626552
3972.53, 0.626277
3975.58, 0.626112
3978.63, 0.626002
3981.68, 0.626057
3984.75, 0.626277
3987.81, 0.626607
3990.88, 0.627322
3993.95, 0.628037
3997.03, 0.628751
4000.12, 0.629686
4003.21, 0.630566
4006.3, 0.631445
4009.4, 0.632105
4012.5, 0.632710
4015.61, 0.633205
4018.72, 0.633645
4021.84, 0.633919
4024.96, 0.634359
4028.09, 0.634689
4031.22, 0.635074
4034.36, 0.635349
4037.5, 0.635569
4040.65, 0.635954
4043.8, 0.636229
4046.96, 0.636503
4050.12, 0.636613
4053.29, 0.636558
4056.46, 0.636723
4059.64, 0.636723
4062.82, 0.636668
4066.0, 0.636668
4069.19, 0.636558
4072.39, 0.636339
4075.59, 0.636229
4078.8, 0.636174
4082.01, 0.636174
4085.23, 0.636119
4088.45, 0.636064
4091.68, 0.635954
4094.91, 0.635789
4098.15, 0.635679
4101.39, 0.635514
4104.63, 0.635459
4107.89, 0.635349
4111.14, 0.635129
4114.41, 0.635074
4117.67, 0.635019
4120.95, 0.634799
4124.23, 0.634579
4127.51, 0.634414
4130.8, 0.634249
4134.09, 0.634249
4137.39, 0.634029
4140.7, 0.633919
4144.01, 0.633699
4147.32, 0.633535
4150.64, 0.633315
4153.97, 0.633150
4157.3, 0.632930
4160.64, 0.632765
4163.98, 0.632435
4167.33, 0.632325
4170.68, 0.632105
4174.04, 0.631775
4177.4, 0.631610
4180.77, 0.631335
4184.14, 0.631115
4187.52, 0.630841
4190.91, 0.630511
4194.3, 0.630401
4197.69, 0.630291
4201.1, 0.630236
4204.5, 0.630236
4207.92, 0.630071
4211.34, 0.629796
4214.76, 0.629796
4218.19, 0.629796
4221.62, 0.629741
4225.06, 0.629521
4228.51, 0.629301
4231.96, 0.629081
4235.42, 0.628861
4238.88, 0.628476
4242.35, 0.628037
4245.83, 0.627432
4249.31, 0.626827
4252.79, 0.626167
4256.28, 0.625562
4259.78, 0.625288
4263.29, 0.625123
4266.79, 0.624903
4270.31, 0.624573
4273.83, 0.624243
4277.35, 0.623913
4280.89, 0.623418
4284.42, 0.622978
4287.97, 0.622594
4291.52, 0.622264
4295.07, 0.621769
4298.63, 0.621164
4302.2, 0.620779
4305.78, 0.620449
4309.35, 0.619844
4312.94, 0.619350
4316.53, 0.618800
4320.13, 0.618305
4323.73, 0.617920
4327.34, 0.617480
4330.96, 0.616931
4334.58, 0.616381
4338.21, 0.615941
4341.84, 0.615446
4345.48, 0.614951
4349.12, 0.614566
4352.77, 0.614182
4356.43, 0.613742
4360.1, 0.613247
4363.76, 0.612862
4367.44, 0.612257
4371.12, 0.611708
4374.81, 0.611158
4378.51, 0.610718
4382.21, 0.610223
4385.92, 0.609728
4389.63, 0.609233
4393.35, 0.608739
4397.08, 0.608134
4400.81, 0.607804
4404.55, 0.607309
4408.29, 0.606814
4412.04, 0.606264
4415.8, 0.605825
4419.57, 0.605275
4423.34, 0.604725
4427.12, 0.604175
4430.9, 0.603570
4434.69, 0.602966
4438.49, 0.602416
4442.29, 0.601811
4446.1, 0.601151
4449.92, 0.600601
4453.74, 0.599997
4457.57, 0.599282
4461.41, 0.598567
4465.25, 0.597798
4469.1, 0.597028
4472.95, 0.596093
4476.82, 0.595213
4480.69, 0.594279
4484.56, 0.593344
4488.44, 0.592355
4492.33, 0.591255
4496.23, 0.589990
4500.13, 0.588781
4504.04, 0.587296
4507.96, 0.585702
4511.88, 0.583833
4515.81, 0.581688
4519.75, 0.579159
4523.69, 0.576410
4527.65, 0.573276
4531.6, 0.569923
4535.57, 0.566294
4539.54, 0.562720
4543.52, 0.559312
4547.5, 0.556178
4551.5, 0.553154
4555.5, 0.550350
4559.5, 0.547766
4563.52, 0.545292
4567.54, 0.542653
4571.56, 0.540124
4575.6, 0.537484
4579.64, 0.534680
4583.69, 0.531547
4587.75, 0.528303
4591.81, 0.525114
4595.88, 0.521980
4599.96, 0.518736
4604.04, 0.515547
4608.14, 0.512524
4612.24, 0.509500
4616.34, 0.506641
4620.46, 0.503837
4624.58, 0.500923
4628.71, 0.498229
4632.84, 0.495425
4636.99, 0.492566
4641.14, 0.489652
4645.3, 0.486738
4649.47, 0.483824
4653.64, 0.481130
4657.82, 0.478711
4662.01, 0.476732
4666.21, 0.475082
4670.41, 0.473653
4674.62, 0.472113
4678.84, 0.470574
4683.07, 0.468650
4687.3, 0.466395
4691.54, 0.463646
4695.79, 0.460512
4700.05, 0.457214
4704.31, 0.453805
4708.59, 0.450176
4712.87, 0.446218
4717.15, 0.442314
4721.45, 0.438356
4725.76, 0.434397
4730.07, 0.430603
4734.39, 0.426975
4738.72, 0.423401
4743.05, 0.419937
4747.39, 0.416913
4751.75, 0.414109
4756.1, 0.411745
4760.47, 0.409766
4764.85, 0.408281
4769.23, 0.407017
4773.62, 0.406027
4778.02, 0.404928
4782.43, 0.403828
4786.85, 0.402454
4791.27, 0.400914
4795.7, 0.398935
4800.14, 0.396681
4804.59, 0.393987
4809.05, 0.391183
4813.51, 0.388379
4817.99, 0.385410
4822.47, 0.382496
4826.96, 0.379692
4831.46, 0.377108
4835.96, 0.374689
4840.48, 0.372215
4845.0, 0.369795
4849.54, 0.367266
4854.08, 0.364847
4858.63, 0.362373
4863.18, 0.359844
4867.75, 0.357370
4872.33, 0.355116
4876.91, 0.353082
4881.5, 0.351377
4886.1, 0.349893
4890.71, 0.348628
4895.33, 0.347639
4899.96, 0.346759
4904.59, 0.345989
4909.24, 0.345274
4913.89, 0.344560
4918.55, 0.343845
4923.22, 0.342910
4927.9, 0.341976
4932.59, 0.340986
4937.29, 0.339886
4942.0, 0.338842
4946.71, 0.338017
4951.44, 0.337302
4956.17, 0.336753
4960.91, 0.336313
4965.67, 0.335763
4970.43, 0.335323
4975.2, 0.334663
4979.98, 0.333839
4984.76, 0.332904
4989.56, 0.331859
4994.37, 0.330540
4999.18, 0.329055
5004.01, 0.327406
5008.84, 0.325317
5013.69, 0.322898
5018.54, 0.320094
5023.4, 0.316520
5028.28, 0.312341
5033.16, 0.307998
5038.05, 0.303380
5042.95, 0.298816
5047.86, 0.294308
5052.78, 0.290239
5057.71, 0.286666
5062.65, 0.283752
5067.6, 0.281608
5072.56, 0.280288
5077.53, 0.279793
5082.5, 0.280288
5087.49, 0.281498
5092.49, 0.283477
5097.5, 0.286171
5102.51, 0.289580
5107.54, 0.293373
5112.58, 0.297497
5117.62, 0.301620
5122.68, 0.305689
5127.75, 0.309592
5132.82, 0.313386
5137.91, 0.317015
5143.01, 0.320588
5148.12, 0.324052
5153.23, 0.326856
5158.36, 0.329605
5163.5, 0.332409
5168.65, 0.335158
5173.81, 0.337907
5178.98, 0.340381
5184.15, 0.342855
5189.34, 0.345164
5194.54, 0.347639
5199.75, 0.350003
5204.98, 0.351927
5210.21, 0.354016
5215.45, 0.355721
5220.7, 0.356380
5225.96, 0.356985
5231.23, 0.357315
5236.52, 0.357260
5241.81, 0.356600
5247.12, 0.355776
5252.44, 0.354841
5257.76, 0.353961
5263.1, 0.353027
5268.45, 0.352202
5273.81, 0.351487
5279.18, 0.350992
5284.56, 0.350772
5289.95, 0.351212
5295.36, 0.351487
5300.77, 0.352037
5306.2, 0.353082
5311.63, 0.354236
5317.08, 0.355501
5322.54, 0.356930
5328.01, 0.358085
5333.49, 0.359019
5338.98, 0.359844
5344.49, 0.360944
5350.0, 0.362208
5355.53, 0.362813
5361.07, 0.363693
5366.62, 0.365177
5372.18, 0.366717
5377.75, 0.368256
5383.34, 0.369741
5388.93, 0.371225
5394.54, 0.372544
5400.16, 0.374194
5405.79, 0.376228
5411.44, 0.378647
5417.09, 0.382001
5422.76, 0.385905
5428.43, 0.388379
5434.12, 0.391678
5439.83, 0.395856
5445.54, 0.400089
5451.26, 0.404158
5457.0, 0.408501
5462.75, 0.413175
5468.52, 0.416748
5474.29, 0.419882
5480.08, 0.423456
5485.88, 0.425820
5491.69, 0.428514
5497.51, 0.431098
5503.35, 0.433352
5509.2, 0.435112
5515.06, 0.437036
5520.93, 0.438685
5526.82, 0.439675
5532.71, 0.440170
5538.63, 0.440610
5544.55, 0.440720
5550.49, 0.440830
5556.44, 0.440280
5562.4, 0.439785
5568.37, 0.439950
5574.36, 0.441434
5580.36, 0.442754
5586.37, 0.442644
5592.4, 0.443084
5598.44, 0.444458
5604.49, 0.445228
5610.56, 0.445558
5616.63, 0.445943
5622.73, 0.445888
5628.83, 0.445943
5634.95, 0.446932
5641.08, 0.448252
5647.23, 0.447317
5653.39, 0.446273
5659.56, 0.445338
5665.74, 0.444073
5671.94, 0.444348
5678.15, 0.443414
5684.38, 0.441819
5690.62, 0.440940
5696.87, 0.439235
5703.14, 0.438081
5709.42, 0.438026
5715.72, 0.436046
5722.03, 0.433627
5728.35, 0.431153
5734.69, 0.429174
5741.03, 0.427250
5747.4, 0.425765
5753.78, 0.422631
5760.17, 0.421862
5766.58, 0.421367
5773.0, 0.416418
5779.44, 0.411745
5785.88, 0.407897
5792.35, 0.404103
5798.83, 0.400749
5805.32, 0.396956
5811.83, 0.394152
5818.35, 0.392832
5824.89, 0.389698
5831.45, 0.384805
5838.01, 0.380682
5844.59, 0.377383
5851.19, 0.375293
5857.8, 0.374084
5864.43, 0.373149
5871.07, 0.371830
5877.73, 0.373479
5884.4, 0.371885
5891.09, 0.368586
5897.79, 0.365617
5904.5, 0.359404
5911.23, 0.354071
5917.98, 0.348903
5924.75, 0.342910
5931.53, 0.338347
5938.32, 0.331639
5945.13, 0.321688
5951.96, 0.312726
5958.8, 0.304699
5965.65, 0.297992
5972.53, 0.290074
5979.42, 0.282267
5986.32, 0.276275
5993.24, 0.269402
6000.18, 0.262859
6007.13, 0.258076
6014.1, 0.254392
6021.08, 0.250159
6028.09, 0.247245
6035.1, 0.245486
6042.14, 0.246145
6049.19, 0.246970
6056.25, 0.243287
6063.34, 0.240538
6070.44, 0.239438
6077.55, 0.236249
6084.69, 0.232455
6091.84, 0.229706
6099.0, 0.228167
6106.19, 0.228057
6113.39, 0.229157
6120.61, 0.228717
6127.84, 0.229047
6135.09, 0.230641
6142.36, 0.232565
6149.65, 0.234270
6156.95, 0.236249
6164.27, 0.237294
6171.61, 0.237569
6178.97, 0.238668
6186.34, 0.239383
6193.73, 0.237898
6201.14, 0.236799
6208.57, 0.235809
6216.01, 0.234600
6223.47, 0.233005
6230.95, 0.231356
6238.45, 0.229596
6245.97, 0.227947
6253.5, 0.226133
6261.06, 0.224373
6268.63, 0.222669
6276.21, 0.221075
6283.82, 0.219645
6291.45, 0.218545
6299.1, 0.217611
6306.76, 0.216786
6314.44, 0.216126
6322.14, 0.215577
6329.86, 0.214697
6337.6, 0.214532
6345.35, 0.213652
6353.13, 0.210958
6360.92, 0.208649
6368.74, 0.206945
6376.57, 0.203811
6384.43, 0.200842
6392.3, 0.197818
6400.19, 0.195289
6408.1, 0.194244
6416.03, 0.191935
6423.98, 0.187482
6431.95, 0.184348
6439.94, 0.181654
6447.95, 0.179895
6455.98, 0.178410
6464.03, 0.177310
6472.1, 0.176926
6480.19, 0.176706
6488.31, 0.177036
6496.44, 0.176651
6504.59, 0.175056
6512.76, 0.174781
6520.95, 0.175551
6529.16, 0.175551
6537.4, 0.176046
6545.65, 0.177146
6553.92, 0.178300
6562.22, 0.179400
6570.54, 0.181214
6578.88, 0.182204
6587.23, 0.182918
6595.61, 0.183853
6604.02, 0.184238
6612.44, 0.184733
6620.89, 0.185118
6629.35, 0.186217
6637.84, 0.186657
6646.35, 0.184788
6654.88, 0.183523
6663.44, 0.183688
6672.01, 0.184458
6680.61, 0.185503
6689.23, 0.186107
6697.88, 0.187262
6706.54, 0.189956
6715.23, 0.192815
6723.94, 0.195509
6732.67, 0.198313
6741.42, 0.201337
6750.2, 0.204306
6759.0, 0.206835
6767.82, 0.209309
6776.67, 0.211508
6785.54, 0.213652
6794.44, 0.214697
6803.35, 0.214697
6812.29, 0.215632
6821.26, 0.217556
6830.24, 0.219095
6839.25, 0.220195
6848.29, 0.222504
6857.35, 0.225858
6866.43, 0.227727
6875.54, 0.227177
6884.67, 0.227452
6893.82, 0.227782
6903.0, 0.228167
6912.2, 0.227837
6921.43, 0.227177
6930.69, 0.226518
6939.96, 0.225693
6949.27, 0.225363
6958.59, 0.225473
6967.95, 0.223769
6977.33, 0.221954
6986.73, 0.220965
6996.16, 0.219645
7005.61, 0.218051
7015.09, 0.217006
7024.6, 0.215742
7034.13, 0.214697
7043.69, 0.214257
7053.27, 0.212443
7062.88, 0.210134
7072.52, 0.208319
7082.18, 0.206615
7091.87, 0.204800
7101.58, 0.202931
7111.32, 0.201227
7121.09, 0.199193
7130.88, 0.196993
7140.71, 0.195509
7150.56, 0.194299
7160.43, 0.192925
7170.33, 0.191660
7180.27, 0.190121
7190.23, 0.188801
7200.21, 0.187812
7210.23, 0.186767
7220.27, 0.185448
7230.34, 0.184513
7240.44, 0.183743
7250.56, 0.182973
7260.72, 0.182534
7270.9, 0.182424
7281.12, 0.182424
7291.36, 0.182314
7301.63, 0.182589
7311.93, 0.182863
7322.25, 0.183138
7332.61, 0.183798
7343.0, 0.184183
7353.41, 0.184073
7363.86, 0.183853
7374.33, 0.183523
7384.83, 0.182918
7395.37, 0.182039
7405.93, 0.180994
7416.53, 0.179675
7427.15, 0.178300
7437.81, 0.176816
7448.5, 0.175441
7459.22, 0.173792
7469.96, 0.171977
7480.74, 0.169998
7491.55, 0.168019
7502.39, 0.165985
7513.27, 0.164005
7524.17, 0.162026
7535.11, 0.160102
7546.08, 0.158232
7557.08, 0.156473
7568.11, 0.154769
7579.17, 0.153229
7590.27, 0.151580
7601.4, 0.149985
7612.56, 0.148391
7623.76, 0.146687
7634.98, 0.145037
7646.24, 0.143278
7657.54, 0.141299
7668.87, 0.139264
7680.23, 0.137120
7691.62, 0.134976
7703.05, 0.132667
7714.51, 0.130413
7726.01, 0.128103
7737.54, 0.125794
7749.11, 0.123375
7760.71, 0.120956
7772.35, 0.118482
7784.02, 0.116118
7795.72, 0.113644
7807.46, 0.111280
7819.23, 0.108860
7831.04, 0.106606
7842.89, 0.104462
7854.77, 0.102483
7866.69, 0.100393
7878.65, 0.0983590
7890.64, 0.0962150
7902.67, 0.0941810
7914.74, 0.0922010
7926.84, 0.0901120
7938.98, 0.0879680
7951.16, 0.0857690
7963.37, 0.0834050
7975.62, 0.0810960
7987.91, 0.0786760
8000.24, 0.0762570
8012.6, 0.0739480
8025.01, 0.0717490
8037.45, 0.0695500
8049.93, 0.0674600
8062.45, 0.0652610
8075.01, 0.0632820
8087.61, 0.0614680
8100.24, 0.0597080
8112.91, 0.0579490
8125.63, 0.0563540
8138.39, 0.0546500
8151.18, 0.0528360
8164.02, 0.0511860
8176.9, 0.0497020
8189.81, 0.0481620
8202.77, 0.0466230
8215.77, 0.0449740
8228.82, 0.0434890
8241.9, 0.0421150
8255.02, 0.0406850
8268.19, 0.0393660
8281.39, 0.0382110
8294.65, 0.0369470
8307.94, 0.0357920
8321.28, 0.0345820
8334.66, 0.0337580
8348.08, 0.0328780
8361.54, 0.0320530
8375.05, 0.0312290
8388.6, 0.0305690
8402.2, 0.0301290
8415.84, 0.0297990
8429.52, 0.0294690
8443.25, 0.0292490
8457.02, 0.0291940
8470.84, 0.0295790
8484.7, 0.0301290
8498.61, 0.0309540
8512.57, 0.0319430
8526.57, 0.0333730
8540.62, 0.0353520
8554.71, 0.0377710
8568.85, 0.0403550
8583.04, 0.0435990
8597.27, 0.0472830
8611.55, 0.0515710
8625.88, 0.0567390
8640.26, 0.0627320
8654.68, 0.0694950
8669.16, 0.0767520
8683.68, 0.0842840
8698.25, 0.0924760
8712.87, 0.101383
8727.53, 0.110675
8742.25, 0.120241
8757.02, 0.129753
8771.83, 0.138715
8786.7, 0.146577
8801.62, 0.152350
8816.59, 0.156253
8831.61, 0.158782
8846.68, 0.160981
8861.8, 0.163291
8876.97, 0.165435
8892.2, 0.167084
8907.48, 0.167964
8922.81, 0.167799
8938.2, 0.166479
8953.63, 0.164390
8969.13, 0.161751
8984.67, 0.158837
9000.27, 0.156033
9015.92, 0.153339
9031.63, 0.151030
9047.39, 0.148996
9063.21, 0.147346
9079.08, 0.146192
9095.01, 0.145147
9111.0, 0.144268
9127.04, 0.143388
9143.13, 0.142288
9159.28, 0.141299
9175.49, 0.140364
9191.76, 0.139319
9208.09, 0.138275
9224.47, 0.137230
9240.92, 0.136185
9257.42, 0.135251
9273.98, 0.134151
9290.6, 0.132557
9307.28, 0.130797
9324.02, 0.128763
9340.82, 0.126014
9357.68, 0.122660
9374.6, 0.118537
9391.58, 0.113644
9408.62, 0.107981
9425.73, 0.102153
9442.9, 0.0961050
9460.13, 0.0900570
9477.42, 0.0844490
9494.78, 0.0793910
9512.2, 0.0749380
9529.69, 0.0711990
9547.24, 0.0683400
9564.86, 0.0664160
9582.54, 0.0648210
9600.28, 0.0635020
9618.1, 0.0626220
9635.97, 0.0624570
9653.92, 0.0626220
9671.93, 0.0632820
9690.01, 0.0641620
9708.16, 0.0654260
9726.37, 0.0667460
9744.65, 0.0681750
9763.0, 0.0698250
9781.43, 0.0712540
9799.92, 0.0727390
9818.48, 0.0741130
9837.1, 0.0747730
9855.8, 0.0751580
9874.58, 0.0749930
9893.42, 0.0743880
9912.34, 0.0731230
9931.33, 0.0712540
9950.39, 0.0688350
9969.52, 0.0658660
9988.74, 0.0623470
10008.0, 0.0589940
10027.4, 0.0555850
10046.8, 0.0530010
10066.3, 0.0519010
10085.9, 0.0526160
10105.6, 0.0555300
10125.3, 0.0613580
10145.1, 0.0697150
10165.0, 0.0798860
10185.0, 0.0903870
10205.0, 0.100613
10225.2, 0.110345
10245.4, 0.119527
10265.7, 0.128268
10286.0, 0.136460
10306.5, 0.143993
10327.0, 0.150700
10347.6, 0.156418
10368.3, 0.160926
10389.1, 0.163401
10409.9, 0.164005
10430.9, 0.163291
10451.9, 0.161861
10473.0, 0.160047
10494.2, 0.158672
10515.5, 0.158452
10536.9, 0.158947
10558.4, 0.159167
10579.9, 0.159167
10601.5, 0.158727
10623.3, 0.157628
10645.1, 0.155868
10667.0, 0.153339
10689.0, 0.150700
10711.1, 0.149216
10733.2, 0.150370
10755.5, 0.154494
10777.9, 0.160157
10800.3, 0.165765
10822.9, 0.170163
10845.5, 0.172857
10868.2, 0.174452
10891.1, 0.174891
10914.0, 0.174452
10937.0, 0.173737
10960.2, 0.172747
10983.4, 0.171758
11006.7, 0.170603
11030.1, 0.169338
11053.6, 0.168294
11077.3, 0.167359
11101.0, 0.166534
11124.8, 0.165765
11148.7, 0.164940
11172.7, 0.164115
11196.9, 0.163456
11221.1, 0.163016
11245.4, 0.162301
11269.9, 0.161476
11294.4, 0.160871
11319.1, 0.160377
11343.9, 0.159497
11368.8, 0.158672
11393.7, 0.157848
11418.8, 0.156858
11444.0, 0.155703
11469.4, 0.154439
11494.8, 0.153229
11520.3, 0.151855
11546.0, 0.150315
11571.8, 0.148666
11597.7, 0.146797
11623.7, 0.144542
11649.8, 0.141574
11676.0, 0.138275
11702.4, 0.134536
11728.9, 0.130358
11755.5, 0.125684
11782.2, 0.120956
11809.0, 0.116778
11836.0, 0.113754
11863.0, 0.111444
11890.3, 0.109795
11917.6, 0.108805
11945.0, 0.108091
11972.6, 0.107706
12000.4, 0.107596
12028.2, 0.107211
12056.2, 0.106991
12084.3, 0.107046
12112.5, 0.107431
12140.9, 0.108036
12169.4, 0.108970
12198.0, 0.109630
12226.8, 0.110345
12255.7, 0.111170
12284.7, 0.112214
12313.9, 0.113094
12343.2, 0.113644
12372.7, 0.114083
12402.3, 0.114578
12432.0, 0.114578
12461.9, 0.114523
12491.9, 0.114358
12522.1, 0.114083
12552.4, 0.113589
12582.9, 0.113039
12613.5, 0.112599
12644.3, 0.112269
12675.2, 0.112104
12706.3, 0.112379
12737.5, 0.112379
12768.9, 0.112214
12800.4, 0.112544
12832.1, 0.112819
12863.9, 0.112984
12895.9, 0.113479
12928.1, 0.114029
12960.4, 0.114578
12992.9, 0.115183
13025.5, 0.115788
13058.3, 0.115843
13091.3, 0.115788
13124.4, 0.115678
13157.8, 0.115568
13191.2, 0.115183
13224.9, 0.115018
13258.7, 0.115018
13292.7, 0.114853
13326.9, 0.114578
13361.2, 0.114468
13395.7, 0.114358
13430.4, 0.113919
13465.3, 0.113534
13500.4, 0.113699
13535.7, 0.113479
13571.1, 0.112929
13606.7, 0.111939
13642.5, 0.110840
13678.5, 0.109740
13714.7, 0.108146
13751.1, 0.105946
13787.6, 0.103967
13824.4, 0.101713
13861.4, 0.0990740
13898.5, 0.0961600
13935.9, 0.0934660
13973.5, 0.0908820
14011.2, 0.0880230
14049.2, 0.0851640
14087.4, 0.0823600
14125.8, 0.0796110
14164.3, 0.0764220
14203.2, 0.0723540
14242.2, 0.0691650
14281.4, 0.0661410
14320.9, 0.0630620
14360.5, 0.0604230
14400.4, 0.0576190
14440.5, 0.0546500
14480.9, 0.0521760
14521.4, 0.0498120
14562.2, 0.0471730
14603.3, 0.0439840
14644.5, 0.0407950
14686.0, 0.0383760
14727.7, 0.0370020
14769.7, 0.0368920
14811.9, 0.0378810
14854.3, 0.0390910
14897.0, 0.0394760
14939.9, 0.0389260
14983.1, 0.0383760
15026.5, 0.0377710
15070.2, 0.0370570
15114.2, 0.0359570
15158.3, 0.0346370
15202.8, 0.0327680
15247.5, 0.0310090
15292.5, 0.0295790
15337.7, 0.0284250
15383.2, 0.0269950
15429.0, 0.0266650
15475.1, 0.0278200
15521.4, 0.0300740
15568.0, 0.0326580
15614.9, 0.0353520
15662.1, 0.0367820
15709.6, 0.0371110
15757.3, 0.0367820
15805.4, 0.0363420
15853.7, 0.0356820
15902.3, 0.0348570
15951.2, 0.0341430
16000.5, 0.0333730
16050.0, 0.0325480
16099.8, 0.0323830
16150.0, 0.0323830
16200.5, 0.0323280
16251.3, 0.0319430
16302.4, 0.0322730
16353.8, 0.0330980
16405.5, 0.0339780
16457.6, 0.0349120
16510.0, 0.0371110
16562.8, 0.0398600
16615.9, 0.0429940
16669.3, 0.0466230
16723.1, 0.0511860
16777.2, 0.0566840
16831.7, 0.0628420
16886.5, 0.0701540
16941.7, 0.0787860
16997.2, 0.0876380
17053.1, 0.0968200
17109.4, 0.106606
17166.1, 0.116997
17223.1, 0.127114
17280.5, 0.137285
17338.3, 0.147126
17396.5, 0.156363
17455.1, 0.165050
17514.0, 0.172582
17573.4, 0.178795
17633.2, 0.184073
17693.4, 0.187647
17754.0, 0.190561
17815.0, 0.193530
17876.4, 0.195399
17938.3, 0.195069
18000.5, 0.194519
18063.3, 0.194134
18126.4, 0.193310
18190.0, 0.191770
18254.1, 0.190286
18318.6, 0.188416
18383.5, 0.186712
18449.0, 0.184513
18514.9, 0.182094
18581.2, 0.180554
18648.0, 0.179345
18715.4, 0.177310
18783.2, 0.175881
18851.5, 0.174177
18920.3, 0.171428
18989.6, 0.168899
19059.4, 0.168239
19129.7, 0.167469
19200.6, 0.166919
19272.0, 0.167414
19343.9, 0.167689
19416.3, 0.167689
19489.3, 0.169613
19562.8, 0.171428
19637.0, 0.172417
19711.6, 0.172857
19786.8, 0.173242
19862.6, 0.172747
19939.0, 0.170328
20016.0, 0.166369
20093.6, 0.162741
20171.8, 0.159662
20250.6, 0.156968
20330.0, 0.156088
20410.0, 0.158342
20490.7, 0.162301
20572.0, 0.166205
20654.0, 0.169173
20736.6, 0.171483
20819.9, 0.173792
20903.8, 0.176046
20988.5, 0.176376
21073.8, 0.176706
21159.8, 0.175936
21246.5, 0.175496
21334.0, 0.174177
21422.1, 0.173132
21511.0, 0.170053
21600.7, 0.166644
21691.0, 0.163566
21782.1, 0.160267
21874.0, 0.156968
21966.7, 0.154494
22060.2, 0.149546
22154.5, 0.144927
22249.6, 0.140639
22345.5, 0.137505
22442.2, 0.132832
22539.8, 0.127609
22638.2, 0.123705
22737.5, 0.124145
22837.7, 0.124420
22938.7, 0.124255
23040.7, 0.124145
23143.5, 0.123265
23247.3, 0.119911
23352.1, 0.116887
23457.7, 0.112379
23564.4, 0.109630
23672.0, 0.108366
23780.5, 0.107211
23890.1, 0.105122
24000.7, 0.105452
24112.3, 0.105891
24225.0, 0.110730
24338.7, 0.119472
24453.5, 0.128048
24569.4, 0.130468
