Database of Origin, USGS Spectral Database
Sample Description, See USGS database for additional info
Date Added,2016-08-10 05:36:02.266883

Data ID,USGS_sco02          
Sample ID, scolecite_gds7.20124
Mineral Name, scolecite
Material Class,Tectosilicate

Wavelength
1414.5, 0.397550
1414.89, 0.396549
1415.28, 0.395770
1415.66, 0.394954
1416.05, 0.394028
1416.44, 0.392693
1416.82, 0.391544
1417.21, 0.390580
1417.6, 0.389467
1417.98, 0.388540
1418.37, 0.387725
1418.76, 0.386613
1419.15, 0.385352
1419.54, 0.384536
1419.93, 0.383684
1420.32, 0.382460
1420.71, 0.381719
1421.09, 0.380866
1421.48, 0.379643
1421.88, 0.378679
1422.27, 0.378011
1422.66, 0.377122
1423.05, 0.375824
1423.44, 0.374786
1423.83, 0.374119
1424.22, 0.373488
1424.61, 0.372747
1425.0, 0.371894
1425.39, 0.371116
1425.78, 0.370077
1426.18, 0.368965
1426.57, 0.368224
1426.96, 0.367779
1427.36, 0.367445
1427.75, 0.366778
1428.14, 0.365777
1428.54, 0.365035
1428.93, 0.364516
1429.32, 0.363849
1429.72, 0.363404
1430.11, 0.362885
1430.51, 0.362218
1430.9, 0.361624
1431.3, 0.361142
1431.69, 0.360438
1432.09, 0.359845
1432.48, 0.359066
1432.88, 0.358436
1433.28, 0.357991
1433.67, 0.357509
1434.07, 0.356768
1434.46, 0.355841
1434.86, 0.355025
1435.26, 0.354469
1435.66, 0.353987
1436.05, 0.353097
1436.45, 0.351948
1436.85, 0.350836
1437.25, 0.349872
1437.65, 0.349130
1438.05, 0.347981
1438.44, 0.346720
1438.84, 0.345682
1439.24, 0.344607
1439.64, 0.343421
1440.04, 0.342234
1440.44, 0.340937
1440.84, 0.339565
1441.24, 0.338453
1441.65, 0.337786
1442.05, 0.336933
1442.45, 0.335821
1442.85, 0.335116
1443.25, 0.334820
1443.65, 0.334523
1444.05, 0.334263
1444.46, 0.334152
1444.86, 0.333930
1445.26, 0.334004
1445.67, 0.334338
1446.07, 0.334968
1446.47, 0.335561
1446.88, 0.336266
1447.28, 0.336710
1447.68, 0.337081
1448.09, 0.337674
1448.49, 0.338527
1448.9, 0.339194
1449.3, 0.339713
1449.71, 0.340418
1450.11, 0.341122
1450.52, 0.341827
1450.93, 0.342494
1451.33, 0.343013
1451.74, 0.343384
1452.14, 0.343717
1452.55, 0.344162
1452.96, 0.344793
1453.36, 0.345349
1453.77, 0.345645
1454.18, 0.345682
1454.59, 0.345868
1455.0, 0.346313
1455.41, 0.346795
1455.81, 0.347202
1456.22, 0.347091
1456.63, 0.347351
1457.04, 0.347684
1457.45, 0.347647
1457.86, 0.347536
1458.27, 0.347759
1458.68, 0.347684
1459.09, 0.347388
1459.5, 0.347499
1459.91, 0.347721
1460.32, 0.347759
1460.74, 0.347610
1461.15, 0.347425
1461.56, 0.347462
1461.97, 0.347425
1462.39, 0.347388
1462.8, 0.347425
1463.21, 0.347647
1463.62, 0.347870
1464.04, 0.347907
1464.45, 0.347944
1464.86, 0.348055
1465.28, 0.348426
1465.69, 0.349056
1466.11, 0.349390
1466.52, 0.349724
1466.94, 0.350317
1467.35, 0.350799
1467.77, 0.351392
1468.18, 0.352022
1468.6, 0.352208
1469.02, 0.352764
1469.43, 0.353653
1469.85, 0.354543
1470.27, 0.355173
1470.68, 0.355915
1471.1, 0.356656
1471.52, 0.357287
1471.94, 0.357769
1472.35, 0.358584
1472.77, 0.359140
1473.19, 0.359659
1473.61, 0.360030
1474.03, 0.360253
1474.45, 0.360401
1474.87, 0.360586
1475.29, 0.360623
1475.71, 0.360549
1476.13, 0.360586
1476.55, 0.360253
1476.97, 0.359993
1477.39, 0.359659
1477.81, 0.359103
1478.23, 0.358510
1478.65, 0.358102
1479.07, 0.357509
1479.5, 0.356768
1479.92, 0.355989
1480.34, 0.355359
1480.76, 0.354803
1481.19, 0.354210
1481.61, 0.353542
1482.03, 0.352838
1482.46, 0.352059
1482.88, 0.351577
1483.31, 0.351095
1483.73, 0.350539
1484.16, 0.350205
1484.58, 0.350280
1485.01, 0.350243
1485.43, 0.350280
1485.86, 0.350613
1486.28, 0.350725
1486.71, 0.350799
1487.14, 0.351169
1487.56, 0.351540
1487.99, 0.351800
1488.42, 0.352282
1488.84, 0.353060
1489.27, 0.353728
1489.7, 0.354098
1490.13, 0.354580
1490.56, 0.355211
1490.98, 0.355841
1491.41, 0.356323
1491.84, 0.356842
1492.27, 0.357250
1492.7, 0.357954
1493.13, 0.358881
1493.56, 0.359697
1493.99, 0.360364
1494.42, 0.360846
1494.85, 0.361550
1495.29, 0.362403
1495.72, 0.363182
1496.15, 0.363515
1496.58, 0.363997
1497.01, 0.364998
1497.44, 0.365888
1497.88, 0.366518
1498.31, 0.367074
1498.74, 0.367334
1499.18, 0.367890
1499.61, 0.368483
1500.04, 0.369076
1500.48, 0.369781
1500.91, 0.370559
1501.35, 0.371153
1501.78, 0.371523
1502.22, 0.371820
1502.65, 0.372154
1503.09, 0.372747
1503.53, 0.373266
1503.96, 0.373711
1504.4, 0.374193
1504.83, 0.374452
1505.27, 0.374675
1505.71, 0.375082
1506.15, 0.375787
1506.58, 0.376417
1507.02, 0.376825
1507.46, 0.377084
1507.9, 0.377455
1508.34, 0.377678
1508.78, 0.377937
1509.21, 0.378197
1509.66, 0.378679
1510.09, 0.379272
1510.53, 0.379717
1510.97, 0.380236
1511.42, 0.380421
1511.86, 0.380607
1512.3, 0.380718
1512.74, 0.380940
1513.18, 0.381200
1513.62, 0.381608
1514.06, 0.381793
1514.51, 0.381904
1514.95, 0.382275
1515.39, 0.382460
1515.83, 0.382720
1516.28, 0.382794
1516.72, 0.382794
1517.16, 0.383016
1517.61, 0.383276
1518.05, 0.383610
1518.5, 0.383980
1518.94, 0.384017
1519.39, 0.384054
1519.83, 0.384314
1520.28, 0.384425
1520.73, 0.384536
1521.17, 0.384574
1521.62, 0.384611
1522.07, 0.384685
1522.51, 0.384907
1522.96, 0.385130
1523.41, 0.385315
1523.85, 0.385352
1524.3, 0.385426
1524.75, 0.385463
1525.2, 0.385500
1525.65, 0.385612
1526.1, 0.385760
1526.55, 0.385797
1527.0, 0.385871
1527.45, 0.386019
1527.9, 0.386019
1528.35, 0.385982
1528.8, 0.386131
1529.25, 0.386242
1529.7, 0.386279
1530.15, 0.386242
1530.6, 0.386316
1531.05, 0.386279
1531.51, 0.386168
1531.96, 0.386242
1532.41, 0.386576
1532.87, 0.386538
1533.32, 0.386353
1533.77, 0.386464
1534.23, 0.386501
1534.68, 0.386353
1535.14, 0.386242
1535.59, 0.386168
1536.05, 0.386057
1536.5, 0.385908
1536.96, 0.385945
1537.41, 0.386094
1537.87, 0.386168
1538.32, 0.386019
1538.78, 0.386057
1539.24, 0.386057
1539.7, 0.386057
1540.15, 0.386019
1540.61, 0.385982
1541.07, 0.386057
1541.53, 0.386242
1541.98, 0.386464
1542.44, 0.386576
1542.9, 0.386650
1543.36, 0.386798
1543.82, 0.386909
1544.28, 0.386983
1544.74, 0.387169
1545.2, 0.387354
1545.66, 0.387502
1546.12, 0.387725
1546.59, 0.387725
1547.05, 0.388059
1547.51, 0.388244
1547.97, 0.388429
1548.43, 0.388615
1548.9, 0.388615
1549.36, 0.389022
1549.82, 0.389356
1550.29, 0.389282
1550.75, 0.389542
1551.21, 0.389727
1551.68, 0.389764
1552.14, 0.390135
1552.61, 0.390431
1553.07, 0.390580
1553.54, 0.390654
1554.0, 0.390691
1554.47, 0.390987
1554.93, 0.391173
1555.4, 0.391358
1555.87, 0.391284
1556.34, 0.391432
1556.8, 0.391655
1557.27, 0.391840
1557.74, 0.391914
1558.21, 0.392100
1558.68, 0.392174
1559.14, 0.392507
1559.61, 0.392656
1560.08, 0.392767
1560.55, 0.392952
1561.02, 0.392989
1561.49, 0.392952
1561.96, 0.392989
1562.43, 0.393212
1562.9, 0.393360
1563.38, 0.393508
1563.85, 0.393694
1564.32, 0.393731
1564.79, 0.393842
1565.26, 0.394139
1565.74, 0.394398
1566.21, 0.394361
1566.68, 0.394176
1567.16, 0.394213
1567.63, 0.394584
1568.1, 0.394732
1568.58, 0.394732
1569.05, 0.394509
1569.53, 0.394398
1570.0, 0.394472
1570.48, 0.394695
1570.96, 0.394880
1571.43, 0.394917
1571.91, 0.394695
1572.39, 0.394695
1572.86, 0.394584
1573.34, 0.394843
1573.82, 0.395103
1574.3, 0.394991
1574.77, 0.394732
1575.25, 0.394769
1575.73, 0.394843
1576.21, 0.394843
1576.69, 0.394954
1577.17, 0.395066
1577.65, 0.394880
1578.13, 0.394991
1578.61, 0.394991
1579.09, 0.394917
1579.57, 0.394954
1580.05, 0.394917
1580.54, 0.394695
1581.02, 0.394658
1581.5, 0.394621
1581.98, 0.394732
1582.47, 0.394732
1582.95, 0.394732
1583.43, 0.394621
1583.92, 0.394732
1584.4, 0.394880
1584.88, 0.395066
1585.37, 0.394954
1585.85, 0.394769
1586.34, 0.394695
1586.82, 0.394695
1587.31, 0.394658
1587.8, 0.394621
1588.28, 0.394769
1588.77, 0.394917
1589.26, 0.394917
1589.74, 0.394954
1590.23, 0.395029
1590.72, 0.395066
1591.21, 0.395214
1591.7, 0.395251
1592.19, 0.395103
1592.67, 0.395066
1593.16, 0.395288
1593.65, 0.395473
1594.14, 0.395436
1594.63, 0.395548
1595.12, 0.395659
1595.61, 0.395807
1596.11, 0.395844
1596.6, 0.396030
1597.09, 0.396252
1597.58, 0.396326
1598.08, 0.396549
1598.57, 0.396549
1599.06, 0.396549
1599.55, 0.396697
1600.05, 0.396734
1600.54, 0.396882
1601.04, 0.397031
1601.53, 0.397068
1602.03, 0.397105
1602.52, 0.397216
1603.02, 0.397364
1603.51, 0.397512
1604.01, 0.397512
1604.5, 0.397550
1605.0, 0.397735
1605.5, 0.397661
1606.0, 0.397772
1606.49, 0.397920
1606.99, 0.398069
1607.49, 0.398106
1607.99, 0.398069
1608.49, 0.398254
1608.99, 0.398328
1609.49, 0.398291
1609.99, 0.398365
1610.49, 0.398439
1610.99, 0.398476
1611.49, 0.398625
1611.99, 0.398773
1612.49, 0.398847
1612.99, 0.398884
1613.49, 0.398884
1614.0, 0.399033
1614.5, 0.399107
1615.0, 0.399255
1615.51, 0.399477
1616.01, 0.399589
1616.51, 0.399700
1617.02, 0.399848
1617.52, 0.399959
1618.03, 0.399885
1618.53, 0.399922
1619.04, 0.400293
1619.54, 0.400516
1620.05, 0.400478
1620.55, 0.400627
1621.06, 0.400664
1621.57, 0.400738
1622.08, 0.400738
1622.58, 0.400627
1623.09, 0.400701
1623.6, 0.400701
1624.11, 0.400775
1624.62, 0.401035
1625.13, 0.401257
1625.64, 0.401331
1626.15, 0.401257
1626.66, 0.401331
1627.17, 0.401479
1627.68, 0.401554
1628.19, 0.401591
1628.7, 0.401850
1629.21, 0.401850
1629.72, 0.401924
1630.24, 0.401924
1630.75, 0.402073
1631.26, 0.402332
1631.78, 0.402443
1632.29, 0.402295
1632.8, 0.402443
1633.32, 0.402555
1633.83, 0.402666
1634.35, 0.402703
1634.86, 0.402777
1635.38, 0.403074
1635.9, 0.403407
1636.41, 0.403407
1636.93, 0.403444
1637.45, 0.403482
1637.96, 0.403593
1638.48, 0.403815
1639.0, 0.404112
1639.52, 0.404223
1640.04, 0.404408
1640.56, 0.404742
1641.08, 0.404927
1641.59, 0.405076
1642.11, 0.405076
1642.63, 0.405372
1643.16, 0.405558
1643.68, 0.405854
1644.2, 0.406114
1644.72, 0.406410
1645.24, 0.406744
1645.76, 0.406892
1646.29, 0.407078
1646.81, 0.407263
1647.33, 0.407486
1647.86, 0.407819
1648.38, 0.408190
1648.9, 0.408227
1649.43, 0.408375
1649.95, 0.408561
1650.48, 0.408894
1651.0, 0.409117
1651.53, 0.409413
1652.06, 0.409747
1652.58, 0.409821
1653.11, 0.410044
1653.64, 0.410340
1654.17, 0.410377
1654.69, 0.410489
1655.22, 0.410822
1655.75, 0.411082
1656.28, 0.411378
1656.81, 0.411712
1657.34, 0.412009
1657.87, 0.412305
1658.4, 0.412491
1658.93, 0.412602
1659.46, 0.412713
1659.99, 0.412935
1660.52, 0.413269
1661.05, 0.413640
1661.59, 0.413825
1662.12, 0.414011
1662.65, 0.414344
1663.19, 0.414493
1663.72, 0.414456
1664.26, 0.414530
1664.79, 0.414678
1665.32, 0.414975
1665.86, 0.415345
1666.39, 0.415605
1666.93, 0.415827
1667.47, 0.416198
1668.0, 0.416383
1668.54, 0.416569
1669.08, 0.416828
1669.61, 0.417162
1670.15, 0.417384
1670.69, 0.417496
1671.23, 0.417681
1671.77, 0.417866
1672.31, 0.418052
1672.85, 0.418311
1673.39, 0.418608
1673.93, 0.419053
1674.47, 0.419275
1675.01, 0.419312
1675.55, 0.419461
1676.09, 0.419720
1676.64, 0.420054
1677.18, 0.420165
1677.72, 0.420313
1678.26, 0.420610
1678.81, 0.421055
1679.35, 0.421351
1679.89, 0.421574
1680.44, 0.421648
1680.98, 0.421537
1681.53, 0.421833
1682.07, 0.422019
1682.62, 0.422130
1683.17, 0.422389
1683.71, 0.422760
1684.26, 0.422871
1684.81, 0.423020
1685.36, 0.423391
1685.9, 0.423576
1686.45, 0.423687
1687.0, 0.423947
1687.55, 0.424169
1688.1, 0.424280
1688.65, 0.424280
1689.2, 0.424503
1689.75, 0.424799
1690.3, 0.425096
1690.85, 0.425170
1691.41, 0.425467
1691.96, 0.425837
1692.51, 0.425986
1693.06, 0.426023
1693.61, 0.426282
1694.17, 0.426653
1694.72, 0.426876
1695.28, 0.426950
1695.83, 0.427172
1696.39, 0.427246
1696.94, 0.427320
1697.5, 0.427395
1698.05, 0.427654
1698.61, 0.427839
1699.17, 0.427988
1699.72, 0.428136
1700.28, 0.428210
1700.84, 0.428321
1701.4, 0.428544
1701.95, 0.428692
1702.51, 0.428766
1703.07, 0.428766
1703.63, 0.428878
1704.19, 0.428840
1704.75, 0.428803
1705.31, 0.428989
1705.88, 0.429026
1706.44, 0.429063
1707.0, 0.429063
1707.56, 0.429174
1708.12, 0.429248
1708.69, 0.429211
1709.25, 0.429285
1709.81, 0.429285
1710.38, 0.429211
1710.94, 0.429137
1711.51, 0.429174
1712.07, 0.429100
1712.64, 0.429026
1713.2, 0.428878
1713.77, 0.428840
1714.34, 0.428692
1714.9, 0.428618
1715.47, 0.428581
1716.04, 0.428396
1716.61, 0.428284
1717.18, 0.428173
1717.74, 0.428062
1718.31, 0.427877
1718.88, 0.427654
1719.45, 0.427543
1720.02, 0.427506
1720.59, 0.427395
1721.17, 0.427061
1721.74, 0.426653
1722.31, 0.426431
1722.88, 0.426356
1723.45, 0.426208
1724.03, 0.426023
1724.6, 0.425949
1725.18, 0.425837
1725.75, 0.425578
1726.33, 0.425393
1726.9, 0.425170
1727.48, 0.425096
1728.05, 0.425096
1728.63, 0.425022
1729.2, 0.424874
1729.78, 0.424799
1730.36, 0.424948
1730.94, 0.424911
1731.51, 0.424911
1732.09, 0.424948
1732.67, 0.424985
1733.25, 0.425059
1733.83, 0.425096
1734.41, 0.425318
1734.99, 0.425504
1735.57, 0.425652
1736.15, 0.425689
1736.73, 0.425837
1737.32, 0.426023
1737.9, 0.426208
1738.48, 0.426356
1739.07, 0.426394
1739.65, 0.426431
1740.23, 0.426579
1740.82, 0.426690
1741.4, 0.426950
1741.99, 0.427024
1742.57, 0.427098
1743.16, 0.427395
1743.74, 0.427617
1744.33, 0.427617
1744.92, 0.427506
1745.51, 0.427506
1746.09, 0.427765
1746.68, 0.427988
1747.27, 0.428099
1747.86, 0.428136
1748.45, 0.428396
1749.04, 0.428470
1749.63, 0.428729
1750.22, 0.428840
1750.81, 0.428989
1751.4, 0.429100
1751.99, 0.429397
1752.59, 0.429619
1753.18, 0.429916
1753.77, 0.430138
1754.37, 0.430286
1754.96, 0.430360
1755.56, 0.430583
1756.15, 0.430917
1756.74, 0.431250
1757.34, 0.431399
1757.94, 0.431584
1758.53, 0.431955
1759.13, 0.432325
1759.73, 0.432400
1760.32, 0.432548
1760.92, 0.432807
1761.52, 0.433030
1762.12, 0.433215
1762.72, 0.433326
1763.32, 0.433475
1763.92, 0.433623
1764.52, 0.433808
1765.12, 0.434105
1765.72, 0.434439
1766.32, 0.434587
1766.92, 0.434439
1767.53, 0.434624
1768.13, 0.434735
1768.73, 0.434846
1769.34, 0.435032
1769.94, 0.435291
1770.55, 0.435403
1771.15, 0.435440
1771.76, 0.435477
1772.36, 0.435625
1772.97, 0.435625
1773.57, 0.435773
1774.18, 0.435996
1774.79, 0.436144
1775.4, 0.436218
1776.0, 0.436329
1776.61, 0.436404
1777.22, 0.436552
1777.83, 0.436663
1778.44, 0.436849
1779.05, 0.436960
1779.66, 0.437071
1780.27, 0.437182
1780.88, 0.437256
1781.5, 0.437256
1782.11, 0.437479
1782.72, 0.437812
1783.33, 0.437961
1783.95, 0.438146
1784.56, 0.438257
1785.18, 0.438369
1785.79, 0.438443
1786.41, 0.438591
1787.02, 0.438776
1787.64, 0.438814
1788.26, 0.438888
1788.87, 0.439036
1789.49, 0.439110
1790.11, 0.439258
1790.73, 0.439444
1791.35, 0.439629
1791.96, 0.439629
1792.58, 0.439740
1793.21, 0.439889
1793.83, 0.440000
1794.45, 0.440111
1795.07, 0.440222
1795.69, 0.440334
1796.31, 0.440408
1796.93, 0.440593
1797.56, 0.440816
1798.18, 0.441001
1798.8, 0.441186
1799.43, 0.441297
1800.05, 0.441335
1800.68, 0.441557
1801.3, 0.441594
1801.93, 0.441557
1802.56, 0.441742
1803.18, 0.441854
1803.81, 0.442076
1804.44, 0.442113
1805.07, 0.442187
1805.7, 0.442261
1806.33, 0.442447
1806.95, 0.442521
1807.58, 0.442558
1808.22, 0.442595
1808.85, 0.442706
1809.48, 0.442892
1810.11, 0.442966
1810.74, 0.443003
1811.38, 0.443077
1812.01, 0.443262
1812.64, 0.443448
1813.28, 0.443596
1813.91, 0.443707
1814.55, 0.443930
1815.18, 0.443893
1815.82, 0.443967
1816.45, 0.444152
1817.09, 0.444263
1817.73, 0.444486
1818.36, 0.444486
1819.0, 0.444597
1819.64, 0.444708
1820.28, 0.444745
1820.92, 0.444857
1821.56, 0.445005
1822.2, 0.445153
1822.84, 0.445376
1823.48, 0.445487
1824.12, 0.445487
1824.76, 0.445524
1825.41, 0.445339
1826.05, 0.445005
1826.69, 0.445339
1827.34, 0.445635
1827.98, 0.445561
1828.63, 0.445524
1829.27, 0.445635
1829.92, 0.445598
1830.56, 0.445413
1831.21, 0.445413
1831.86, 0.445413
1832.5, 0.445487
1833.15, 0.445598
1833.8, 0.445561
1834.45, 0.445376
1835.1, 0.445190
1835.75, 0.445079
1836.4, 0.445153
1837.05, 0.445153
1837.7, 0.445042
1838.35, 0.445339
1839.01, 0.445302
1839.66, 0.445005
1840.31, 0.445079
1840.96, 0.445079
1841.62, 0.444820
1842.27, 0.444968
1842.93, 0.445190
1843.58, 0.445376
1844.24, 0.445339
1844.9, 0.445264
1845.55, 0.445302
1846.21, 0.444894
1846.87, 0.444338
1847.53, 0.444263
1848.18, 0.444338
1848.84, 0.444597
1849.5, 0.444634
1850.16, 0.444560
1850.82, 0.444486
1851.48, 0.444263
1852.14, 0.443930
1852.81, 0.443559
1853.47, 0.443188
1854.13, 0.443003
1854.8, 0.443114
1855.46, 0.442818
1856.12, 0.442150
1856.79, 0.441854
1857.45, 0.441742
1858.12, 0.441297
1858.79, 0.440704
1859.45, 0.439889
1860.12, 0.439592
1860.79, 0.439407
1861.46, 0.439036
1862.12, 0.438480
1862.79, 0.437961
1863.46, 0.437219
1864.13, 0.436367
1864.8, 0.435662
1865.48, 0.434921
1866.15, 0.434216
1866.82, 0.433215
1867.49, 0.432029
1868.16, 0.431436
1868.84, 0.430768
1869.51, 0.429693
1870.19, 0.428396
1870.86, 0.427061
1871.54, 0.426394
1872.21, 0.425318
1872.89, 0.423835
1873.56, 0.422983
1874.24, 0.422130
1874.92, 0.420869
1875.6, 0.419646
1876.28, 0.418163
1876.96, 0.416569
1877.64, 0.415419
1878.32, 0.414048
1879.0, 0.412602
1879.68, 0.411008
1880.36, 0.409376
1881.04, 0.407782
1881.73, 0.406299
1882.41, 0.404483
1883.09, 0.402369
1883.78, 0.400293
1884.46, 0.398625
1885.15, 0.396734
1885.83, 0.394621
1886.52, 0.392545
1887.21, 0.390468
1887.89, 0.388392
1888.58, 0.386168
1889.27, 0.383535
1889.96, 0.380829
1890.65, 0.378493
1891.34, 0.376083
1892.03, 0.373488
1892.72, 0.370745
1893.41, 0.367927
1894.1, 0.365147
1894.79, 0.362329
1895.49, 0.359400
1896.18, 0.356508
1896.87, 0.353468
1897.57, 0.350131
1898.26, 0.346795
1898.96, 0.343235
1899.65, 0.339862
1900.35, 0.336785
1901.05, 0.333522
1901.74, 0.330000
1902.44, 0.326292
1903.14, 0.322882
1903.84, 0.319730
1904.54, 0.316468
1905.24, 0.313205
1905.94, 0.310350
1906.64, 0.307607
1907.34, 0.305049
1908.04, 0.302491
1908.75, 0.299858
1909.45, 0.297523
1910.15, 0.295261
1910.86, 0.293111
1911.56, 0.290960
1912.27, 0.289033
1912.97, 0.287179
1913.68, 0.285325
1914.39, 0.283509
1915.09, 0.281840
1915.8, 0.280023
1916.51, 0.278281
1917.22, 0.276501
1917.93, 0.274722
1918.64, 0.272979
1919.35, 0.270903
1920.06, 0.268827
1920.77, 0.266899
1921.48, 0.265045
1922.19, 0.262821
1922.91, 0.260671
1923.62, 0.258409
1924.33, 0.255888
1925.05, 0.253515
1925.76, 0.250957
1926.48, 0.248214
1927.19, 0.245248
1927.91, 0.242170
1928.63, 0.238945
1929.35, 0.235645
1930.07, 0.232272
1930.78, 0.228712
1931.5, 0.224857
1932.22, 0.221038
1932.94, 0.217182
1933.66, 0.213438
1934.39, 0.209730
1935.11, 0.206060
1935.83, 0.202649
1936.55, 0.199572
1937.28, 0.196754
1938.0, 0.194270
1938.73, 0.192268
1939.45, 0.190711
1940.18, 0.189413
1940.9, 0.188524
1941.63, 0.187893
1942.36, 0.187337
1943.09, 0.187263
1943.81, 0.187597
1944.54, 0.188524
1945.27, 0.189933
1946.0, 0.191786
1946.73, 0.194344
1947.47, 0.197607
1948.2, 0.201314
1948.93, 0.205726
1949.66, 0.210620
1950.4, 0.215773
1951.13, 0.221223
1951.86, 0.226747
1952.6, 0.232272
1953.34, 0.237759
1954.07, 0.243060
1954.81, 0.248251
1955.55, 0.253070
1956.29, 0.257593
1957.02, 0.261746
1957.76, 0.265527
1958.5, 0.268790
1959.24, 0.271756
1959.98, 0.274277
1960.72, 0.276353
1961.47, 0.278021
1962.21, 0.279171
1962.95, 0.279949
1963.7, 0.280468
1964.44, 0.280617
1965.18, 0.280543
1965.93, 0.280283
1966.67, 0.279653
1967.42, 0.278837
1968.17, 0.277725
1968.92, 0.276539
1969.66, 0.275352
1970.41, 0.274277
1971.16, 0.273128
1971.91, 0.272164
1972.66, 0.271348
1973.41, 0.270792
1974.16, 0.270495
1974.92, 0.270644
1975.67, 0.271237
1976.42, 0.272201
1977.18, 0.273535
1977.93, 0.275204
1978.69, 0.277132
1979.44, 0.279060
1980.2, 0.281099
1980.95, 0.283471
1981.71, 0.285881
1982.47, 0.288254
1983.23, 0.290553
1983.99, 0.292777
1984.74, 0.294927
1985.51, 0.297152
1986.27, 0.299265
1987.03, 0.301304
1987.79, 0.303195
1988.55, 0.304975
1989.32, 0.306643
1990.08, 0.308200
1990.84, 0.309868
1991.61, 0.311389
1992.37, 0.312649
1993.14, 0.313984
1993.9, 0.315281
1994.67, 0.316394
1995.44, 0.317320
1996.21, 0.318321
1996.98, 0.319211
1997.75, 0.319953
1998.52, 0.320472
1999.29, 0.321028
2000.06, 0.321621
2000.83, 0.322140
2001.6, 0.322474
2002.38, 0.322807
2003.15, 0.323067
2003.93, 0.323252
2004.7, 0.323326
2005.48, 0.323438
2006.25, 0.323512
2007.03, 0.323401
2007.81, 0.323401
2008.58, 0.323549
2009.36, 0.323512
2010.14, 0.323438
2010.92, 0.323549
2011.7, 0.323808
2012.48, 0.323920
2013.26, 0.323957
2014.05, 0.324142
2014.83, 0.324328
2015.61, 0.324624
2016.4, 0.324995
2017.18, 0.325403
2017.97, 0.325810
2018.75, 0.326218
2019.54, 0.326626
2020.32, 0.327145
2021.11, 0.327553
2021.9, 0.327998
2022.69, 0.328369
2023.48, 0.328888
2024.27, 0.329481
2025.06, 0.329852
2025.85, 0.330111
2026.64, 0.330445
2027.44, 0.330853
2028.23, 0.331260
2029.02, 0.331668
2029.82, 0.332113
2030.61, 0.332410
2031.41, 0.332743
2032.2, 0.333300
2033.0, 0.333856
2033.8, 0.334263
2034.6, 0.334671
2035.4, 0.335153
2036.2, 0.335746
2037.0, 0.336414
2037.8, 0.336970
2038.6, 0.337378
2039.4, 0.337971
2040.2, 0.338787
2041.01, 0.339528
2041.81, 0.340047
2042.61, 0.340677
2043.42, 0.341530
2044.22, 0.342234
2045.03, 0.342791
2045.84, 0.343458
2046.65, 0.344014
2047.46, 0.344607
2048.26, 0.345238
2049.07, 0.345757
2049.88, 0.346164
2050.69, 0.346498
2051.51, 0.346795
2052.32, 0.346943
2053.13, 0.347054
2053.94, 0.347128
2054.76, 0.347165
2055.57, 0.347017
2056.39, 0.346906
2057.2, 0.346906
2058.02, 0.346683
2058.84, 0.346350
2059.66, 0.346350
2060.48, 0.346461
2061.29, 0.346461
2062.11, 0.346758
2062.94, 0.347128
2063.76, 0.347425
2064.58, 0.347833
2065.4, 0.348611
2066.22, 0.349575
2067.05, 0.350539
2067.87, 0.351651
2068.7, 0.352912
2069.52, 0.354284
2070.35, 0.355581
2071.18, 0.357027
2072.0, 0.358473
2072.83, 0.359771
2073.66, 0.361068
2074.49, 0.362477
2075.32, 0.363923
2076.15, 0.365332
2076.98, 0.366555
2077.82, 0.367705
2078.65, 0.368780
2079.48, 0.369781
2080.32, 0.370893
2081.15, 0.371931
2081.99, 0.372747
2082.83, 0.373674
2083.66, 0.374563
2084.5, 0.375416
2085.34, 0.376083
2086.18, 0.376862
2087.02, 0.377529
2087.86, 0.378271
2088.7, 0.379012
2089.54, 0.379680
2090.39, 0.380199
2091.23, 0.380607
2092.07, 0.381163
2092.92, 0.381830
2093.76, 0.382460
2094.61, 0.382979
2095.45, 0.383535
2096.3, 0.384017
2097.15, 0.384499
2098.0, 0.384944
2098.85, 0.385389
2099.7, 0.385871
2100.55, 0.386316
2101.4, 0.386687
2102.25, 0.387095
2103.1, 0.387688
2103.96, 0.388133
2104.81, 0.388318
2105.67, 0.388652
2106.52, 0.388948
2107.38, 0.389171
2108.24, 0.389393
2109.09, 0.389764
2109.95, 0.390135
2110.81, 0.390246
2111.67, 0.390505
2112.53, 0.390802
2113.39, 0.391024
2114.25, 0.391173
2115.12, 0.391210
2115.98, 0.391210
2116.84, 0.391358
2117.71, 0.391506
2118.58, 0.391765
2119.44, 0.391580
2120.31, 0.391322
2121.18, 0.391580
2122.04, 0.391765
2122.91, 0.391359
2123.78, 0.390878
2124.65, 0.391063
2125.52, 0.391322
2126.4, 0.391174
2127.27, 0.390730
2128.14, 0.390472
2129.02, 0.390028
2129.89, 0.389511
2130.77, 0.389215
2131.64, 0.389511
2132.52, 0.389474
2133.4, 0.389178
2134.27, 0.388808
2135.15, 0.388439
2136.03, 0.387958
2136.91, 0.387404
2137.79, 0.387034
2138.68, 0.387108
2139.56, 0.387108
2140.44, 0.386960
2141.33, 0.386739
2142.21, 0.386554
2143.1, 0.386184
2143.99, 0.385778
2144.87, 0.385297
2145.76, 0.385076
2146.65, 0.384706
2147.54, 0.384484
2148.43, 0.384373
2149.32, 0.384004
2150.21, 0.383671
2151.1, 0.383265
2151.99, 0.382895
2152.89, 0.382673
2153.78, 0.382710
2154.68, 0.382710
2155.57, 0.382045
2156.47, 0.381860
2157.37, 0.381823
2158.27, 0.381638
2159.16, 0.381232
2160.06, 0.381047
2160.96, 0.381084
2161.86, 0.380419
2162.77, 0.380086
2163.67, 0.379901
2164.57, 0.379827
2165.48, 0.379717
2166.38, 0.379458
2167.29, 0.379051
2168.2, 0.378571
2169.1, 0.378423
2170.01, 0.378386
2170.92, 0.378719
2171.83, 0.378645
2172.74, 0.378497
2173.65, 0.378497
2174.56, 0.378571
2175.47, 0.378645
2176.39, 0.378460
2177.3, 0.378275
2178.22, 0.378238
2179.13, 0.378201
2180.05, 0.378164
2180.96, 0.378090
2181.88, 0.378312
2182.8, 0.378275
2183.72, 0.378275
2184.64, 0.378201
2185.56, 0.378423
2186.48, 0.378349
2187.41, 0.378608
2188.33, 0.378829
2189.25, 0.378940
2190.18, 0.378903
2191.1, 0.378497
2192.03, 0.378460
2192.96, 0.378940
2193.89, 0.379125
2194.82, 0.379273
2195.74, 0.379347
2196.68, 0.379273
2197.61, 0.379236
2198.54, 0.379125
2199.47, 0.379199
2200.4, 0.379162
2201.34, 0.379384
2202.28, 0.379680
2203.21, 0.379717
2204.15, 0.380012
2205.08, 0.380234
2206.02, 0.380308
2206.96, 0.380493
2207.9, 0.380456
2208.84, 0.380456
2209.78, 0.380714
2210.73, 0.380862
2211.67, 0.381121
2212.61, 0.381158
2213.56, 0.381047
2214.5, 0.381380
2215.45, 0.381786
2216.4, 0.381712
2217.35, 0.381601
2218.3, 0.381934
2219.24, 0.382082
2220.2, 0.382193
2221.15, 0.382378
2222.1, 0.382562
2223.05, 0.382969
2224.0, 0.382969
2224.96, 0.383117
2225.91, 0.383560
2226.87, 0.383930
2227.83, 0.384115
2228.79, 0.384115
2229.74, 0.384115
2230.7, 0.384336
2231.66, 0.384447
2232.63, 0.384854
2233.59, 0.385076
2234.55, 0.384854
2235.51, 0.385002
2236.48, 0.385186
2237.44, 0.385223
2238.41, 0.385371
2239.38, 0.385704
2240.34, 0.385667
2241.31, 0.385482
2242.28, 0.385926
2243.25, 0.386221
2244.22, 0.386295
2245.19, 0.386295
2246.17, 0.386184
2247.14, 0.386406
2248.12, 0.386776
2249.09, 0.386665
2250.07, 0.386443
2251.04, 0.386517
2252.02, 0.386702
2253.0, 0.386665
2253.98, 0.386665
2254.96, 0.386776
2255.94, 0.386924
2256.92, 0.386887
2257.91, 0.386960
2258.89, 0.386924
2259.88, 0.387034
2260.86, 0.386628
2261.85, 0.386665
2262.83, 0.386813
2263.82, 0.386665
2264.81, 0.386480
2265.8, 0.386369
2266.79, 0.386258
2267.78, 0.386332
2268.78, 0.386332
2269.77, 0.386036
2270.76, 0.385593
2271.76, 0.385556
2272.75, 0.385445
2273.75, 0.385260
2274.75, 0.385113
2275.75, 0.385186
2276.75, 0.384854
2277.75, 0.384447
2278.75, 0.384078
2279.75, 0.384041
2280.75, 0.383967
2281.76, 0.383819
2282.76, 0.383597
2283.77, 0.383375
2284.77, 0.382858
2285.78, 0.382341
2286.79, 0.382415
2287.8, 0.382119
2288.81, 0.381749
2289.82, 0.381343
2290.83, 0.380862
2291.84, 0.380604
2292.86, 0.380012
2293.87, 0.379421
2294.89, 0.379125
2295.91, 0.378793
2296.92, 0.378275
2297.94, 0.377721
2298.96, 0.377240
2299.98, 0.376797
2301.0, 0.376390
2302.02, 0.376095
2303.04, 0.375503
2304.07, 0.375134
2305.09, 0.374505
2306.12, 0.373877
2307.15, 0.373397
2308.17, 0.373360
2309.2, 0.373027
2310.23, 0.372325
2311.26, 0.371549
2312.29, 0.370920
2313.32, 0.370551
2314.35, 0.370144
2315.39, 0.369738
2316.42, 0.369368
2317.46, 0.368666
2318.5, 0.368001
2319.53, 0.367114
2320.57, 0.366448
2321.61, 0.365931
2322.65, 0.364970
2323.69, 0.364083
2324.73, 0.363381
2325.78, 0.362531
2326.82, 0.361459
2327.86, 0.360720
2328.91, 0.359648
2329.96, 0.358724
2331.01, 0.357874
2332.05, 0.356913
2333.1, 0.355989
2334.15, 0.354806
2335.21, 0.353513
2336.26, 0.352515
2337.31, 0.351258
2338.36, 0.349817
2339.42, 0.348930
2340.48, 0.348006
2341.53, 0.346601
2342.59, 0.345271
2343.65, 0.344014
2344.71, 0.342462
2345.77, 0.340910
2346.83, 0.339579
2347.9, 0.338433
2348.96, 0.336770
2350.02, 0.335181
2351.09, 0.333703
2352.16, 0.332039
2353.23, 0.330598
2354.29, 0.329304
2355.36, 0.327937
2356.43, 0.326200
2357.51, 0.324167
2358.58, 0.322615
2359.65, 0.320767
2360.73, 0.318845
2361.8, 0.317071
2362.88, 0.315260
2363.96, 0.313264
2365.03, 0.311269
2366.11, 0.309310
2367.19, 0.307240
2368.27, 0.305244
2369.36, 0.303211
2370.44, 0.301142
2371.53, 0.299183
2372.61, 0.296707
2373.7, 0.294304
2374.78, 0.291976
2375.87, 0.289537
2376.96, 0.287245
2378.05, 0.284732
2379.14, 0.282071
2380.24, 0.279558
2381.33, 0.276823
2382.42, 0.274051
2383.52, 0.271316
2384.61, 0.268618
2385.71, 0.266031
2386.81, 0.263370
2387.91, 0.260598
2389.01, 0.258011
2390.11, 0.255534
2391.22, 0.253169
2392.32, 0.250619
2393.42, 0.248180
2394.53, 0.245777
2395.64, 0.243671
2396.74, 0.241786
2397.85, 0.240196
2398.96, 0.238607
2400.07, 0.237055
2401.18, 0.235872
2402.3, 0.234763
2403.41, 0.233618
2404.52, 0.232657
2405.64, 0.232102
2406.76, 0.231991
2407.88, 0.231437
2408.99, 0.230809
2410.11, 0.230624
2411.23, 0.230328
2412.36, 0.229737
2413.48, 0.229404
2414.6, 0.229072
2415.73, 0.228480
2416.85, 0.227815
2417.98, 0.227372
2419.11, 0.227039
2420.24, 0.226448
2421.37, 0.225708
2422.5, 0.225080
2423.64, 0.224489
2424.77, 0.223602
2425.9, 0.222382
2427.04, 0.221643
2428.18, 0.221162
2429.31, 0.220534
2430.45, 0.219647
2431.59, 0.218834
2432.73, 0.217947
2433.88, 0.216986
2435.02, 0.216284
2436.16, 0.215730
2437.31, 0.215101
2438.45, 0.214251
2439.6, 0.213438
2440.75, 0.212625
2441.9, 0.211775
2443.05, 0.211036
2444.2, 0.210260
2445.35, 0.209520
2446.51, 0.208633
2447.67, 0.207709
2448.82, 0.206933
2449.98, 0.206342
2451.14, 0.205492
2452.3, 0.204679
2453.46, 0.203866
2454.62, 0.203090
2455.78, 0.202313
2456.94, 0.201944
2458.11, 0.201463
2459.28, 0.200835
2460.44, 0.200392
2461.61, 0.200170
2462.78, 0.199911
2463.95, 0.199948
2465.12, 0.199874
2466.3, 0.199689
2467.47, 0.199615
2468.65, 0.199726
2469.82, 0.199837
2471.0, 0.200170
2472.18, 0.200502
2473.36, 0.200798
2474.54, 0.200872
2475.72, 0.201094
2476.9, 0.201242
2478.08, 0.201353
2479.27, 0.201463
2480.46, 0.201611
2481.64, 0.201833
2482.83, 0.201870
2484.02, 0.201796
2485.21, 0.201944
2486.4, 0.202166
2487.6, 0.202240
2488.79, 0.202276
2489.99, 0.202276
2491.18, 0.202129
2492.38, 0.202018
2493.58, 0.201907
2494.78, 0.201833
2495.98, 0.201574
2497.18, 0.201242
2498.39, 0.200909
2499.59, 0.200761
2500.8, 0.200539
2502.01, 0.200096
2503.21, 0.199394
2504.42, 0.198987
2505.63, 0.198618
2506.84, 0.198063
2508.06, 0.197398
2509.27, 0.196770
2510.49, 0.196215
2511.7, 0.195809
2512.92, 0.195439
2514.14, 0.195106
2515.36, 0.194441
2516.58, 0.193924
2517.8, 0.193480
2519.03, 0.193443
2520.25, 0.193185
2521.48, 0.192815
2522.7, 0.192519
2523.93, 0.192039
2525.16, 0.191632
2526.39, 0.191447
2527.62, 0.190967
2528.86, 0.190634
2530.09, 0.190228
2531.33, 0.189821
2532.56, 0.189636
2533.8, 0.189452
2535.04, 0.189082
2536.28, 0.188786
2537.52, 0.188934
2538.76, 0.189230
2540.01, 0.189267
2541.25, 0.189119
2542.5, 0.188676
2543.75, 0.188971
2544.99, 0.189378
2546.24, 0.189267
2547.49, 0.189008
2548.75, 0.189526
2550.0, 0.189526
2551.26, 0.189378
2552.51, 0.189304
2553.77, 0.189821
2555.03, 0.190339
2556.29, 0.190671
2557.55, 0.190782
2558.81, 0.190413
2560.08, 0.189304
2561.34, 0.188380
2562.61, 0.188232
2563.88, 0.188380
2565.14, 0.189489
2566.41, 0.190671
2567.68, 0.190154
2568.96, 0.188786
2570.23, 0.188749
2571.51, 0.189119
2572.78, 0.187604
2574.06, 0.187826
2575.34, 0.188232
2576.62, 0.187493
2577.9, 0.188047
2579.18, 0.188417
2580.47, 0.187493
2581.75, 0.187419
2583.04, 0.186088
2584.32, 0.186088
2585.61, 0.187530
2586.9, 0.187123
2588.2, 0.187567
2589.49, 0.188602
2590.78, 0.189341
2592.08, 0.188823
2593.37, 0.185497
2594.67, 0.182540
2595.97, 0.185682
2597.27, 0.189267
2598.57, 0.190634
2599.88, 0.190376
2601.18, 0.189747
2602.49, 0.189341
2603.79, 0.188269
2605.1, 0.187123
2606.41, 0.188010
2607.72, 0.189304
2609.03, 0.189415
2610.35, 0.189747
2611.66, 0.190302
2612.98, 0.190043
2614.3, 0.189784
2615.62, 0.187862
2616.94, 0.186680
2618.26, 0.188158
2619.58, 0.187123
2620.91, 0.187123
2622.23, 0.189008
2623.56, 0.189415
2624.89, 0.188343
2626.22, 0.186495
2627.55, 0.187123
2628.88, 0.186495
2630.21, 0.184499
2631.55, 0.185793
2632.89, 0.186458
2634.22, 0.186310
2635.56, 0.186791
2636.9, 0.186569
2638.25, 0.186273
2639.59, 0.185719
2640.93, 0.184832
2642.28, 0.184167
2643.63, 0.183538
2644.98, 0.182245
2646.33, 0.181653
2647.68, 0.181506
2649.03, 0.181062
2650.39, 0.179990
2651.74, 0.178253
2653.1, 0.177588
2654.46, 0.177218
2655.82, 0.176368
2657.18, 0.175925
2658.54, 0.174372
2659.9, 0.172968
2661.27, 0.172192
2662.64, 0.171231
2664.01, 0.168126
2665.38, 0.165281
2666.74, 0.164394
2668.12, 0.164652
2669.49, 0.161732
2670.87, 0.160365
2672.24, 0.162139
2673.62, 0.161622
2675.0, 0.159034
2676.38, 0.156078
2677.76, 0.155080
2679.15, 0.154119
2680.54, 0.154045
2681.92, 0.152751
2683.31, 0.150793
2684.7, 0.149166
2686.09, 0.147540
2687.48, 0.146025
2688.88, 0.144362
2690.27, 0.142551
2691.67, 0.140038
2693.07, 0.136526
2694.47, 0.134124
2695.87, 0.132868
2697.27, 0.131574
2698.67, 0.129467
2700.08, 0.126621
2701.49, 0.123997
2702.9, 0.122149
2704.31, 0.119821
2705.72, 0.117160
2707.13, 0.114203
2708.54, 0.110840
2709.96, 0.107403
2711.38, 0.105037
2712.8, 0.103670
2714.22, 0.101563
2715.64, 0.0989760
2717.06, 0.0962040
2718.49, 0.0931370
2719.91, 0.0894040
2721.34, 0.0872230
2722.77, 0.0852640
2724.2, 0.0823820
2725.63, 0.0805710
2727.07, 0.0789070
2728.5, 0.0768380
2729.94, 0.0745460
2731.38, 0.0722550
2732.82, 0.0698160
2734.26, 0.0671540
2735.7, 0.0651960
2737.15, 0.0633480
2738.59, 0.0607610
2740.04, 0.0585430
2741.49, 0.0571020
2742.94, 0.0560670
2744.39, 0.0545880
2745.84, 0.0529250
2747.3, 0.0512620
2748.76, 0.0497470
2750.21, 0.0480470
2751.67, 0.0464570
2753.14, 0.0448680
2754.6, 0.0427620
2756.06, 0.0412460
2757.53, 0.0403960
2759.0, 0.0391030
2760.46, 0.0374760
2761.94, 0.0357390
2763.41, 0.0343720
2764.88, 0.0331520
2766.36, 0.0318220
2767.83, 0.0305280
2769.31, 0.0292720
2770.79, 0.0279780
2772.27, 0.0270170
2773.76, 0.0261670
2775.24, 0.0253170
2776.73, 0.0245040
2778.22, 0.0238390
2779.71, 0.0230990
2781.2, 0.0224710
2782.69, 0.0222490
2784.18, 0.0221750
2785.68, 0.0221010
2787.18, 0.0222490
2788.68, 0.0226930
2790.18, 0.0231730
2791.68, 0.0236540
2793.19, 0.0241710
2794.69, 0.0248360
2796.2, 0.0254650
2797.71, 0.0260190
2799.22, 0.0264630
2800.73, 0.0267950
2802.24, 0.0270170
2803.76, 0.0273870
2805.28, 0.0278300
2806.8, 0.0282000
2808.32, 0.0284950
2809.84, 0.0287170
2811.36, 0.0288280
2812.89, 0.0287540
2814.42, 0.0285690
2815.94, 0.0283110
2817.48, 0.0280520
2819.01, 0.0276820
2820.54, 0.0273130
2822.08, 0.0267950
2823.61, 0.0262040
2825.15, 0.0256130
2826.69, 0.0248360
2828.23, 0.0240230
2829.78, 0.0233950
2831.32, 0.0227670
2832.87, 0.0220650
2834.42, 0.0212510
2835.97, 0.0205490
2837.52, 0.0199580
2839.08, 0.0195140
2840.63, 0.0189970
2842.19, 0.0187750
2843.75, 0.0187750
2845.31, 0.0188120
2846.87, 0.0189600
2848.44, 0.0193670
2850.0, 0.0197360
2851.57, 0.0201800
2853.14, 0.0207340
2854.71, 0.0213620
2856.28, 0.0220650
2857.86, 0.0227300
2859.43, 0.0232100
2861.01, 0.0238020
2862.59, 0.0244670
2864.17, 0.0250580
2865.76, 0.0256130
2867.34, 0.0262040
2868.93, 0.0266470
2870.52, 0.0270170
2872.11, 0.0273500
2873.7, 0.0277560
2875.29, 0.0280520
2876.89, 0.0280150
2878.49, 0.0279780
2880.08, 0.0280520
2881.69, 0.0280520
2883.29, 0.0278670
2884.89, 0.0275340
2886.5, 0.0272390
2888.11, 0.0269800
2889.72, 0.0267580
2891.33, 0.0263890
2892.94, 0.0259820
2894.56, 0.0255020
2896.17, 0.0250950
2897.79, 0.0248360
2899.42, 0.0244670
2901.04, 0.0241340
2902.66, 0.0236540
2904.29, 0.0232100
2905.92, 0.0229520
2907.55, 0.0228040
2909.18, 0.0225450
2910.81, 0.0223230
2912.45, 0.0222120
2914.08, 0.0220650
2915.72, 0.0219910
2917.36, 0.0219170
2919.01, 0.0218060
2920.65, 0.0217690
2922.3, 0.0218430
2923.94, 0.0219540
2925.59, 0.0221750
2927.25, 0.0225080
2928.9, 0.0228040
2930.56, 0.0230990
2932.21, 0.0235060
2933.87, 0.0239860
2935.53, 0.0244300
2937.2, 0.0248730
2938.86, 0.0254280
2940.53, 0.0258710
2942.2, 0.0263150
2943.87, 0.0266470
2945.54, 0.0268320
2947.22, 0.0272020
2948.89, 0.0275340
2950.57, 0.0278300
2952.25, 0.0281260
2953.93, 0.0284580
2955.62, 0.0287540
2957.3, 0.0289760
2958.99, 0.0292720
2960.68, 0.0295670
2962.37, 0.0297520
2964.07, 0.0298260
2965.76, 0.0298630
2967.46, 0.0298260
2969.16, 0.0297520
2970.86, 0.0297150
2972.56, 0.0297150
2974.27, 0.0296780
2975.98, 0.0296040
2977.69, 0.0294560
2979.4, 0.0293080
2981.11, 0.0291610
2982.83, 0.0290130
2984.54, 0.0289020
2986.26, 0.0286060
2987.98, 0.0283840
2989.71, 0.0281630
2991.43, 0.0279040
2993.16, 0.0277930
2994.89, 0.0278300
2996.62, 0.0277560
2998.35, 0.0277560
3000.09, 0.0276450
3001.83, 0.0275710
3003.57, 0.0276820
3005.31, 0.0279040
3007.05, 0.0280520
3008.79, 0.0282000
3010.54, 0.0284950
3012.29, 0.0288650
3014.04, 0.0291240
3015.8, 0.0294190
3017.55, 0.0299000
3019.31, 0.0303800
3021.07, 0.0308610
3022.83, 0.0313410
3024.59, 0.0317850
3026.36, 0.0321910
3028.13, 0.0325610
3029.9, 0.0329670
3031.67, 0.0331890
3033.44, 0.0333740
3035.22, 0.0335220
3037.0, 0.0335960
3038.78, 0.0336700
3040.56, 0.0337440
3042.34, 0.0336700
3044.13, 0.0335220
3045.92, 0.0333000
3047.71, 0.0329670
3049.5, 0.0325980
3051.3, 0.0319700
3053.09, 0.0313040
3054.89, 0.0307870
3056.69, 0.0302690
3058.5, 0.0295670
3060.3, 0.0287910
3062.11, 0.0281260
3063.92, 0.0275710
3065.73, 0.0269800
3067.55, 0.0264630
3069.36, 0.0260190
3071.18, 0.0255760
3073.0, 0.0250580
3074.82, 0.0245780
3076.65, 0.0242820
3078.48, 0.0239120
3080.31, 0.0235430
3082.14, 0.0232840
3083.97, 0.0232100
3085.8, 0.0233210
3087.64, 0.0235430
3089.48, 0.0237650
3091.33, 0.0241710
3093.17, 0.0246520
3095.02, 0.0250950
3096.87, 0.0256130
3098.72, 0.0261670
3100.57, 0.0267210
3102.43, 0.0274240
3104.28, 0.0281260
3106.14, 0.0287540
3108.01, 0.0295300
3109.87, 0.0303430
3111.74, 0.0310090
3113.61, 0.0317850
3115.48, 0.0326350
3117.35, 0.0334850
3119.23, 0.0343350
3121.1, 0.0351110
3122.98, 0.0359610
3124.87, 0.0368480
3126.75, 0.0376610
3128.64, 0.0383260
3130.53, 0.0391030
3132.42, 0.0399530
3134.31, 0.0406920
3136.21, 0.0413570
3138.11, 0.0419480
3140.01, 0.0427250
3141.91, 0.0432790
3143.82, 0.0436860
3145.73, 0.0441660
3147.64, 0.0446460
3149.55, 0.0450530
3151.46, 0.0453490
3153.38, 0.0456810
3155.3, 0.0459770
3157.22, 0.0461250
3159.14, 0.0463100
3161.07, 0.0464940
3163.0, 0.0465680
3164.93, 0.0467900
3166.86, 0.0469750
3168.8, 0.0471230
3170.74, 0.0472340
3172.68, 0.0472710
3174.62, 0.0474920
3176.56, 0.0477510
3178.51, 0.0480100
3180.46, 0.0482310
3182.42, 0.0484530
3184.37, 0.0487860
3186.33, 0.0491920
3188.29, 0.0496360
3190.25, 0.0501160
3192.21, 0.0506340
3194.18, 0.0512620
3196.15, 0.0518160
3198.12, 0.0523710
3200.09, 0.0529620
3202.07, 0.0536640
3204.05, 0.0543300
3206.03, 0.0549950
3208.02, 0.0557710
3210.0, 0.0565100
3211.99, 0.0572490
3213.98, 0.0578780
3215.98, 0.0585060
3217.97, 0.0591710
3219.97, 0.0597630
3221.97, 0.0602430
3223.98, 0.0607980
3225.98, 0.0612410
3227.99, 0.0616850
3230.0, 0.0621280
3232.02, 0.0624240
3234.03, 0.0627930
3236.05, 0.0630890
3238.07, 0.0634220
3240.1, 0.0636430
3242.12, 0.0637910
3244.15, 0.0639760
3246.18, 0.0642350
3248.22, 0.0643460
3250.25, 0.0643830
3252.29, 0.0645300
3254.33, 0.0646780
3256.38, 0.0647890
3258.43, 0.0649370
3260.47, 0.0649370
3262.53, 0.0649370
3264.58, 0.0651220
3266.64, 0.0652330
3268.7, 0.0653070
3270.76, 0.0655650
3272.82, 0.0659350
3274.89, 0.0662670
3276.96, 0.0665630
3279.04, 0.0670810
3281.11, 0.0676350
3283.19, 0.0681520
3285.27, 0.0687070
3287.35, 0.0692980
3289.44, 0.0700370
3291.53, 0.0708870
3293.62, 0.0717000
3295.71, 0.0725500
3297.81, 0.0735480
3299.91, 0.0745460
3302.01, 0.0755070
3304.11, 0.0764680
3306.22, 0.0775400
3308.33, 0.0786860
3310.44, 0.0799050
3312.56, 0.0810510
3314.68, 0.0821600
3316.8, 0.0831950
3318.92, 0.0842300
3321.05, 0.0852640
3323.18, 0.0862250
3325.31, 0.0872600
3327.44, 0.0883690
3329.58, 0.0893670
3331.72, 0.0904020
3333.86, 0.0914730
3336.01, 0.0924340
3338.16, 0.0933580
3340.31, 0.0943930
3342.46, 0.0952430
3344.61, 0.0960190
3346.77, 0.0969430
3348.94, 0.0977930
3351.1, 0.0986800
3353.27, 0.0995670
3355.44, 0.100270
3357.61, 0.100972
3359.79, 0.101711
3361.97, 0.102561
3364.15, 0.103448
3366.33, 0.104224
3368.52, 0.104927
3370.71, 0.105740
3372.9, 0.106627
3375.1, 0.107366
3377.3, 0.108142
3379.5, 0.108992
3381.71, 0.109805
3383.91, 0.110618
3386.12, 0.111505
3388.34, 0.112429
3390.55, 0.113390
3392.77, 0.114240
3394.99, 0.115053
3397.22, 0.115903
3399.45, 0.116827
3401.68, 0.117751
3403.91, 0.118638
3406.15, 0.119636
3408.39, 0.120671
3410.63, 0.121521
3412.87, 0.122482
3415.12, 0.123517
3417.37, 0.124478
3419.63, 0.125328
3421.88, 0.126252
3424.14, 0.127102
3426.41, 0.127989
3428.67, 0.128876
3430.94, 0.129726
3433.21, 0.130650
3435.49, 0.131574
3437.77, 0.132387
3440.05, 0.133200
3442.33, 0.134013
3444.62, 0.134789
3446.91, 0.135713
3449.2, 0.136563
3451.5, 0.137377
3453.8, 0.138227
3456.1, 0.139077
3458.41, 0.139853
3460.72, 0.140777
3463.03, 0.141590
3465.34, 0.142403
3467.66, 0.143253
3469.98, 0.144103
3472.31, 0.144916
3474.63, 0.145729
3476.96, 0.146505
3479.3, 0.147466
3481.64, 0.148316
3483.97, 0.149129
3486.32, 0.149943
3488.66, 0.150756
3491.01, 0.151680
3493.36, 0.152604
3495.72, 0.153528
3498.08, 0.154452
3500.44, 0.155376
3502.81, 0.156336
3505.18, 0.157297
3507.55, 0.158221
3509.92, 0.159145
3512.3, 0.160032
3514.68, 0.161067
3517.06, 0.162102
3519.45, 0.163063
3521.84, 0.163913
3524.24, 0.164837
3526.64, 0.165798
3529.04, 0.166833
3531.44, 0.167794
3533.85, 0.168681
3536.26, 0.169605
3538.67, 0.170566
3541.09, 0.171564
3543.51, 0.172488
3545.93, 0.173485
3548.36, 0.174446
3550.79, 0.175259
3553.22, 0.176146
3555.66, 0.177070
3558.1, 0.177957
3560.54, 0.178734
3562.99, 0.179584
3565.44, 0.180545
3567.9, 0.181395
3570.35, 0.182208
3572.81, 0.183021
3575.28, 0.183797
3577.75, 0.184573
3580.22, 0.185423
3582.69, 0.186236
3585.17, 0.186902
3587.65, 0.187604
3590.14, 0.188380
3592.62, 0.189082
3595.11, 0.189710
3597.61, 0.190339
3600.11, 0.190967
3602.61, 0.191669
3605.11, 0.192298
3607.62, 0.192963
3610.14, 0.193665
3612.65, 0.194219
3615.17, 0.194848
3617.69, 0.195550
3620.22, 0.196178
3622.75, 0.196770
3625.28, 0.197435
3627.82, 0.198063
3630.36, 0.198728
3632.9, 0.199468
3635.45, 0.200207
3638.0, 0.200761
3640.56, 0.201353
3643.12, 0.201907
3645.68, 0.202424
3648.24, 0.202942
3650.81, 0.203533
3653.39, 0.204014
3655.96, 0.204457
3658.54, 0.205011
3661.13, 0.205677
3663.71, 0.206305
3666.3, 0.206896
3668.9, 0.207414
3671.5, 0.207857
3674.1, 0.208227
3676.7, 0.208670
3679.31, 0.209114
3681.93, 0.209483
3684.54, 0.209890
3687.17, 0.210334
3689.79, 0.210888
3692.42, 0.211368
3695.05, 0.211886
3697.69, 0.212551
3700.32, 0.212958
3702.97, 0.213401
3705.61, 0.213882
3708.27, 0.214288
3710.92, 0.214695
3713.58, 0.215212
3716.24, 0.215693
3718.91, 0.216099
3721.58, 0.216432
3724.25, 0.216875
3726.93, 0.217356
3729.61, 0.217836
3732.29, 0.218391
3734.98, 0.218908
3737.67, 0.219315
3740.37, 0.219758
3743.07, 0.220091
3745.78, 0.220386
3748.49, 0.220682
3751.2, 0.220978
3753.91, 0.221273
3756.63, 0.221754
3759.36, 0.222234
3762.09, 0.222715
3764.82, 0.223121
3767.55, 0.223417
3770.29, 0.223713
3773.04, 0.224008
3775.78, 0.224230
3778.54, 0.224415
3781.29, 0.224526
3784.05, 0.224600
3786.82, 0.224748
3789.59, 0.224858
3792.36, 0.225117
3795.13, 0.225598
3797.92, 0.226152
3800.7, 0.226706
3803.49, 0.227298
3806.28, 0.227963
3809.08, 0.228554
3811.88, 0.229072
3814.68, 0.229663
3817.49, 0.230291
3820.31, 0.230883
3823.12, 0.231400
3825.94, 0.231881
3828.77, 0.232287
3831.6, 0.232546
3834.43, 0.232879
3837.27, 0.233174
3840.11, 0.233470
3842.96, 0.233729
3845.81, 0.233987
3848.67, 0.234283
3851.53, 0.234505
3854.39, 0.234726
3857.26, 0.234874
3860.13, 0.234948
3863.01, 0.235022
3865.89, 0.235207
3868.77, 0.235577
3871.66, 0.236242
3874.55, 0.236981
3877.45, 0.237535
3880.35, 0.238090
3883.26, 0.238607
3886.17, 0.239051
3889.09, 0.239346
3892.01, 0.239605
3894.93, 0.239716
3897.86, 0.239938
3900.79, 0.240049
3903.73, 0.240122
3906.67, 0.240159
3909.62, 0.240159
3912.57, 0.240049
3915.52, 0.239901
3918.48, 0.239753
3921.45, 0.239605
3924.42, 0.239420
3927.39, 0.239162
3930.37, 0.238977
3933.35, 0.238755
3936.34, 0.238422
3939.33, 0.237979
3942.32, 0.237461
3945.32, 0.237092
3948.33, 0.236500
3951.34, 0.235835
3954.35, 0.235244
3957.37, 0.234653
3960.39, 0.234172
3963.42, 0.233876
3966.45, 0.233692
3969.49, 0.233692
3972.53, 0.233729
3975.58, 0.233655
3978.63, 0.233507
3981.68, 0.233359
3984.75, 0.233063
3987.81, 0.232768
3990.88, 0.232435
3993.95, 0.232139
3997.03, 0.231770
4000.12, 0.231363
4003.21, 0.230957
4006.3, 0.230476
4009.4, 0.230070
4012.5, 0.229700
4015.61, 0.229183
4018.72, 0.228591
4021.84, 0.227963
4024.96, 0.227372
4028.09, 0.226817
4031.22, 0.226226
4034.36, 0.225635
4037.5, 0.225080
4040.65, 0.224489
4043.8, 0.223934
4046.96, 0.223269
4050.12, 0.222715
4053.29, 0.222123
4056.46, 0.221495
4059.64, 0.220830
4062.82, 0.220128
4066.0, 0.219352
4069.19, 0.218538
4072.39, 0.217651
4075.59, 0.216727
4078.8, 0.215840
4082.01, 0.214843
4085.23, 0.213734
4088.45, 0.212662
4091.68, 0.211442
4094.91, 0.210297
4098.15, 0.209151
4101.39, 0.207894
4104.63, 0.206564
4107.89, 0.205233
4111.14, 0.203903
4114.41, 0.202609
4117.67, 0.201205
4120.95, 0.199948
4124.23, 0.198913
4127.51, 0.197989
4130.8, 0.197102
4134.09, 0.196289
4137.39, 0.195476
4140.7, 0.194626
4144.01, 0.193702
4147.32, 0.192815
4150.64, 0.191928
4153.97, 0.191004
4157.3, 0.190006
4160.64, 0.189045
4163.98, 0.188084
4167.33, 0.187160
4170.68, 0.186125
4174.04, 0.185164
4177.4, 0.184240
4180.77, 0.183427
4184.14, 0.182651
4187.52, 0.181616
4190.91, 0.180582
4194.3, 0.179473
4197.69, 0.178179
4201.1, 0.176701
4204.5, 0.175075
4207.92, 0.173338
4211.34, 0.171453
4214.76, 0.169494
4218.19, 0.167572
4221.62, 0.165798
4225.06, 0.164061
4228.51, 0.162398
4231.96, 0.160808
4235.42, 0.159404
4238.88, 0.158110
4242.35, 0.157076
4245.83, 0.156115
4249.31, 0.155339
4252.79, 0.154784
4256.28, 0.153786
4259.78, 0.151901
4263.29, 0.149684
4266.79, 0.147651
4270.31, 0.145840
4273.83, 0.144140
4277.35, 0.142514
4280.89, 0.140925
4284.42, 0.139483
4287.97, 0.138042
4291.52, 0.136637
4295.07, 0.135270
4298.63, 0.133902
4302.2, 0.132535
4305.78, 0.131278
4309.35, 0.130096
4312.94, 0.128913
4316.53, 0.127730
4320.13, 0.126474
4323.73, 0.125217
4327.34, 0.123923
4330.96, 0.122445
4334.58, 0.120967
4338.21, 0.119341
4341.84, 0.117751
4345.48, 0.116088
4349.12, 0.114462
4352.77, 0.112910
4356.43, 0.111320
4360.1, 0.109768
4363.76, 0.108438
4367.44, 0.107329
4371.12, 0.106257
4374.81, 0.105296
4378.51, 0.104557
4382.21, 0.103929
4385.92, 0.103411
4389.63, 0.103042
4393.35, 0.102820
4397.08, 0.102746
4400.81, 0.102820
4404.55, 0.102931
4408.29, 0.103005
4412.04, 0.103226
4415.8, 0.103559
4419.57, 0.104003
4423.34, 0.104594
4427.12, 0.105333
4430.9, 0.106146
4434.69, 0.106996
4438.49, 0.107920
4442.29, 0.108881
4446.1, 0.109879
4449.92, 0.110914
4453.74, 0.111949
4457.57, 0.112910
4461.41, 0.113945
4465.25, 0.114979
4469.1, 0.115940
4472.95, 0.116864
4476.82, 0.117640
4480.69, 0.118380
4484.56, 0.119082
4488.44, 0.119636
4492.33, 0.120191
4496.23, 0.120597
4500.13, 0.120930
4504.04, 0.121188
4507.96, 0.121410
4511.88, 0.121632
4515.81, 0.121817
4519.75, 0.122075
4523.69, 0.122371
4527.65, 0.122667
4531.6, 0.122963
4535.57, 0.123258
4539.54, 0.123554
4543.52, 0.123923
4547.5, 0.124293
4551.5, 0.124663
4555.5, 0.125106
4559.5, 0.125550
4563.52, 0.125845
4567.54, 0.126252
4571.56, 0.126658
4575.6, 0.127028
4579.64, 0.127435
4583.69, 0.127841
4587.75, 0.128174
4591.81, 0.128432
4595.88, 0.128802
4599.96, 0.129098
4604.04, 0.129393
4608.14, 0.129541
4612.24, 0.129689
4616.34, 0.129874
4620.46, 0.129985
4624.58, 0.129985
4628.71, 0.129948
4632.84, 0.129874
4636.99, 0.129837
4641.14, 0.129837
4645.3, 0.129800
4649.47, 0.129726
4653.64, 0.129652
4657.82, 0.129615
4662.01, 0.129615
4666.21, 0.129541
4670.41, 0.129541
4674.62, 0.129541
4678.84, 0.129467
4683.07, 0.129504
4687.3, 0.129652
4691.54, 0.129726
4695.79, 0.129800
4700.05, 0.129874
4704.31, 0.129948
4708.59, 0.130022
4712.87, 0.130059
4717.15, 0.130059
4721.45, 0.130022
4725.76, 0.129948
4730.07, 0.129837
4734.39, 0.129800
4738.72, 0.129800
4743.05, 0.129763
4747.39, 0.129763
4751.75, 0.129763
4756.1, 0.129911
4760.47, 0.130022
4764.85, 0.130096
4769.23, 0.130170
4773.62, 0.130206
4778.02, 0.130206
4782.43, 0.130206
4786.85, 0.130170
4791.27, 0.130206
4795.7, 0.130243
4800.14, 0.130317
4804.59, 0.130280
4809.05, 0.130317
4813.51, 0.130391
4817.99, 0.130391
4822.47, 0.130391
4826.96, 0.130502
4831.46, 0.130613
4835.96, 0.130613
4840.48, 0.130613
4845.0, 0.130687
4849.54, 0.130909
4854.08, 0.131241
4858.63, 0.131648
4863.18, 0.132091
4867.75, 0.132572
4872.33, 0.133163
4876.91, 0.133755
4881.5, 0.134346
4886.1, 0.134974
4890.71, 0.135639
4895.33, 0.136268
4899.96, 0.136933
4904.59, 0.137524
4909.24, 0.138005
4913.89, 0.138411
4918.55, 0.138818
4923.22, 0.139077
4927.9, 0.139335
4932.59, 0.139631
4937.29, 0.139927
4942.0, 0.140148
4946.71, 0.140259
4951.44, 0.140259
4956.17, 0.140259
4960.91, 0.140259
4965.67, 0.140333
4970.43, 0.140481
4975.2, 0.140777
4979.98, 0.141183
4984.76, 0.141738
4989.56, 0.142329
4994.37, 0.142957
4999.18, 0.143586
5004.01, 0.144177
5008.84, 0.144768
5013.69, 0.145323
5018.54, 0.145655
5023.4, 0.146210
5028.28, 0.146653
5033.16, 0.146986
5038.05, 0.147355
5042.95, 0.147651
5047.86, 0.147910
5052.78, 0.148242
5057.71, 0.148575
5062.65, 0.148871
5067.6, 0.149166
5072.56, 0.149610
5077.53, 0.149980
5082.5, 0.150312
5087.49, 0.150756
5092.49, 0.151236
5097.5, 0.151643
5102.51, 0.152012
5107.54, 0.152234
5112.58, 0.152493
5117.62, 0.152788
5122.68, 0.153121
5127.75, 0.153195
5132.82, 0.153232
5137.91, 0.153084
5143.01, 0.152641
5148.12, 0.152160
5153.23, 0.152123
5158.36, 0.151827
5163.5, 0.151421
5168.65, 0.151051
5173.81, 0.150793
5178.98, 0.150608
5184.15, 0.150608
5189.34, 0.150608
5194.54, 0.150571
5199.75, 0.150534
5204.98, 0.150830
5210.21, 0.150756
5215.45, 0.150867
5220.7, 0.151421
5225.96, 0.151569
5231.23, 0.151347
5236.52, 0.150867
5241.81, 0.150386
5247.12, 0.149795
5252.44, 0.149019
5257.76, 0.148058
5263.1, 0.147134
5268.45, 0.146431
5273.81, 0.145729
5279.18, 0.145175
5284.56, 0.144584
5289.95, 0.143733
5295.36, 0.143216
5300.77, 0.142846
5306.2, 0.142107
5311.63, 0.141405
5317.08, 0.140518
5322.54, 0.139520
5328.01, 0.138411
5333.49, 0.137192
5338.98, 0.135713
5344.49, 0.133865
5350.0, 0.131796
5355.53, 0.130539
5361.07, 0.129319
5366.62, 0.127841
5372.18, 0.126326
5377.75, 0.125106
5383.34, 0.124256
5388.93, 0.123813
5394.54, 0.123591
5400.16, 0.123739
5405.79, 0.123923
5411.44, 0.124034
5417.09, 0.123554
5422.76, 0.123147
5428.43, 0.123960
5434.12, 0.124182
5439.83, 0.123517
5445.54, 0.122667
5451.26, 0.121743
5457.0, 0.120412
5462.75, 0.118490
5468.52, 0.117234
5474.29, 0.115940
5480.08, 0.114314
5485.88, 0.113205
5491.69, 0.111912
5497.51, 0.110470
5503.35, 0.109103
5509.2, 0.107920
5515.06, 0.106590
5520.93, 0.105296
5526.82, 0.104372
5532.71, 0.103670
5538.63, 0.102931
5544.55, 0.102081
5550.49, 0.101157
5556.44, 0.100676
5562.4, 0.100454
5568.37, 0.100011
5574.36, 0.0990500
5580.36, 0.0985700
5586.37, 0.0991610
5592.4, 0.0994200
5598.44, 0.0990500
5604.49, 0.0987170
5610.56, 0.0984220
5616.63, 0.0979040
5622.73, 0.0975350
5628.83, 0.0967960
5634.95, 0.0953910
5641.08, 0.0935060
5647.23, 0.0928410
5653.39, 0.0920650
5659.56, 0.0910670
5665.74, 0.0899210
5671.94, 0.0879990
5678.15, 0.0863730
5684.38, 0.0852270
5690.62, 0.0836010
5696.87, 0.0823820
5703.14, 0.0809030
5709.42, 0.0790550
5715.72, 0.0780940
5722.03, 0.0775400
5728.35, 0.0768380
5734.69, 0.0758770
5741.03, 0.0748420
5747.4, 0.0737700
5753.78, 0.0732530
5760.17, 0.0718850
5766.58, 0.0701480
5773.0, 0.0702590
5779.44, 0.0701110
5785.88, 0.0695200
5792.35, 0.0687440
5798.83, 0.0677460
5805.32, 0.0667850
5811.83, 0.0654910
5818.35, 0.0634960
5824.89, 0.0624240
5831.45, 0.0620170
5838.01, 0.0613890
5844.59, 0.0603170
5851.19, 0.0588760
5857.8, 0.0571760
5864.43, 0.0554750
5871.07, 0.0538860
5877.73, 0.0511880
5884.4, 0.0492290
5891.09, 0.0477880
5897.79, 0.0456810
5904.5, 0.0443510
5911.23, 0.0423920
5917.98, 0.0399530
5924.75, 0.0374760
5931.53, 0.0344830
5938.32, 0.0315630
5945.13, 0.0297150
5951.96, 0.0275340
5958.8, 0.0253540
5965.65, 0.0231360
5972.53, 0.0216580
5979.42, 0.0211040
5986.32, 0.0215100
5993.24, 0.0230990
6000.18, 0.0249100
6007.13, 0.0256500
6014.1, 0.0254280
6021.08, 0.0249470
6028.09, 0.0241710
6035.1, 0.0230990
6042.14, 0.0216950
6049.19, 0.0208080
6056.25, 0.0217690
6063.34, 0.0232840
6070.44, 0.0248360
6077.55, 0.0269060
6084.69, 0.0291240
6091.84, 0.0311560
6099.0, 0.0331520
6106.19, 0.0347410
6113.39, 0.0362570
6120.61, 0.0385480
6127.84, 0.0405070
6135.09, 0.0418380
6142.36, 0.0428720
6149.65, 0.0437590
6156.95, 0.0441290
6164.27, 0.0446090
6171.61, 0.0449790
6178.97, 0.0443880
6186.34, 0.0436860
6193.73, 0.0436860
6201.14, 0.0432050
6208.57, 0.0422440
6216.01, 0.0411350
6223.47, 0.0399160
6230.95, 0.0385480
6238.45, 0.0371440
6245.97, 0.0357390
6253.5, 0.0344460
6261.06, 0.0333370
6268.63, 0.0325240
6276.21, 0.0321170
6283.82, 0.0319700
6291.45, 0.0321540
6299.1, 0.0327090
6306.76, 0.0335590
6314.44, 0.0346680
6322.14, 0.0358870
6329.86, 0.0372920
6337.6, 0.0382890
6345.35, 0.0396200
6353.13, 0.0418010
6360.92, 0.0433900
6368.74, 0.0444250
6376.57, 0.0460510
6384.43, 0.0476030
6392.3, 0.0488600
6400.19, 0.0496360
6408.1, 0.0493030
6416.03, 0.0497470
6423.98, 0.0518530
6431.95, 0.0532210
6439.94, 0.0543300
6447.95, 0.0551060
6455.98, 0.0558450
6464.03, 0.0563250
6472.1, 0.0563990
6480.19, 0.0563250
6488.31, 0.0559560
6496.44, 0.0565470
6504.59, 0.0583580
6512.76, 0.0590970
6520.95, 0.0591340
6529.16, 0.0600210
6537.4, 0.0605760
6545.65, 0.0606500
6553.92, 0.0607610
6562.22, 0.0607610
6570.54, 0.0603170
6578.88, 0.0608340
6587.23, 0.0613520
6595.61, 0.0616480
6604.02, 0.0622760
6612.44, 0.0623500
6620.89, 0.0621650
6629.35, 0.0610930
6637.84, 0.0603170
6646.35, 0.0614630
6654.88, 0.0623130
6663.44, 0.0619430
6672.01, 0.0612780
6680.61, 0.0607610
6689.23, 0.0610190
6697.88, 0.0610190
6706.54, 0.0603170
6715.23, 0.0599840
6723.94, 0.0600210
6732.67, 0.0600580
6741.42, 0.0600950
6750.2, 0.0599470
6759.0, 0.0598000
6767.82, 0.0593560
6776.67, 0.0588760
6785.54, 0.0582100
6794.44, 0.0580630
6803.35, 0.0585430
6812.29, 0.0582840
6821.26, 0.0575080
6830.24, 0.0571390
6839.25, 0.0571390
6848.29, 0.0563990
6857.35, 0.0549950
6866.43, 0.0545140
6875.54, 0.0551800
6884.67, 0.0551430
6893.82, 0.0546620
6903.0, 0.0539600
6912.2, 0.0535170
6921.43, 0.0532210
6930.69, 0.0527770
6939.96, 0.0522230
6949.27, 0.0514470
6958.59, 0.0504490
6967.95, 0.0503010
6977.33, 0.0502270
6986.73, 0.0498210
6996.16, 0.0494510
7005.61, 0.0491920
7015.09, 0.0487860
7024.6, 0.0483050
7034.13, 0.0477510
7043.69, 0.0469010
7053.27, 0.0468640
7062.88, 0.0469010
7072.52, 0.0465680
7082.18, 0.0461990
7091.87, 0.0458290
7101.58, 0.0454230
7111.32, 0.0449790
7121.09, 0.0446090
7130.88, 0.0442770
7140.71, 0.0436490
7150.56, 0.0430940
7160.43, 0.0427250
7170.33, 0.0422440
7180.27, 0.0419850
7190.23, 0.0415790
7200.21, 0.0409140
7210.23, 0.0403590
7220.27, 0.0400640
7230.34, 0.0396570
7240.44, 0.0392130
7250.56, 0.0386590
7260.72, 0.0381790
7270.9, 0.0376240
7281.12, 0.0371440
7291.36, 0.0367000
7301.63, 0.0362200
7311.93, 0.0357760
7322.25, 0.0353330
7332.61, 0.0346310
7343.0, 0.0340390
7353.41, 0.0336330
7363.86, 0.0332260
7374.33, 0.0327460
7384.83, 0.0323020
7395.37, 0.0318590
7405.93, 0.0313780
7416.53, 0.0309350
7427.15, 0.0304540
7437.81, 0.0300110
7448.5, 0.0295670
7459.22, 0.0290870
7469.96, 0.0285320
7480.74, 0.0280150
7491.55, 0.0275710
7502.39, 0.0270170
7513.27, 0.0265740
7524.17, 0.0260560
7535.11, 0.0254650
7546.08, 0.0248360
7557.08, 0.0242450
7568.11, 0.0237280
7579.17, 0.0232840
7590.27, 0.0226930
7601.4, 0.0220650
7612.56, 0.0215100
7623.76, 0.0210300
7634.98, 0.0205490
7646.24, 0.0200320
7657.54, 0.0194770
7668.87, 0.0189230
7680.23, 0.0183320
7691.62, 0.0178140
7703.05, 0.0172600
7714.51, 0.0167790
7726.01, 0.0162990
7737.54, 0.0158180
7749.11, 0.0153750
7760.71, 0.0148940
7772.35, 0.0143400
7784.02, 0.0139340
7795.72, 0.0135270
7807.46, 0.0131200
7819.23, 0.0126770
7831.04, 0.0122700
7842.89, 0.0118640
7854.77, 0.0114940
7866.69, 0.0110140
7878.65, 0.0105700
7890.64, 0.0101640
7902.67, 0.00972000
7914.74, 0.00927700
7926.84, 0.00894400
7938.98, 0.00857400
7951.16, 0.00816800
7963.37, 0.00768700
7975.62, 0.00728100
7987.91, 0.00694800
8000.24, 0.00661600
8012.6, 0.00628300
8025.01, 0.00595000
8037.45, 0.00569200
8049.93, 0.00535900
8062.45, 0.00495300
8075.01, 0.00469400
8087.61, 0.00443500
8100.24, 0.00425000
8112.91, 0.00402900
8125.63, 0.00377000
8138.39, 0.00351100
8151.18, 0.00336300
8164.02, 0.00314200
8176.9, 0.00292000
8189.81, 0.00269800
8202.77, 0.00251300
8215.77, 0.00232800
8228.82, 0.00218100
8241.9, 0.00214400
8255.02, 0.00203300
8268.19, 0.00184800
8281.39, 0.00173700
8294.65, 0.00166300
8307.94, 0.00166300
8321.28, 0.00166300
8334.66, 0.00162600
8348.08, 0.00158900
8361.54, 0.00170000
8375.05, 0.00177400
8388.6, 0.00184800
8402.2, 0.00192200
8415.84, 0.00218100
8429.52, 0.00243900
8443.25, 0.00266100
8457.02, 0.00299400
8470.84, 0.00340000
8484.7, 0.00380700
8498.61, 0.00425000
8512.57, 0.00491600
8526.57, 0.00584000
8540.62, 0.00676300
8554.71, 0.00787200
8568.85, 0.00912900
8583.04, 0.0106440
8597.27, 0.0124920
8611.55, 0.0145620
8625.88, 0.0170380
8640.26, 0.0199950
8654.68, 0.0232100
8669.16, 0.0268690
8683.68, 0.0310820
8698.25, 0.0358870
8712.87, 0.0412460
8727.53, 0.0470490
8742.25, 0.0532580
8757.02, 0.0596890
8771.83, 0.0663040
8786.7, 0.0730310
8801.62, 0.0796840
8816.59, 0.0857820
8831.61, 0.0909560
8846.68, 0.0951690
8861.8, 0.0984960
8876.97, 0.100639
8892.2, 0.101748
8907.48, 0.101748
8922.81, 0.100935
8938.2, 0.0997150
8953.63, 0.0982370
8969.13, 0.0964260
8984.67, 0.0943190
9000.27, 0.0919540
9015.92, 0.0891820
9031.63, 0.0862620
9047.39, 0.0834160
9063.21, 0.0805710
9079.08, 0.0779830
9095.01, 0.0758770
9111.0, 0.0745460
9127.04, 0.0743610
9143.13, 0.0754700
9159.28, 0.0779830
9175.49, 0.0817530
9191.76, 0.0867800
9208.09, 0.0929520
9224.47, 0.0996780
9240.92, 0.106405
9257.42, 0.112207
9273.98, 0.116014
9290.6, 0.117197
9307.28, 0.116088
9324.02, 0.113575
9340.82, 0.110544
9357.68, 0.107661
9374.6, 0.105259
9391.58, 0.103411
9408.62, 0.102450
9425.73, 0.102265
9442.9, 0.102450
9460.13, 0.102746
9477.42, 0.103153
9494.78, 0.103818
9512.2, 0.105185
9529.69, 0.106885
9547.24, 0.108438
9564.86, 0.109879
9582.54, 0.111357
9600.28, 0.113353
9618.1, 0.116643
9635.97, 0.120893
9653.92, 0.124330
9671.93, 0.125106
9690.01, 0.123554
9708.16, 0.121299
9726.37, 0.119525
9744.65, 0.119193
9763.0, 0.121410
9781.43, 0.125254
9799.92, 0.128100
9818.48, 0.127545
9837.1, 0.122999
9855.8, 0.115275
9874.58, 0.105924
9893.42, 0.0960560
9912.34, 0.0867430
9931.33, 0.0784640
9950.39, 0.0719590
9969.52, 0.0687810
9988.74, 0.0712570
10008.0, 0.0797940
10027.4, 0.0918430
10046.8, 0.104594
10066.3, 0.116679
10085.9, 0.126104
10105.6, 0.129911
10125.3, 0.126843
10145.1, 0.118010
10165.0, 0.106368
10185.0, 0.0947630
10205.0, 0.0845620
10225.2, 0.0767640
10245.4, 0.0719590
10265.7, 0.0712570
10286.0, 0.0765790
10306.5, 0.0872600
10327.0, 0.0993090
10347.6, 0.108696
10368.3, 0.114018
10389.1, 0.116199
10409.9, 0.116236
10430.9, 0.114610
10451.9, 0.111653
10473.0, 0.107514
10494.2, 0.102229
10515.5, 0.0959460
10536.9, 0.0887750
10558.4, 0.0811250
10579.9, 0.0738070
10601.5, 0.0682260
10623.3, 0.0663410
10645.1, 0.0704070
10667.0, 0.0789810
10689.0, 0.0877780
10711.1, 0.0934690
10733.2, 0.0955390
10755.5, 0.0945780
10777.9, 0.0915840
10800.3, 0.0880730
10822.9, 0.0849690
10845.5, 0.0825660
10868.2, 0.0807920
10891.1, 0.0796470
10914.0, 0.0789440
10937.0, 0.0785010
10960.2, 0.0781680
10983.4, 0.0777990
11006.7, 0.0777620
11030.1, 0.0777990
11053.6, 0.0777250
11077.3, 0.0777250
11101.0, 0.0778730
11124.8, 0.0780200
11148.7, 0.0782050
11172.7, 0.0782050
11196.9, 0.0782790
11221.1, 0.0782790
11245.4, 0.0781310
11269.9, 0.0779830
11294.4, 0.0778730
11319.1, 0.0775030
11343.9, 0.0769120
11368.8, 0.0767270
11393.7, 0.0769120
11418.8, 0.0772440
11444.0, 0.0775030
11469.4, 0.0775770
11494.8, 0.0776880
11520.3, 0.0779100
11546.0, 0.0778360
11571.8, 0.0776880
11597.7, 0.0775770
11623.7, 0.0773180
11649.8, 0.0770590
11676.0, 0.0768380
11702.4, 0.0765050
11728.9, 0.0761720
11755.5, 0.0758770
11782.2, 0.0756180
11809.0, 0.0751010
11836.0, 0.0744350
11863.0, 0.0736960
11890.3, 0.0731050
11917.6, 0.0726240
11945.0, 0.0721070
11972.6, 0.0714790
12000.4, 0.0709610
12028.2, 0.0704070
12056.2, 0.0697420
12084.3, 0.0689650
12112.5, 0.0682630
12140.9, 0.0675980
12169.4, 0.0668220
12198.0, 0.0661200
12226.8, 0.0654170
12255.7, 0.0644930
12284.7, 0.0634590
12313.9, 0.0625350
12343.2, 0.0616110
12372.7, 0.0606130
12402.3, 0.0595780
12432.0, 0.0583950
12461.9, 0.0571760
12491.9, 0.0560300
12522.1, 0.0547730
12552.4, 0.0534060
12582.9, 0.0521490
12613.5, 0.0510400
12644.3, 0.0497840
12675.2, 0.0481210
12706.3, 0.0466420
12737.5, 0.0453860
12768.9, 0.0439810
12800.4, 0.0423550
12832.1, 0.0405810
12863.9, 0.0388810
12895.9, 0.0372180
12928.1, 0.0355550
12960.4, 0.0338540
12992.9, 0.0322280
13025.5, 0.0307870
13058.3, 0.0289020
13091.3, 0.0269060
13124.4, 0.0254650
13157.8, 0.0240230
13191.2, 0.0223600
13224.9, 0.0205860
13258.7, 0.0188120
13292.7, 0.0174080
13326.9, 0.0159660
13361.2, 0.0144880
13395.7, 0.0132310
13430.4, 0.0121600
13465.3, 0.0116050
13500.4, 0.0117900
13535.7, 0.0132310
13571.1, 0.0160400
13606.7, 0.0197360
13642.5, 0.0239120
13678.5, 0.0283110
13714.7, 0.0325610
13751.1, 0.0364790
13787.6, 0.0396570
13824.4, 0.0415050
13861.4, 0.0420220
13898.5, 0.0418380
13935.9, 0.0408770
13973.5, 0.0392500
14011.2, 0.0372180
14049.2, 0.0349630
14087.4, 0.0330410
14125.8, 0.0317480
14164.3, 0.0312670
14203.2, 0.0313040
14242.2, 0.0319330
14281.4, 0.0328570
14320.9, 0.0341870
14360.5, 0.0357390
14400.4, 0.0372180
14440.5, 0.0382530
14480.9, 0.0384370
14521.4, 0.0375870
14562.2, 0.0362570
14603.3, 0.0347780
14644.5, 0.0333740
14686.0, 0.0325610
14727.7, 0.0323020
14769.7, 0.0323020
14811.9, 0.0324500
14854.3, 0.0328570
14897.0, 0.0329670
14939.9, 0.0327460
14983.1, 0.0328200
15026.5, 0.0331890
15070.2, 0.0330410
15114.2, 0.0333370
15158.3, 0.0342610
15202.8, 0.0355550
15247.5, 0.0375500
15292.5, 0.0400270
15337.7, 0.0429460
15383.2, 0.0462730
15429.0, 0.0494140
15475.1, 0.0520750
15521.4, 0.0540710
15568.0, 0.0549210
15614.9, 0.0549580
15662.1, 0.0548840
15709.6, 0.0542930
15757.3, 0.0534800
15805.4, 0.0528140
15853.7, 0.0521490
15902.3, 0.0514100
15951.2, 0.0506710
16000.5, 0.0499690
16050.0, 0.0486380
16099.8, 0.0469380
16150.0, 0.0454600
16200.5, 0.0444620
16251.3, 0.0435750
16302.4, 0.0422070
16353.8, 0.0412460
16405.5, 0.0408030
16457.6, 0.0405810
16510.0, 0.0408030
16562.8, 0.0406180
16615.9, 0.0404330
16669.3, 0.0406550
16723.1, 0.0408770
16777.2, 0.0404700
16831.7, 0.0399160
16886.5, 0.0396200
16941.7, 0.0393610
16997.2, 0.0386220
17053.1, 0.0378090
17109.4, 0.0375500
17166.1, 0.0371810
17223.1, 0.0369220
17280.5, 0.0364790
17338.3, 0.0358500
17396.5, 0.0354810
17455.1, 0.0356280
17514.0, 0.0359980
17573.4, 0.0358870
17633.2, 0.0353700
17693.4, 0.0345200
17754.0, 0.0334480
17815.0, 0.0327830
17876.4, 0.0325240
17938.3, 0.0314520
18000.5, 0.0299000
18063.3, 0.0292720
18126.4, 0.0290130
18190.0, 0.0283480
18254.1, 0.0280520
18318.6, 0.0285690
18383.5, 0.0291610
18449.0, 0.0294190
18514.9, 0.0300480
18581.2, 0.0312670
18648.0, 0.0322280
18715.4, 0.0325980
18783.2, 0.0329300
18851.5, 0.0331520
18920.3, 0.0335960
18989.6, 0.0343720
19059.4, 0.0348520
19129.7, 0.0352590
19200.6, 0.0362570
19272.0, 0.0371440
19343.9, 0.0379940
19416.3, 0.0381420
19489.3, 0.0381790
19562.8, 0.0392500
19637.0, 0.0409510
19711.6, 0.0428720
19786.8, 0.0444990
19862.6, 0.0456810
19939.0, 0.0477510
20016.0, 0.0499690
20093.6, 0.0511140
20171.8, 0.0519640
20250.6, 0.0530730
20330.0, 0.0527770
20410.0, 0.0520380
20490.7, 0.0510770
20572.0, 0.0498210
20654.0, 0.0479360
20736.6, 0.0463100
20819.9, 0.0450160
20903.8, 0.0431680
20988.5, 0.0418750
21073.8, 0.0403960
21159.8, 0.0386220
21246.5, 0.0376610
21334.0, 0.0373660
21422.1, 0.0387700
21511.0, 0.0411350
21600.7, 0.0434270
21691.0, 0.0486010
21782.1, 0.0551800
21874.0, 0.0634960
21966.7, 0.0738810
22060.2, 0.0825660
22154.5, 0.0899210
22249.6, 0.0970540
22345.5, 0.103263
22442.2, 0.106627
22539.8, 0.106516
22638.2, 0.105629
22737.5, 0.104742
22837.7, 0.102339
22938.7, 0.100159
23040.7, 0.100454
23143.5, 0.101896
23247.3, 0.103448
23352.1, 0.103633
23457.7, 0.100676
23564.4, 0.0949480
23672.0, 0.0875930
23780.5, 0.0810510
23890.1, 0.0785380
24000.7, 0.0793140
24112.3, 0.0776140
24225.0, 0.0750270
24338.7, 0.0754330
24453.5, 0.0771700
24569.4, 0.0764680
24686.4, 0.0747310
24804.5, 0.0714420
24923.8, 0.0713680
