Database of Origin, USGS Spectral Database
Sample Description, See USGS database for additional info
Date Added,2016-08-03 21:30:09.976783

Data ID,USGS_dio02          
Sample ID, diopside_hs15.6935
Mineral Name, diopside
Material Class,Inosilicate

Wavelength
1602.52, 0.402990
1603.02, 0.404142
1603.51, 0.404585
1604.01, 0.405028
1604.5, 0.405205
1605.0, 0.405648
1605.5, 0.405205
1606.0, 0.405559
1606.49, 0.406445
1606.99, 0.407508
1607.49, 0.407951
1607.99, 0.408217
1608.49, 0.408217
1608.99, 0.408926
1609.49, 0.409457
1609.99, 0.409457
1610.49, 0.409723
1610.99, 0.411140
1611.49, 0.411495
1611.99, 0.411317
1612.49, 0.411406
1612.99, 0.412292
1613.49, 0.412735
1614.0, 0.412823
1614.5, 0.412646
1615.0, 0.413001
1615.51, 0.413709
1616.01, 0.414507
1616.51, 0.415038
1617.02, 0.415304
1617.52, 0.415127
1618.03, 0.415570
1618.53, 0.415747
1619.04, 0.416633
1619.54, 0.416721
1620.05, 0.416987
1620.55, 0.417341
1621.06, 0.418582
1621.57, 0.418936
1622.08, 0.418405
1622.58, 0.418227
1623.09, 0.419025
1623.6, 0.419645
1624.11, 0.419999
1624.62, 0.419822
1625.13, 0.420531
1625.64, 0.421151
1626.15, 0.421771
1626.66, 0.421771
1627.17, 0.422480
1627.68, 0.422657
1628.19, 0.423277
1628.7, 0.423454
1629.21, 0.424251
1629.72, 0.424340
1630.24, 0.424163
1630.75, 0.424429
1631.26, 0.425492
1631.78, 0.425580
1632.29, 0.425935
1632.8, 0.425935
1633.32, 0.426466
1633.83, 0.426555
1634.35, 0.426909
1634.86, 0.427618
1635.38, 0.428327
1635.9, 0.428769
1636.41, 0.428858
1636.93, 0.428592
1637.45, 0.429212
1637.96, 0.429478
1638.48, 0.429832
1639.0, 0.429390
1639.52, 0.429832
1640.04, 0.430984
1640.56, 0.431959
1641.08, 0.431870
1641.59, 0.431959
1642.11, 0.432047
1642.63, 0.432579
1643.16, 0.433110
1643.68, 0.433553
1644.2, 0.433465
1644.72, 0.434173
1645.24, 0.434616
1645.76, 0.435059
1646.29, 0.435414
1646.81, 0.436122
1647.33, 0.435502
1647.86, 0.435502
1648.38, 0.436565
1648.9, 0.437628
1649.43, 0.437363
1649.95, 0.437628
1650.48, 0.438426
1651.0, 0.439223
1651.53, 0.438780
1652.06, 0.438869
1652.58, 0.439312
1653.11, 0.439666
1653.64, 0.439843
1654.17, 0.440109
1654.69, 0.440375
1655.22, 0.441083
1655.75, 0.441526
1656.28, 0.442058
1656.81, 0.442146
1657.34, 0.442058
1657.87, 0.442501
1658.4, 0.443032
1658.93, 0.442855
1659.46, 0.443741
1659.99, 0.443741
1660.52, 0.444095
1661.05, 0.444184
1661.59, 0.444095
1662.12, 0.443918
1662.65, 0.444627
1663.19, 0.445336
1663.72, 0.445513
1664.26, 0.445601
1664.79, 0.446487
1665.32, 0.446930
1665.86, 0.447107
1666.39, 0.447284
1666.93, 0.448170
1667.47, 0.447993
1668.0, 0.448259
1668.54, 0.448348
1669.08, 0.448879
1669.61, 0.448968
1670.15, 0.449233
1670.69, 0.449056
1671.23, 0.449499
1671.77, 0.450119
1672.31, 0.450828
1672.85, 0.451182
1673.39, 0.451537
1673.93, 0.451094
1674.47, 0.451005
1675.01, 0.451625
1675.55, 0.452068
1676.09, 0.452245
1676.64, 0.452600
1677.18, 0.453131
1677.72, 0.453486
1678.26, 0.453663
1678.81, 0.453751
1679.35, 0.453663
1679.89, 0.454637
1680.44, 0.454903
1680.98, 0.454460
1681.53, 0.454549
1682.07, 0.455080
1682.62, 0.455612
1683.17, 0.456232
1683.71, 0.456143
1684.26, 0.456321
1684.81, 0.456321
1685.36, 0.456852
1685.9, 0.457206
1686.45, 0.457649
1687.0, 0.457649
1687.55, 0.457915
1688.1, 0.458358
1688.65, 0.458978
1689.2, 0.459067
1689.75, 0.459598
1690.3, 0.459776
1690.85, 0.459953
1691.41, 0.460041
1691.96, 0.460484
1692.51, 0.460927
1693.06, 0.461459
1693.61, 0.461459
1694.17, 0.461636
1694.72, 0.461813
1695.28, 0.461547
1695.83, 0.461902
1696.39, 0.462699
1696.94, 0.462610
1697.5, 0.462788
1698.05, 0.462965
1698.61, 0.463319
1699.17, 0.463939
1699.72, 0.464471
1700.28, 0.464205
1700.84, 0.464116
1701.4, 0.464825
1701.95, 0.465445
1702.51, 0.465268
1703.07, 0.465445
1703.63, 0.465622
1704.19, 0.466154
1704.75, 0.466508
1705.31, 0.467128
1705.88, 0.467483
1706.44, 0.467483
1707.0, 0.467040
1707.56, 0.467748
1708.12, 0.468014
1708.69, 0.468014
1709.25, 0.468014
1709.81, 0.468457
1710.38, 0.468812
1710.94, 0.469343
1711.51, 0.469166
1712.07, 0.469432
1712.64, 0.469875
1713.2, 0.470052
1713.77, 0.470495
1714.34, 0.470849
1714.9, 0.470849
1715.47, 0.471558
1716.04, 0.471735
1716.61, 0.471912
1717.18, 0.472178
1717.74, 0.472621
1718.31, 0.472798
1718.88, 0.473330
1719.45, 0.473330
1720.02, 0.473773
1720.59, 0.474038
1721.17, 0.473950
1721.74, 0.474304
1722.31, 0.475190
1722.88, 0.475544
1723.45, 0.475721
1724.03, 0.475899
1724.6, 0.476430
1725.18, 0.476607
1725.75, 0.476607
1726.33, 0.476430
1726.9, 0.477139
1727.48, 0.477493
1728.05, 0.477936
1728.63, 0.478025
1729.2, 0.477848
1729.78, 0.478025
1730.36, 0.478911
1730.94, 0.479265
1731.51, 0.479442
1732.09, 0.479442
1732.67, 0.479265
1733.25, 0.479354
1733.83, 0.480328
1734.41, 0.480594
1734.99, 0.480594
1735.57, 0.480771
1736.15, 0.481125
1736.73, 0.481480
1737.32, 0.481568
1737.9, 0.481568
1738.48, 0.482277
1739.07, 0.482454
1739.65, 0.482543
1740.23, 0.482897
1740.82, 0.483694
1741.4, 0.483872
1741.99, 0.483783
1742.57, 0.483960
1743.16, 0.484403
1743.74, 0.484580
1744.33, 0.484492
1744.92, 0.484580
1745.51, 0.485466
1746.09, 0.486086
1746.68, 0.486264
1747.27, 0.486086
1747.86, 0.486529
1748.45, 0.486884
1749.04, 0.486884
1749.63, 0.486884
1750.22, 0.486972
1750.81, 0.486972
1751.4, 0.487681
1751.99, 0.487947
1752.59, 0.488478
1753.18, 0.488567
1753.77, 0.488744
1754.37, 0.488390
1754.96, 0.488655
1755.56, 0.489010
1756.15, 0.489630
1756.74, 0.489541
1757.34, 0.489718
1757.94, 0.489984
1758.53, 0.489984
1759.13, 0.489896
1759.73, 0.490604
1760.32, 0.490693
1760.92, 0.491047
1761.52, 0.491047
1762.12, 0.491579
1762.72, 0.492022
1763.32, 0.492376
1763.92, 0.492730
1764.52, 0.492819
1765.12, 0.492465
1765.72, 0.492819
1766.32, 0.493351
1766.92, 0.493616
1767.53, 0.493705
1768.13, 0.493794
1768.73, 0.493794
1769.34, 0.494236
1769.94, 0.494768
1770.55, 0.495122
1771.15, 0.494591
1771.76, 0.494591
1772.36, 0.495122
1772.97, 0.495920
1773.57, 0.495920
1774.18, 0.496363
1774.79, 0.496806
1775.4, 0.496806
1776.0, 0.496540
1776.61, 0.496628
1777.22, 0.497160
1777.83, 0.497957
1778.44, 0.497869
1779.05, 0.497780
1779.66, 0.498134
1780.27, 0.498577
1780.88, 0.498223
1781.5, 0.498046
1782.11, 0.498223
1782.72, 0.498666
1783.33, 0.499552
1783.95, 0.499818
1784.56, 0.499906
1785.18, 0.500261
1785.79, 0.500261
1786.41, 0.500526
1787.02, 0.500704
1787.64, 0.501146
1788.26, 0.501058
1788.87, 0.501146
1789.49, 0.501324
1790.11, 0.501589
1790.73, 0.501589
1791.35, 0.502121
1791.96, 0.502652
1792.58, 0.503095
1793.21, 0.503273
1793.83, 0.503450
1794.45, 0.503538
1795.07, 0.503893
1795.69, 0.503716
1796.31, 0.503716
1796.93, 0.504158
1797.56, 0.504779
1798.18, 0.504779
1798.8, 0.505133
1799.43, 0.505310
1800.05, 0.505310
1800.68, 0.505576
1801.3, 0.506107
1801.93, 0.506196
1802.56, 0.506373
1803.18, 0.506639
1803.81, 0.506993
1804.44, 0.507082
1805.07, 0.507613
1805.7, 0.507613
1806.33, 0.507702
1806.95, 0.507791
1807.58, 0.508056
1808.22, 0.508322
1808.85, 0.508854
1809.48, 0.509119
1810.11, 0.509297
1810.74, 0.509208
1811.38, 0.509474
1812.01, 0.509651
1812.64, 0.509828
1813.28, 0.510094
1813.91, 0.510803
1814.55, 0.511068
1815.18, 0.511246
1815.82, 0.510803
1816.45, 0.511068
1817.09, 0.511068
1817.73, 0.511423
1818.36, 0.511866
1819.0, 0.512131
1819.64, 0.512663
1820.28, 0.513195
1820.92, 0.512929
1821.56, 0.513106
1822.2, 0.513283
1822.84, 0.513283
1823.48, 0.513283
1824.12, 0.513637
1824.76, 0.513726
1825.41, 0.514435
1826.05, 0.514701
1826.69, 0.514346
1827.34, 0.514346
1827.98, 0.515055
1828.63, 0.515143
1829.27, 0.515498
1829.92, 0.515586
1830.56, 0.516118
1831.21, 0.516118
1831.86, 0.516207
1832.5, 0.516207
1833.15, 0.516561
1833.8, 0.517004
1834.45, 0.517358
1835.1, 0.517270
1835.75, 0.517801
1836.4, 0.517713
1837.05, 0.518067
1837.7, 0.517978
1838.35, 0.517978
1839.01, 0.518598
1839.66, 0.518864
1840.31, 0.518421
1840.96, 0.518953
1841.62, 0.519839
1842.27, 0.519661
1842.93, 0.518864
1843.58, 0.518864
1844.24, 0.518953
1844.9, 0.519484
1845.55, 0.519839
1846.21, 0.520725
1846.87, 0.520990
1847.53, 0.520813
1848.18, 0.521079
1848.84, 0.520902
1849.5, 0.520813
1850.16, 0.521167
1850.82, 0.521079
1851.48, 0.521345
1852.14, 0.521788
1852.81, 0.522231
1853.47, 0.522319
1854.13, 0.522142
1854.8, 0.521876
1855.46, 0.522408
1856.12, 0.522851
1856.79, 0.523028
1857.45, 0.523028
1858.12, 0.523294
1858.79, 0.523737
1859.45, 0.524180
1860.12, 0.523914
1860.79, 0.524091
1861.46, 0.524091
1862.12, 0.524357
1862.79, 0.524357
1863.46, 0.524977
1864.13, 0.524800
1864.8, 0.524357
1865.48, 0.524357
1866.15, 0.524888
1866.82, 0.525331
1867.49, 0.525774
1868.16, 0.525863
1868.84, 0.526040
1869.51, 0.526128
1870.19, 0.526394
1870.86, 0.526306
1871.54, 0.525863
1872.21, 0.526394
1872.89, 0.526837
1873.56, 0.526394
1874.24, 0.526837
1874.92, 0.527192
1875.6, 0.527103
1876.28, 0.527280
1876.96, 0.527546
1877.64, 0.527457
1878.32, 0.528077
1879.0, 0.527900
1879.68, 0.527634
1880.36, 0.528077
1881.04, 0.528698
1881.73, 0.528698
1882.41, 0.528520
1883.09, 0.528609
1883.78, 0.528786
1884.46, 0.528786
1885.15, 0.528786
1885.83, 0.528875
1886.52, 0.529052
1887.21, 0.529140
1887.89, 0.529140
1888.58, 0.529052
1889.27, 0.529495
1889.96, 0.529761
1890.65, 0.529495
1891.34, 0.529583
1892.03, 0.529672
1892.72, 0.529583
1893.41, 0.529761
1894.1, 0.529761
1894.79, 0.530292
1895.49, 0.529849
1896.18, 0.529406
1896.87, 0.529672
1897.57, 0.530115
1898.26, 0.530292
1898.96, 0.530558
1899.65, 0.530469
1900.35, 0.530292
1901.05, 0.530115
1901.74, 0.530204
1902.44, 0.530558
1903.14, 0.530292
1903.84, 0.530026
1904.54, 0.530558
1905.24, 0.530647
1905.94, 0.530735
1906.64, 0.530735
1907.34, 0.530912
1908.04, 0.531001
1908.75, 0.530735
1909.45, 0.530647
1910.15, 0.531001
1910.86, 0.531089
1911.56, 0.531001
1912.27, 0.531178
1912.97, 0.531798
1913.68, 0.531355
1914.39, 0.531355
1915.09, 0.531355
1915.8, 0.531444
1916.51, 0.531621
1917.22, 0.531621
1917.93, 0.531621
1918.64, 0.532152
1919.35, 0.532507
1920.06, 0.532507
1920.77, 0.532241
1921.48, 0.532241
1922.19, 0.532507
1922.91, 0.532950
1923.62, 0.533038
1924.33, 0.532950
1925.05, 0.532950
1925.76, 0.533481
1926.48, 0.533836
1927.19, 0.533747
1927.91, 0.533747
1928.63, 0.533836
1929.35, 0.533924
1930.07, 0.534279
1930.78, 0.534456
1931.5, 0.534367
1932.22, 0.534544
1932.94, 0.534899
1933.66, 0.534544
1934.39, 0.534544
1935.11, 0.534633
1935.83, 0.534987
1936.55, 0.534899
1937.28, 0.535253
1938.0, 0.535696
1938.73, 0.535962
1939.45, 0.535696
1940.18, 0.535785
1940.9, 0.536405
1941.63, 0.536671
1942.36, 0.536582
1943.09, 0.536936
1943.81, 0.536848
1944.54, 0.536848
1945.27, 0.536759
1946.0, 0.536936
1946.73, 0.537113
1947.47, 0.537468
1948.2, 0.537468
1948.93, 0.537645
1949.66, 0.537468
1950.4, 0.537734
1951.13, 0.537734
1951.86, 0.537999
1952.6, 0.537999
1953.34, 0.538265
1954.07, 0.538531
1954.81, 0.538885
1955.55, 0.538974
1956.29, 0.539240
1957.02, 0.539417
1957.76, 0.539417
1958.5, 0.539417
1959.24, 0.539594
1959.98, 0.539771
1960.72, 0.539683
1961.47, 0.539683
1962.21, 0.540125
1962.95, 0.540214
1963.7, 0.540214
1964.44, 0.540568
1965.18, 0.540746
1965.93, 0.540746
1966.67, 0.540923
1967.42, 0.541011
1968.17, 0.541631
1968.92, 0.541809
1969.66, 0.541897
1970.41, 0.541986
1971.16, 0.542163
1971.91, 0.542252
1972.66, 0.542429
1973.41, 0.542517
1974.16, 0.542783
1974.92, 0.542960
1975.67, 0.543226
1976.42, 0.543226
1977.18, 0.543580
1977.93, 0.543492
1978.69, 0.543758
1979.44, 0.544201
1980.2, 0.544378
1980.95, 0.544466
1981.71, 0.544555
1982.47, 0.544555
1983.23, 0.544998
1983.99, 0.545264
1984.74, 0.545529
1985.51, 0.545884
1986.27, 0.545884
1987.03, 0.545972
1987.79, 0.546327
1988.55, 0.546504
1989.32, 0.546681
1990.08, 0.546947
1990.84, 0.547301
1991.61, 0.547390
1992.37, 0.547478
1993.14, 0.547744
1993.9, 0.548010
1994.67, 0.548010
1995.44, 0.548276
1996.21, 0.548276
1996.98, 0.548541
1997.75, 0.549161
1998.52, 0.549604
1999.29, 0.549516
2000.06, 0.549693
2000.83, 0.549782
2001.6, 0.549870
2002.38, 0.549870
2003.15, 0.550225
2003.93, 0.550668
2004.7, 0.551022
2005.48, 0.551288
2006.25, 0.551553
2007.03, 0.551908
2007.81, 0.552351
2008.58, 0.552085
2009.36, 0.552439
2010.14, 0.552616
2010.92, 0.553059
2011.7, 0.553059
2012.48, 0.552971
2013.26, 0.553237
2014.05, 0.553680
2014.83, 0.553768
2015.61, 0.553857
2016.4, 0.553945
2017.18, 0.554211
2017.97, 0.554477
2018.75, 0.554565
2019.54, 0.554477
2020.32, 0.554743
2021.11, 0.555097
2021.9, 0.555363
2022.69, 0.555451
2023.48, 0.555274
2024.27, 0.555363
2025.06, 0.555717
2025.85, 0.555628
2026.64, 0.555806
2027.44, 0.555806
2028.23, 0.556071
2029.02, 0.556337
2029.82, 0.556603
2030.61, 0.556692
2031.41, 0.557312
2032.2, 0.557223
2033.0, 0.557046
2033.8, 0.556957
2034.6, 0.557223
2035.4, 0.557489
2036.2, 0.557489
2037.0, 0.557400
2037.8, 0.557577
2038.6, 0.557666
2039.4, 0.557843
2040.2, 0.558109
2041.01, 0.558109
2041.81, 0.558020
2042.61, 0.558463
2043.42, 0.558552
2044.22, 0.558552
2045.03, 0.558375
2045.84, 0.558640
2046.65, 0.558729
2047.46, 0.558552
2048.26, 0.558640
2049.07, 0.559084
2049.88, 0.559261
2050.69, 0.559349
2051.51, 0.559261
2052.32, 0.559526
2053.13, 0.559526
2053.94, 0.559526
2054.76, 0.559349
2055.57, 0.559438
2056.39, 0.559172
2057.2, 0.559438
2058.02, 0.559704
2058.84, 0.559792
2059.66, 0.559881
2060.48, 0.559881
2061.29, 0.559881
2062.11, 0.560147
2062.94, 0.560058
2063.76, 0.560058
2064.58, 0.560058
2065.4, 0.560147
2066.22, 0.560412
2067.05, 0.560678
2067.87, 0.560589
2068.7, 0.560501
2069.52, 0.560324
2070.35, 0.560589
2071.18, 0.560767
2072.0, 0.560855
2072.83, 0.560944
2073.66, 0.561032
2074.49, 0.560944
2075.32, 0.560855
2076.15, 0.560767
2076.98, 0.561210
2077.82, 0.561387
2078.65, 0.561387
2079.48, 0.561298
2080.32, 0.561298
2081.15, 0.561653
2081.99, 0.562007
2082.83, 0.561653
2083.66, 0.561830
2084.5, 0.562273
2085.34, 0.562450
2086.18, 0.562184
2087.02, 0.562096
2087.86, 0.562184
2088.7, 0.562627
2089.54, 0.562716
2090.39, 0.562804
2091.23, 0.562361
2092.07, 0.562804
2092.92, 0.563336
2093.76, 0.563513
2094.61, 0.563159
2095.45, 0.563247
2096.3, 0.563336
2097.15, 0.563602
2098.0, 0.563779
2098.85, 0.563956
2099.7, 0.564133
2100.55, 0.564576
2101.4, 0.564665
2102.25, 0.564310
2103.1, 0.564399
2103.96, 0.564842
2104.81, 0.564930
2105.67, 0.564842
2106.52, 0.564930
2107.38, 0.565196
2108.24, 0.565373
2109.09, 0.565285
2109.95, 0.565285
2110.81, 0.565285
2111.67, 0.565462
2112.53, 0.565728
2113.39, 0.565816
2114.25, 0.565905
2115.12, 0.565728
2115.98, 0.565905
2116.84, 0.565905
2117.71, 0.565993
2118.58, 0.566082
2119.44, 0.566436
2120.31, 0.566436
2121.18, 0.566525
2122.04, 0.566613
2122.91, 0.566879
2123.78, 0.566791
2124.65, 0.566791
2125.52, 0.566613
2126.4, 0.566879
2127.27, 0.566968
2128.14, 0.566968
2129.02, 0.566791
2129.89, 0.567056
2130.77, 0.567322
2131.64, 0.567854
2132.52, 0.567765
2133.4, 0.567677
2134.27, 0.567677
2135.15, 0.567854
2136.03, 0.567765
2136.91, 0.568120
2137.79, 0.568120
2138.68, 0.568474
2139.56, 0.568385
2140.44, 0.567942
2141.33, 0.567677
2142.21, 0.568031
2143.1, 0.568208
2143.99, 0.568120
2144.87, 0.567765
2145.76, 0.567765
2146.65, 0.568208
2147.54, 0.568385
2148.43, 0.568297
2149.32, 0.567942
2150.21, 0.567854
2151.1, 0.568031
2151.99, 0.568120
2152.89, 0.568474
2153.78, 0.568297
2154.68, 0.568120
2155.57, 0.568297
2156.47, 0.568297
2157.37, 0.567942
2158.27, 0.567942
2159.16, 0.568120
2160.06, 0.568297
2160.96, 0.568208
2161.86, 0.568031
2162.77, 0.567854
2163.67, 0.568120
2164.57, 0.568208
2165.48, 0.568297
2166.38, 0.568385
2167.29, 0.568563
2168.2, 0.568563
2169.1, 0.568828
2170.01, 0.568474
2170.92, 0.568208
2171.83, 0.568120
2172.74, 0.568385
2173.65, 0.568297
2174.56, 0.568385
2175.47, 0.568651
2176.39, 0.568828
2177.3, 0.568651
2178.22, 0.568474
2179.13, 0.568297
2180.05, 0.568828
2180.96, 0.569094
2181.88, 0.568917
2182.8, 0.568563
2183.72, 0.568297
2184.64, 0.568297
2185.56, 0.568917
2186.48, 0.569271
2187.41, 0.568917
2188.33, 0.568385
2189.25, 0.568563
2190.18, 0.568563
2191.1, 0.568474
2192.03, 0.568563
2192.96, 0.568917
2193.89, 0.568828
2194.82, 0.568740
2195.74, 0.568563
2196.68, 0.568828
2197.61, 0.568828
2198.54, 0.568917
2199.47, 0.568917
2200.4, 0.568917
2201.34, 0.568917
2202.28, 0.569005
2203.21, 0.568828
2204.15, 0.569094
2205.08, 0.569005
2206.02, 0.569094
2206.96, 0.569183
2207.9, 0.569360
2208.84, 0.569271
2209.78, 0.569537
2210.73, 0.569625
2211.67, 0.569714
2212.61, 0.569537
2213.56, 0.569360
2214.5, 0.569183
2215.45, 0.569360
2216.4, 0.569803
2217.35, 0.569980
2218.3, 0.569625
2219.24, 0.569625
2220.2, 0.569625
2221.15, 0.569803
2222.1, 0.569803
2223.05, 0.569714
2224.0, 0.569803
2224.96, 0.569980
2225.91, 0.569980
2226.87, 0.570068
2227.83, 0.569980
2228.79, 0.570068
2229.74, 0.570246
2230.7, 0.570511
2231.66, 0.570511
2232.63, 0.570689
2233.59, 0.570866
2234.55, 0.570954
2235.51, 0.570777
2236.48, 0.571043
2237.44, 0.571220
2238.41, 0.571220
2239.38, 0.571220
2240.34, 0.571486
2241.31, 0.571220
2242.28, 0.571486
2243.25, 0.571220
2244.22, 0.571220
2245.19, 0.571486
2246.17, 0.571486
2247.14, 0.571663
2248.12, 0.571575
2249.09, 0.571486
2250.07, 0.571663
2251.04, 0.571752
2252.02, 0.571929
2253.0, 0.571929
2253.98, 0.572017
2254.96, 0.572195
2255.94, 0.572372
2256.92, 0.572283
2257.91, 0.572372
2258.89, 0.572460
2259.88, 0.572460
2260.86, 0.572283
2261.85, 0.572283
2262.83, 0.572283
2263.82, 0.572200
2264.81, 0.571866
2265.8, 0.571950
2266.79, 0.571616
2267.78, 0.571449
2268.78, 0.571533
2269.77, 0.572033
2270.76, 0.572283
2271.76, 0.572033
2272.75, 0.571866
2273.75, 0.572200
2274.75, 0.571950
2275.75, 0.571116
2276.75, 0.570615
2277.75, 0.570699
2278.75, 0.570448
2279.75, 0.570031
2280.75, 0.570031
2281.76, 0.570532
2282.76, 0.570031
2283.77, 0.569364
2284.77, 0.569281
2285.78, 0.569031
2286.79, 0.568614
2287.8, 0.567780
2288.81, 0.566779
2289.82, 0.566279
2290.83, 0.565862
2291.84, 0.566112
2292.86, 0.566362
2293.87, 0.566279
2294.89, 0.566028
2295.91, 0.566195
2296.92, 0.566445
2297.94, 0.566445
2298.96, 0.565945
2299.98, 0.565945
2301.0, 0.565945
2302.02, 0.565111
2303.04, 0.564527
2304.07, 0.564610
2305.09, 0.564360
2306.12, 0.563693
2307.15, 0.562526
2308.17, 0.561692
2309.2, 0.560524
2310.23, 0.559106
2311.26, 0.558189
2312.29, 0.557939
2313.32, 0.557772
2314.35, 0.558356
2315.39, 0.558522
2316.42, 0.559023
2317.46, 0.559773
2318.5, 0.560691
2319.53, 0.561692
2320.57, 0.562275
2321.61, 0.562776
2322.65, 0.563026
2323.69, 0.563109
2324.73, 0.563276
2325.78, 0.563443
2326.82, 0.564027
2327.86, 0.564360
2328.91, 0.565194
2329.96, 0.566112
2331.01, 0.566279
2332.05, 0.566112
2333.1, 0.566779
2334.15, 0.567196
2335.21, 0.567363
2336.26, 0.567446
2337.31, 0.567863
2338.36, 0.568197
2339.42, 0.568280
2340.48, 0.568030
2341.53, 0.568113
2342.59, 0.568614
2343.65, 0.568947
2344.71, 0.568780
2345.77, 0.568697
2346.83, 0.568864
2347.9, 0.569448
2348.96, 0.569531
2350.02, 0.569781
2351.09, 0.570365
2352.16, 0.570532
2353.23, 0.570031
2354.29, 0.569698
2355.36, 0.570198
2356.43, 0.570949
2357.51, 0.571533
2358.58, 0.572033
2359.65, 0.571866
2360.73, 0.571866
2361.8, 0.571950
2362.88, 0.572367
2363.96, 0.572116
2365.03, 0.572367
2366.11, 0.572784
2367.19, 0.572533
2368.27, 0.571950
2369.36, 0.572200
2370.44, 0.572200
2371.53, 0.572617
2372.61, 0.572700
2373.7, 0.572784
2374.78, 0.572700
2375.87, 0.572700
2376.96, 0.572200
2378.05, 0.572283
2379.14, 0.572033
2380.24, 0.571282
2381.33, 0.571366
2382.42, 0.571699
2383.52, 0.571282
2384.61, 0.571032
2385.71, 0.570865
2386.81, 0.570865
2387.91, 0.571116
2389.01, 0.571199
2390.11, 0.571282
2391.22, 0.571449
2392.32, 0.570949
2393.42, 0.571449
2394.53, 0.572283
2395.64, 0.573117
2396.74, 0.573951
2397.85, 0.574452
2398.96, 0.574535
2400.07, 0.574869
2401.18, 0.575369
2402.3, 0.576120
2403.41, 0.576787
2404.52, 0.577120
2405.64, 0.576787
2406.76, 0.576870
2407.88, 0.577371
2408.99, 0.577371
2410.11, 0.577037
2411.23, 0.576787
2412.36, 0.576954
2413.48, 0.577120
2414.6, 0.577621
2415.73, 0.578455
2416.85, 0.578788
2417.98, 0.579456
2419.11, 0.579956
2420.24, 0.580373
2421.37, 0.580540
2422.5, 0.580957
2423.64, 0.580873
2424.77, 0.580790
2425.9, 0.580957
2427.04, 0.581374
2428.18, 0.581290
2429.31, 0.581040
2430.45, 0.580957
2431.59, 0.581457
2432.73, 0.581540
2433.88, 0.581707
2435.02, 0.581457
2436.16, 0.581290
2437.31, 0.580790
2438.45, 0.580456
2439.6, 0.580873
2440.75, 0.581207
2441.9, 0.581040
2443.05, 0.581040
2444.2, 0.581040
2445.35, 0.581123
2446.51, 0.581624
2447.67, 0.581958
2448.82, 0.581624
2449.98, 0.581707
2451.14, 0.582041
2452.3, 0.582374
2453.46, 0.582041
2454.62, 0.581958
2455.78, 0.582124
2456.94, 0.581958
2458.11, 0.581791
2459.28, 0.581958
2460.44, 0.581958
2461.61, 0.582041
2462.78, 0.582124
2463.95, 0.582041
2465.12, 0.581791
2466.3, 0.581624
2467.47, 0.581207
2468.65, 0.581123
2469.82, 0.581123
2471.0, 0.581540
2472.18, 0.582124
2473.36, 0.582374
2474.54, 0.582541
2475.72, 0.582792
2476.9, 0.582541
2478.08, 0.583292
2479.27, 0.583542
2480.46, 0.583459
2481.64, 0.583792
2482.83, 0.583709
2484.02, 0.583876
2485.21, 0.583959
2486.4, 0.583625
2487.6, 0.584042
2488.79, 0.584459
2489.99, 0.584376
2491.18, 0.584376
2492.38, 0.584710
2493.58, 0.584793
2494.78, 0.585460
2495.98, 0.585293
2497.18, 0.585127
2498.39, 0.585210
2499.59, 0.585710
2500.8, 0.585877
2502.01, 0.585794
2503.21, 0.586044
2504.42, 0.586461
2505.63, 0.586961
2506.84, 0.587128
2508.06, 0.587295
2509.27, 0.587712
2510.49, 0.587795
2511.7, 0.587962
2512.92, 0.587962
2514.14, 0.587962
2515.36, 0.588379
2516.58, 0.588546
2517.8, 0.587962
2519.03, 0.588212
2520.25, 0.588713
2521.48, 0.589046
2522.7, 0.589213
2523.93, 0.589297
2525.16, 0.589463
2526.39, 0.589714
2527.62, 0.589714
2528.86, 0.589964
2530.09, 0.590047
2531.33, 0.590965
2532.56, 0.591215
2533.8, 0.590965
2535.04, 0.591548
2536.28, 0.591799
2537.52, 0.591298
2538.76, 0.591799
2540.01, 0.592382
2541.25, 0.593467
2542.5, 0.594301
2543.75, 0.594634
2544.99, 0.594884
2546.24, 0.595885
2547.49, 0.596719
2548.75, 0.596969
2550.0, 0.597720
2551.26, 0.598554
2552.51, 0.599304
2553.77, 0.598888
2555.03, 0.598470
2556.29, 0.598721
2557.55, 0.599304
2558.81, 0.601139
2560.08, 0.604392
2561.34, 0.606143
2562.61, 0.605810
2563.88, 0.605643
2565.14, 0.604058
2566.41, 0.602891
2567.68, 0.604225
2568.96, 0.606727
2570.23, 0.605893
2571.51, 0.605393
2572.78, 0.608895
2574.06, 0.607728
2575.34, 0.606977
2576.62, 0.608562
2577.9, 0.606727
2579.18, 0.606477
2580.47, 0.608729
2581.75, 0.608979
2583.04, 0.611981
2584.32, 0.611314
2585.61, 0.609146
2586.9, 0.610980
2588.2, 0.609813
2589.49, 0.608562
2590.78, 0.607978
2592.08, 0.610230
2593.37, 0.618403
2594.67, 0.623073
2595.97, 0.614066
2597.27, 0.608729
2598.57, 0.607895
2599.88, 0.609146
2601.18, 0.610313
2602.49, 0.610980
2603.79, 0.613399
2605.1, 0.616151
2606.41, 0.613149
2607.72, 0.611230
2609.03, 0.610980
2610.35, 0.610230
2611.66, 0.609729
2612.98, 0.610563
2614.3, 0.610313
2615.62, 0.614483
2616.94, 0.615234
2618.26, 0.612315
2619.58, 0.615400
2620.91, 0.613149
2622.23, 0.608729
2623.56, 0.608895
2624.89, 0.610813
2626.22, 0.613899
2627.55, 0.610730
2628.88, 0.612815
2630.21, 0.615817
2631.55, 0.611314
2632.89, 0.610396
2634.22, 0.610146
2635.56, 0.607895
2636.9, 0.607728
2638.25, 0.607811
2639.59, 0.608395
2640.93, 0.608979
2642.28, 0.609146
2643.63, 0.608645
2644.98, 0.610230
2646.33, 0.609229
2647.68, 0.608145
2649.03, 0.607728
2650.39, 0.608729
2651.74, 0.610563
2653.1, 0.609896
2654.46, 0.609062
2655.82, 0.608895
2657.18, 0.607394
2658.54, 0.609312
2659.9, 0.609146
2661.27, 0.607811
2662.64, 0.607561
2664.01, 0.612732
2665.38, 0.615400
2666.74, 0.613065
2668.12, 0.608812
2669.49, 0.614650
2670.87, 0.611314
2672.24, 0.602640
2673.62, 0.601556
2675.0, 0.603641
2676.38, 0.603975
2677.76, 0.600055
2679.15, 0.595051
2680.54, 0.586628
2681.92, 0.580456
2683.31, 0.573951
2684.7, 0.565444
2686.09, 0.557688
2687.48, 0.549932
2688.88, 0.543260
2690.27, 0.537756
2691.67, 0.535755
2693.07, 0.535921
2694.47, 0.533002
2695.87, 0.528582
2697.27, 0.524829
2698.67, 0.522828
2700.08, 0.522911
2701.49, 0.521160
2702.9, 0.517073
2704.31, 0.512736
2705.72, 0.507315
2707.13, 0.501311
2708.54, 0.496057
2709.96, 0.489301
2711.38, 0.477375
2712.8, 0.463114
2714.22, 0.450771
2715.64, 0.431589
2717.06, 0.394060
2718.49, 0.338516
2719.91, 0.306408
2721.34, 0.319668
2722.77, 0.356947
2724.2, 0.395644
2725.63, 0.416077
2727.07, 0.420164
2728.5, 0.409155
2729.94, 0.382718
2731.38, 0.362702
2732.82, 0.372293
2734.26, 0.395978
2735.7, 0.409655
2737.15, 0.413575
2738.59, 0.415493
2740.04, 0.412991
2741.49, 0.405235
2742.94, 0.395895
2744.39, 0.389556
2745.84, 0.389056
2747.3, 0.390057
2748.76, 0.389389
2750.21, 0.387555
2751.67, 0.385219
2753.14, 0.383552
2754.6, 0.384719
2756.06, 0.381550
2757.53, 0.376046
2759.0, 0.372876
2760.46, 0.371208
2761.94, 0.370541
2763.41, 0.368123
2764.88, 0.364870
2766.36, 0.363035
2767.83, 0.361451
2769.31, 0.359699
2770.79, 0.357865
2772.27, 0.354862
2773.76, 0.352027
2775.24, 0.350275
2776.73, 0.349108
2778.22, 0.347773
2779.71, 0.346522
2781.2, 0.345355
2782.69, 0.343520
2784.18, 0.342019
2785.68, 0.342019
2787.18, 0.341435
2788.68, 0.338933
2790.18, 0.337182
2791.68, 0.336431
2793.19, 0.335764
2794.69, 0.334930
2796.2, 0.334346
2797.71, 0.333762
2799.22, 0.333012
2800.73, 0.332511
2802.24, 0.332762
2803.76, 0.331928
2805.28, 0.330510
2806.8, 0.329676
2808.32, 0.329259
2809.84, 0.328675
2811.36, 0.328425
2812.89, 0.328425
2814.42, 0.328341
2815.94, 0.327758
2817.48, 0.327174
2819.01, 0.327257
2820.54, 0.327174
2822.08, 0.326673
2823.61, 0.326090
2825.15, 0.325589
2826.69, 0.325172
2828.23, 0.324755
2829.78, 0.324338
2831.32, 0.323838
2832.87, 0.323838
2834.42, 0.323504
2835.97, 0.322754
2837.52, 0.322170
2839.08, 0.321586
2840.63, 0.320752
2842.19, 0.319918
2843.75, 0.319418
2845.31, 0.318417
2846.87, 0.317083
2848.44, 0.316165
2850.0, 0.314581
2851.57, 0.312746
2853.14, 0.310911
2854.71, 0.308743
2856.28, 0.305824
2857.86, 0.302321
2859.43, 0.298568
2861.01, 0.295315
2862.59, 0.293647
2864.17, 0.294148
2865.76, 0.295899
2867.34, 0.297651
2868.93, 0.299235
2870.52, 0.300903
2872.11, 0.301987
2873.7, 0.302655
2875.29, 0.303155
2876.89, 0.303739
2878.49, 0.303989
2880.08, 0.304072
2881.69, 0.304072
2883.29, 0.303989
2884.89, 0.303572
2886.5, 0.303405
2888.11, 0.303405
2889.72, 0.303155
2891.33, 0.302655
2892.94, 0.302571
2894.56, 0.302571
2896.17, 0.302404
2897.79, 0.302154
2899.42, 0.302071
2901.04, 0.301570
2902.66, 0.301404
2904.29, 0.301404
2905.92, 0.300820
2907.55, 0.300403
2909.18, 0.300486
2910.81, 0.300403
2912.45, 0.300319
2914.08, 0.300236
2915.72, 0.300236
2917.36, 0.300153
2919.01, 0.300403
2920.65, 0.300736
2922.3, 0.300987
2923.94, 0.301153
2925.59, 0.301237
2927.25, 0.301404
2928.9, 0.301654
2930.56, 0.301737
2932.21, 0.302071
2933.87, 0.302321
2935.53, 0.302488
2937.2, 0.302655
2938.86, 0.302905
2940.53, 0.303238
2942.2, 0.303405
2943.87, 0.303739
2945.54, 0.304239
2947.22, 0.304573
2948.89, 0.304990
2950.57, 0.305407
2952.25, 0.306074
2953.93, 0.306491
2955.62, 0.306741
2957.3, 0.307242
2958.99, 0.307909
2960.68, 0.308326
2962.37, 0.308826
2964.07, 0.309326
2965.76, 0.309827
2967.46, 0.310494
2969.16, 0.311245
2970.86, 0.311912
2972.56, 0.312662
2974.27, 0.313246
2975.98, 0.313830
2977.69, 0.314581
2979.4, 0.315581
2981.11, 0.316499
2982.83, 0.317166
2984.54, 0.318000
2986.26, 0.318917
2987.98, 0.319835
2989.71, 0.320836
2991.43, 0.321753
2993.16, 0.322921
2994.89, 0.324005
2996.62, 0.325005
2998.35, 0.326173
3000.09, 0.327424
3001.83, 0.328258
3003.57, 0.329009
3005.31, 0.330009
3007.05, 0.331094
3008.79, 0.332094
3010.54, 0.333179
3012.29, 0.334096
3014.04, 0.335013
3015.8, 0.335931
3017.55, 0.337182
3019.31, 0.338016
3021.07, 0.339016
3022.83, 0.339934
3024.59, 0.340851
3026.36, 0.341685
3028.13, 0.342686
3029.9, 0.343770
3031.67, 0.344688
3033.44, 0.345688
3035.22, 0.346606
3037.0, 0.347523
3038.78, 0.348524
3040.56, 0.349441
3042.34, 0.350275
3044.13, 0.351026
3045.92, 0.351943
3047.71, 0.353028
3049.5, 0.354112
3051.3, 0.355029
3053.09, 0.355863
3054.89, 0.356614
3056.69, 0.357448
3058.5, 0.358282
3060.3, 0.359116
3062.11, 0.360200
3063.92, 0.361117
3065.73, 0.361951
3067.55, 0.362785
3069.36, 0.363452
3071.18, 0.364453
3073.0, 0.365371
3074.82, 0.366205
3076.65, 0.366955
3078.48, 0.367873
3080.31, 0.368873
3082.14, 0.369791
3083.97, 0.370875
3085.8, 0.372042
3087.64, 0.373043
3089.48, 0.373961
3091.33, 0.374961
3093.17, 0.376129
3095.02, 0.377046
3096.87, 0.378214
3098.72, 0.379382
3100.57, 0.380466
3102.43, 0.381633
3104.28, 0.382968
3106.14, 0.384219
3108.01, 0.385636
3109.87, 0.386887
3111.74, 0.388389
3113.61, 0.389640
3115.48, 0.390974
3117.35, 0.392475
3119.23, 0.394310
3121.1, 0.395895
3122.98, 0.397312
3124.87, 0.398814
3126.75, 0.400315
3128.64, 0.401732
3130.53, 0.403317
3132.42, 0.404902
3134.31, 0.406570
3136.21, 0.408071
3138.11, 0.409489
3140.01, 0.410906
3141.91, 0.412491
3143.82, 0.414242
3145.73, 0.415910
3147.64, 0.417411
3149.55, 0.418996
3151.46, 0.420497
3153.38, 0.422082
3155.3, 0.423500
3157.22, 0.425168
3159.14, 0.426836
3161.07, 0.428670
3163.0, 0.430255
3164.93, 0.431673
3166.86, 0.433257
3168.8, 0.435009
3170.74, 0.436760
3172.68, 0.438428
3174.62, 0.439846
3176.56, 0.441180
3178.51, 0.442848
3180.46, 0.444766
3182.42, 0.446017
3184.37, 0.447352
3186.33, 0.449020
3188.29, 0.450604
3190.25, 0.451939
3192.21, 0.453440
3194.18, 0.454858
3196.15, 0.456275
3198.12, 0.457777
3200.09, 0.459278
3202.07, 0.460612
3204.05, 0.461946
3206.03, 0.463281
3208.02, 0.464615
3210.0, 0.465950
3211.99, 0.467284
3213.98, 0.468618
3215.98, 0.469953
3217.97, 0.471371
3219.97, 0.472788
3221.97, 0.473956
3223.98, 0.475374
3225.98, 0.476708
3227.99, 0.477876
3230.0, 0.479043
3232.02, 0.480461
3234.03, 0.481712
3236.05, 0.482963
3238.07, 0.484214
3240.1, 0.485382
3242.12, 0.486382
3244.15, 0.487550
3246.18, 0.488551
3248.22, 0.489552
3250.25, 0.490802
3252.29, 0.492053
3254.33, 0.492971
3256.38, 0.493805
3258.43, 0.494889
3260.47, 0.495973
3262.53, 0.496724
3264.58, 0.497725
3266.64, 0.498642
3268.7, 0.499643
3270.76, 0.500477
3272.82, 0.501394
3274.89, 0.502228
3276.96, 0.503062
3279.04, 0.503646
3281.11, 0.504480
3283.19, 0.505314
3285.27, 0.505981
3287.35, 0.506648
3289.44, 0.507315
3291.53, 0.508066
3293.62, 0.508650
3295.71, 0.508983
3297.81, 0.509484
3299.91, 0.509901
3302.01, 0.510318
3304.11, 0.510485
3306.22, 0.510818
3308.33, 0.511152
3310.44, 0.511485
3312.56, 0.511736
3314.68, 0.512069
3316.8, 0.512153
3318.92, 0.512570
3321.05, 0.512653
3323.18, 0.512736
3325.31, 0.512736
3327.44, 0.512570
3329.58, 0.512069
3331.72, 0.511402
3333.86, 0.510234
3336.01, 0.508817
3338.16, 0.507065
3340.31, 0.504647
3342.46, 0.501644
3344.61, 0.498725
3346.77, 0.495973
3348.94, 0.493805
3351.1, 0.492220
3353.27, 0.490969
3355.44, 0.489635
3357.61, 0.488384
3359.79, 0.486633
3361.97, 0.484798
3364.15, 0.482129
3366.33, 0.478710
3368.52, 0.475207
3370.71, 0.471704
3372.9, 0.468201
3375.1, 0.465032
3377.3, 0.462280
3379.5, 0.460445
3381.71, 0.459444
3383.91, 0.459361
3386.12, 0.459945
3388.34, 0.461363
3390.55, 0.462780
3392.77, 0.463948
3394.99, 0.464365
3397.22, 0.464031
3399.45, 0.462197
3401.68, 0.459194
3403.91, 0.455858
3406.15, 0.452356
3408.39, 0.448519
3410.63, 0.445017
3412.87, 0.441931
3415.12, 0.439846
3417.37, 0.439262
3419.63, 0.440430
3421.88, 0.443515
3424.14, 0.448019
3426.41, 0.452856
3428.67, 0.457943
3430.94, 0.462614
3433.21, 0.467034
3435.49, 0.470954
3437.77, 0.474206
3440.05, 0.477208
3442.33, 0.479961
3444.62, 0.482463
3446.91, 0.485048
3449.2, 0.487216
3451.5, 0.489301
3453.8, 0.491470
3456.1, 0.493555
3458.41, 0.495389
3460.72, 0.496974
3463.03, 0.497558
3465.34, 0.497224
3467.66, 0.496140
3469.98, 0.494055
3472.31, 0.491553
3474.63, 0.488968
3476.96, 0.486633
3479.3, 0.485215
3481.64, 0.484464
3483.97, 0.484714
3486.32, 0.485298
3488.66, 0.485882
3491.01, 0.486216
3493.36, 0.486216
3495.72, 0.485632
3498.08, 0.484965
3500.44, 0.484798
3502.81, 0.485965
3505.18, 0.488884
3507.55, 0.493221
3509.92, 0.498559
3512.3, 0.504480
3514.68, 0.510401
3517.06, 0.516573
3519.45, 0.522911
3521.84, 0.529333
3524.24, 0.535338
3526.64, 0.540758
3529.04, 0.545512
3531.44, 0.549765
3533.85, 0.553352
3536.26, 0.556688
3538.67, 0.559273
3541.09, 0.561358
3543.51, 0.563276
3545.93, 0.565111
3548.36, 0.566695
3550.79, 0.568280
3553.22, 0.569614
3555.66, 0.570699
3558.1, 0.571533
3560.54, 0.572450
3562.99, 0.573201
3565.44, 0.573951
3567.9, 0.574535
3570.35, 0.575202
3572.81, 0.575953
3575.28, 0.576870
3577.75, 0.577954
3580.22, 0.579205
3582.69, 0.580206
3585.17, 0.581290
3587.65, 0.582041
3590.14, 0.582958
3592.62, 0.583625
3595.11, 0.584293
3597.61, 0.584793
3600.11, 0.585460
3602.61, 0.586044
3605.11, 0.586544
3607.62, 0.586961
3610.14, 0.587462
3612.65, 0.587795
3615.17, 0.588296
3617.69, 0.588713
3620.22, 0.589130
3622.75, 0.589380
3625.28, 0.589714
3627.82, 0.589964
3630.36, 0.590381
3632.9, 0.590631
3635.45, 0.590881
3638.0, 0.591298
3640.56, 0.591632
3643.12, 0.591715
3645.68, 0.591965
3648.24, 0.592049
3650.81, 0.592299
3653.39, 0.592549
3655.96, 0.592633
3658.54, 0.592883
3661.13, 0.593133
3663.71, 0.593300
3666.3, 0.593717
3668.9, 0.594050
3671.5, 0.594384
3674.1, 0.594718
3676.7, 0.595218
3679.31, 0.595468
3681.93, 0.595718
3684.54, 0.595802
3687.17, 0.596135
3689.79, 0.596302
3692.42, 0.596552
3695.05, 0.596802
3697.69, 0.597053
3700.32, 0.597053
3702.97, 0.597053
3705.61, 0.596969
3708.27, 0.597219
3710.92, 0.597386
3713.58, 0.597386
3716.24, 0.597219
3718.91, 0.597303
3721.58, 0.597386
3724.25, 0.597386
3726.93, 0.597219
3729.61, 0.597303
3732.29, 0.597219
3734.98, 0.597136
3737.67, 0.596969
3740.37, 0.596886
3743.07, 0.596886
3745.78, 0.596636
3748.49, 0.596469
3751.2, 0.596636
3753.91, 0.596469
3756.63, 0.596552
3759.36, 0.596552
3762.09, 0.596469
3764.82, 0.596219
3767.55, 0.596135
3770.29, 0.596052
3773.04, 0.595968
3775.78, 0.595551
3778.54, 0.595051
3781.29, 0.594467
3784.05, 0.593967
3786.82, 0.592966
3789.59, 0.591632
3792.36, 0.590047
3795.13, 0.588212
3797.92, 0.586211
3800.7, 0.584126
3803.49, 0.582041
3806.28, 0.580206
3809.08, 0.578288
3811.88, 0.576620
3814.68, 0.575035
3817.49, 0.573534
3820.31, 0.571866
3823.12, 0.570365
3825.94, 0.568780
3828.77, 0.567363
3831.6, 0.565695
3834.43, 0.564027
3837.27, 0.562442
3840.11, 0.561275
3842.96, 0.560274
3845.81, 0.559523
3848.67, 0.558856
3851.53, 0.558606
3854.39, 0.558022
3857.26, 0.557522
3860.13, 0.557105
3863.01, 0.556688
3865.89, 0.556271
3868.77, 0.555937
3871.66, 0.555353
3874.55, 0.555103
3877.45, 0.554853
3880.35, 0.554603
3883.26, 0.554269
3886.17, 0.553935
3889.09, 0.553352
3892.01, 0.552768
3894.93, 0.552434
3897.86, 0.552101
3900.79, 0.551684
3903.73, 0.551267
3906.67, 0.550850
3909.62, 0.550433
3912.57, 0.549849
3915.52, 0.549265
3918.48, 0.548514
3921.45, 0.547680
3924.42, 0.546680
3927.39, 0.545846
3930.37, 0.544928
3933.35, 0.544178
3936.34, 0.543010
3939.33, 0.540675
3942.32, 0.537339
3945.32, 0.533670
3948.33, 0.529833
3951.34, 0.526164
3954.35, 0.522244
3957.37, 0.518574
3960.39, 0.515405
3963.42, 0.512987
3966.45, 0.511068
3969.49, 0.509317
3972.53, 0.507899
3975.58, 0.506982
3978.63, 0.506315
3981.68, 0.506315
3984.75, 0.507315
3987.81, 0.509150
3990.88, 0.511986
3993.95, 0.515655
3997.03, 0.519742
4000.12, 0.523995
4003.21, 0.528249
4006.3, 0.532585
4009.4, 0.536755
4012.5, 0.540592
4015.61, 0.543677
4018.72, 0.546179
4021.84, 0.548181
4024.96, 0.550433
4028.09, 0.552518
4031.22, 0.554603
4034.36, 0.556688
4037.5, 0.558939
4040.65, 0.561024
4043.8, 0.563109
4046.96, 0.565111
4050.12, 0.566862
4053.29, 0.568197
4056.46, 0.569364
4059.64, 0.570115
4062.82, 0.570865
4066.0, 0.571449
4069.19, 0.572033
4072.39, 0.572450
4075.59, 0.572950
4078.8, 0.573367
4082.01, 0.573784
4085.23, 0.573951
4088.45, 0.574118
4091.68, 0.574285
4094.91, 0.574368
4098.15, 0.574368
4101.39, 0.574618
4104.63, 0.574535
4107.89, 0.574618
4111.14, 0.574535
4114.41, 0.574535
4117.67, 0.574452
4120.95, 0.574368
4124.23, 0.574201
4127.51, 0.574201
4130.8, 0.574118
4134.09, 0.573951
4137.39, 0.573784
4140.7, 0.573618
4144.01, 0.573451
4147.32, 0.573367
4150.64, 0.573117
4153.97, 0.572867
4157.3, 0.572533
4160.64, 0.572200
4163.98, 0.571616
4167.33, 0.571282
4170.68, 0.570865
4174.04, 0.570532
4177.4, 0.569865
4180.77, 0.569448
4184.14, 0.569031
4187.52, 0.568780
4190.91, 0.568280
4194.3, 0.567780
4197.69, 0.567613
4201.1, 0.567696
4204.5, 0.567780
4207.92, 0.568197
4211.34, 0.568864
4214.76, 0.569865
4218.19, 0.570699
4221.62, 0.571616
4225.06, 0.572116
4228.51, 0.572200
4231.96, 0.571866
4235.42, 0.571199
4238.88, 0.569781
4242.35, 0.567863
4245.83, 0.565361
4249.31, 0.562526
4252.79, 0.559440
4256.28, 0.557355
4259.78, 0.557355
4263.29, 0.558356
4266.79, 0.558856
4270.31, 0.558773
4273.83, 0.558356
4277.35, 0.557688
4280.89, 0.556688
4284.42, 0.555687
4287.97, 0.554352
4291.52, 0.553018
4295.07, 0.551350
4298.63, 0.549932
4302.2, 0.548431
4305.78, 0.546763
4309.35, 0.545179
4312.94, 0.543761
4316.53, 0.542260
4320.13, 0.541009
4323.73, 0.539674
4327.34, 0.538507
4330.96, 0.537172
4334.58, 0.536005
4338.21, 0.534754
4341.84, 0.533670
4345.48, 0.532669
4349.12, 0.531751
4352.77, 0.530834
4356.43, 0.529833
4360.1, 0.528832
4363.76, 0.527915
4367.44, 0.526831
4371.12, 0.525913
4374.81, 0.524829
4378.51, 0.523828
4382.21, 0.522661
4385.92, 0.521660
4389.63, 0.520743
4393.35, 0.519742
4397.08, 0.518741
4400.81, 0.517740
4404.55, 0.516656
4408.29, 0.515739
4412.04, 0.514571
4415.8, 0.513487
4419.57, 0.512236
4423.34, 0.511152
4427.12, 0.509901
4430.9, 0.508650
4434.69, 0.507399
4438.49, 0.506148
4442.29, 0.504730
4446.1, 0.503396
4449.92, 0.501811
4453.74, 0.500477
4457.57, 0.498976
4461.41, 0.497308
4465.25, 0.495473
4469.1, 0.493805
4472.95, 0.491970
4476.82, 0.490052
4480.69, 0.487800
4484.56, 0.485548
4488.44, 0.483213
4492.33, 0.480878
4496.23, 0.478042
4500.13, 0.475040
4504.04, 0.471537
4507.96, 0.467951
4511.88, 0.463614
4515.81, 0.458694
4519.75, 0.453023
4523.69, 0.446851
4527.65, 0.440179
4531.6, 0.433507
4535.57, 0.427086
4539.54, 0.421331
4543.52, 0.415994
4547.5, 0.411240
4551.5, 0.406987
4555.5, 0.403150
4559.5, 0.399481
4563.52, 0.395811
4567.54, 0.391725
4571.56, 0.387304
4575.6, 0.382467
4579.64, 0.377547
4583.69, 0.372293
4587.75, 0.367122
4591.81, 0.361868
4595.88, 0.357031
4599.96, 0.352527
4604.04, 0.348607
4608.14, 0.344688
4612.24, 0.341018
4616.34, 0.337515
4620.46, 0.334096
4624.58, 0.330593
4628.71, 0.327174
4632.84, 0.323504
4636.99, 0.319668
4641.14, 0.315498
4645.3, 0.311495
4649.47, 0.307909
4653.64, 0.304990
4657.82, 0.302821
4662.01, 0.301237
4666.21, 0.299652
4670.41, 0.298068
4674.62, 0.296066
4678.84, 0.293647
4683.07, 0.290645
4687.3, 0.287226
4691.54, 0.283473
4695.79, 0.279386
4700.05, 0.275050
4704.31, 0.270629
4708.59, 0.265959
4712.87, 0.261122
4717.15, 0.256452
4721.45, 0.251781
4725.76, 0.247111
4730.07, 0.243024
4734.39, 0.239271
4738.72, 0.235769
4743.05, 0.232933
4747.39, 0.230681
4751.75, 0.228847
4756.1, 0.227679
4760.47, 0.226845
4764.85, 0.226428
4769.23, 0.225928
4773.62, 0.225260
4778.02, 0.224426
4782.43, 0.223426
4786.85, 0.222091
4791.27, 0.220256
4795.7, 0.218005
4800.14, 0.215336
4804.59, 0.212417
4809.05, 0.209665
4813.51, 0.206913
4817.99, 0.204160
4822.47, 0.201408
4826.96, 0.198906
4831.46, 0.196404
4835.96, 0.194069
4840.48, 0.191734
4845.0, 0.189399
4849.54, 0.186897
4854.08, 0.184812
4858.63, 0.182644
4863.18, 0.180892
4867.75, 0.179141
4872.33, 0.177640
4876.91, 0.176389
4881.5, 0.175388
4886.1, 0.174637
4890.71, 0.174137
4895.33, 0.173803
4899.96, 0.173470
4904.59, 0.173136
4909.24, 0.172719
4913.89, 0.172302
4918.55, 0.171552
4923.22, 0.170551
4927.9, 0.169550
4932.59, 0.168549
4937.29, 0.167632
4942.0, 0.166714
4946.71, 0.166214
4951.44, 0.165964
4956.17, 0.165797
4960.91, 0.165547
4965.67, 0.165297
4970.43, 0.164963
4975.2, 0.164796
4979.98, 0.164296
4984.76, 0.163629
4989.56, 0.162961
4994.37, 0.162127
4999.18, 0.161127
5004.01, 0.159625
5008.84, 0.157624
5013.69, 0.155456
5018.54, 0.152787
5023.4, 0.149534
5028.28, 0.145948
5033.16, 0.142445
5038.05, 0.138943
5042.95, 0.135690
5047.86, 0.132688
5052.78, 0.130352
5057.71, 0.128434
5062.65, 0.127017
5067.6, 0.126099
5072.56, 0.125849
5077.53, 0.126016
5082.5, 0.126766
5087.49, 0.128184
5092.49, 0.130102
5097.5, 0.132604
5102.51, 0.135440
5107.54, 0.138526
5112.58, 0.141695
5117.62, 0.144697
5122.68, 0.147866
5127.75, 0.150869
5132.82, 0.153621
5137.91, 0.156290
5143.01, 0.158875
5148.12, 0.161210
5153.23, 0.163295
5158.36, 0.165297
5163.5, 0.167382
5168.65, 0.169633
5173.81, 0.171885
5178.98, 0.174053
5184.15, 0.176055
5189.34, 0.177890
5194.54, 0.179891
5199.75, 0.181726
5204.98, 0.183394
5210.21, 0.185146
5215.45, 0.186397
5220.7, 0.186647
5225.96, 0.186647
5231.23, 0.186397
5236.52, 0.186063
5241.81, 0.185229
5247.12, 0.184395
5252.44, 0.183478
5257.76, 0.182810
5263.1, 0.182143
5268.45, 0.181726
5273.81, 0.181393
5279.18, 0.181226
5284.56, 0.181476
5289.95, 0.182227
5295.36, 0.183144
5300.77, 0.184228
5306.2, 0.185396
5311.63, 0.186730
5317.08, 0.188148
5322.54, 0.189315
5328.01, 0.190149
5333.49, 0.190983
5338.98, 0.191400
5344.49, 0.192151
5350.0, 0.192985
5355.53, 0.193652
5361.07, 0.194736
5366.62, 0.196154
5372.18, 0.197572
5377.75, 0.198990
5383.34, 0.200241
5388.93, 0.201408
5394.54, 0.202659
5400.16, 0.204327
5405.79, 0.206496
5411.44, 0.209081
5417.09, 0.212751
5422.76, 0.216837
5428.43, 0.220090
5434.12, 0.224176
5439.83, 0.228680
5445.54, 0.233433
5451.26, 0.238104
5457.0, 0.243024
5462.75, 0.247862
5468.52, 0.251448
5474.29, 0.254950
5480.08, 0.258620
5485.88, 0.261039
5491.69, 0.263707
5497.51, 0.266293
5503.35, 0.268544
5509.2, 0.270129
5515.06, 0.271880
5520.93, 0.273382
5526.82, 0.274132
5532.71, 0.274132
5538.63, 0.273632
5544.55, 0.271964
5550.49, 0.269545
5556.44, 0.266459
5562.4, 0.264875
5568.37, 0.264875
5574.36, 0.266626
5580.36, 0.269045
5586.37, 0.271797
5592.4, 0.275050
5598.44, 0.278219
5604.49, 0.279970
5610.56, 0.281221
5616.63, 0.282138
5622.73, 0.282305
5628.83, 0.282555
5634.95, 0.283806
5641.08, 0.284640
5647.23, 0.282972
5653.39, 0.281555
5659.56, 0.279887
5665.74, 0.278052
5671.94, 0.277635
5678.15, 0.275967
5684.38, 0.273799
5690.62, 0.272214
5696.87, 0.269879
5703.14, 0.268294
5709.42, 0.267377
5715.72, 0.264708
5722.03, 0.261956
5728.35, 0.259287
5734.69, 0.257119
5741.03, 0.255367
5747.4, 0.253616
5753.78, 0.250530
5760.17, 0.249946
5766.58, 0.248445
5773.0, 0.243108
5779.44, 0.238688
5785.88, 0.234851
5792.35, 0.230932
5798.83, 0.227596
5805.32, 0.224009
5811.83, 0.221424
5818.35, 0.220090
5824.89, 0.216921
5831.45, 0.212417
5838.01, 0.208998
5844.59, 0.206412
5851.19, 0.204994
5857.8, 0.204577
5864.43, 0.204411
5871.07, 0.204411
5877.73, 0.206829
5884.4, 0.205328
5891.09, 0.202993
5897.79, 0.199907
5904.5, 0.193902
5911.23, 0.188648
5917.98, 0.183227
5924.75, 0.177473
5931.53, 0.173053
5938.32, 0.166381
5945.13, 0.157791
5951.96, 0.150618
5958.8, 0.144447
5965.65, 0.139193
5972.53, 0.133188
5979.42, 0.127851
5986.32, 0.124098
5993.24, 0.119761
6000.18, 0.115674
6007.13, 0.112672
6014.1, 0.110170
6021.08, 0.107334
6028.09, 0.105416
6035.1, 0.104249
6042.14, 0.104582
6049.19, 0.104249
6056.25, 0.100996
6063.34, 0.0988280
6070.44, 0.0975770
6077.55, 0.0949080
6084.69, 0.0924890
6091.84, 0.0909050
6099.0, 0.0902380
6106.19, 0.0907380
6113.39, 0.0919060
6120.61, 0.0918220
6127.84, 0.0923230
6135.09, 0.0936570
6142.36, 0.0952420
6149.65, 0.0965760
6156.95, 0.0979100
6164.27, 0.0984110
6171.61, 0.0987440
6178.97, 0.0998280
6186.34, 0.100329
6193.73, 0.0990780
6201.14, 0.0984940
6208.57, 0.0979100
6216.01, 0.0972430
6223.47, 0.0962420
6230.95, 0.0951580
6238.45, 0.0941570
6245.97, 0.0933230
6253.5, 0.0921560
6261.06, 0.0910720
6268.63, 0.0903210
6276.21, 0.0897370
6283.82, 0.0890700
6291.45, 0.0886530
6299.1, 0.0882360
6306.76, 0.0881530
6314.44, 0.0879860
6322.14, 0.0876520
6329.86, 0.0874020
6337.6, 0.0876520
6345.35, 0.0871520
6353.13, 0.0854000
6360.92, 0.0842330
6368.74, 0.0833150
6376.57, 0.0817310
6384.43, 0.0802300
6392.3, 0.0786450
6400.19, 0.0774780
6408.1, 0.0772270
6416.03, 0.0759760
6423.98, 0.0736410
6431.95, 0.0723900
6439.94, 0.0713060
6447.95, 0.0707220
6455.98, 0.0702220
6464.03, 0.0700550
6472.1, 0.0700550
6480.19, 0.0702220
6488.31, 0.0706390
6496.44, 0.0703050
6504.59, 0.0693880
6512.76, 0.0694710
6520.95, 0.0699720
6529.16, 0.0700550
6537.4, 0.0706390
6545.65, 0.0715560
6553.92, 0.0723900
6562.22, 0.0732240
6570.54, 0.0744750
6578.88, 0.0749760
6587.23, 0.0753090
6595.61, 0.0756430
6604.02, 0.0757260
6612.44, 0.0758100
6620.89, 0.0756430
6629.35, 0.0761430
6637.84, 0.0762270
6646.35, 0.0748920
6654.88, 0.0738910
6663.44, 0.0738080
6672.01, 0.0741420
6680.61, 0.0743920
6689.23, 0.0742250
6697.88, 0.0745590
6706.54, 0.0754760
6715.23, 0.0763100
6723.94, 0.0768940
6732.67, 0.0775610
6741.42, 0.0783120
6750.2, 0.0790620
6759.0, 0.0795630
6767.82, 0.0801460
6776.67, 0.0804800
6785.54, 0.0809800
6794.44, 0.0808140
6803.35, 0.0803970
6812.29, 0.0806470
6821.26, 0.0815640
6830.24, 0.0822310
6839.25, 0.0827320
6848.29, 0.0837320
6857.35, 0.0854000
6866.43, 0.0857340
6875.54, 0.0849830
6884.67, 0.0848170
6893.82, 0.0848170
6903.0, 0.0847330
6912.2, 0.0843160
6921.43, 0.0838990
6930.69, 0.0836490
6939.96, 0.0832320
6949.27, 0.0830650
6958.59, 0.0833150
6967.95, 0.0825650
6977.33, 0.0817310
6986.73, 0.0813140
6996.16, 0.0808140
7005.61, 0.0802300
7015.09, 0.0797290
7024.6, 0.0792290
7034.13, 0.0787290
7043.69, 0.0783950
7053.27, 0.0772270
7062.88, 0.0759760
7072.52, 0.0749760
7082.18, 0.0740580
7091.87, 0.0732240
7101.58, 0.0723070
7111.32, 0.0715560
7121.09, 0.0710560
7130.88, 0.0707220
7140.71, 0.0709720
7150.56, 0.0711390
7160.43, 0.0713060
7170.33, 0.0714730
7180.27, 0.0713890
7190.23, 0.0713060
7200.21, 0.0713890
7210.23, 0.0712230
7220.27, 0.0708060
7230.34, 0.0704720
7240.44, 0.0702220
7250.56, 0.0698880
7260.72, 0.0699720
7270.9, 0.0703050
7281.12, 0.0705550
7291.36, 0.0708890
7301.63, 0.0714730
7311.93, 0.0720570
7322.25, 0.0726400
7332.61, 0.0734740
7343.0, 0.0739750
7353.41, 0.0740580
7363.86, 0.0738910
7374.33, 0.0738910
7384.83, 0.0737250
7395.37, 0.0733080
7405.93, 0.0728910
7416.53, 0.0726400
7427.15, 0.0721400
7437.81, 0.0713890
7448.5, 0.0706390
7459.22, 0.0700550
7469.96, 0.0692210
7480.74, 0.0681370
7491.55, 0.0670530
7502.39, 0.0659690
7513.27, 0.0650510
7524.17, 0.0642170
7535.11, 0.0632160
7546.08, 0.0621320
7557.08, 0.0615480
7568.11, 0.0609650
7579.17, 0.0604640
7590.27, 0.0597970
7601.4, 0.0591300
7612.56, 0.0586290
7623.76, 0.0582120
7634.98, 0.0576290
7646.24, 0.0567950
7657.54, 0.0557940
7668.87, 0.0550430
7680.23, 0.0541260
7691.62, 0.0531250
7703.05, 0.0522080
7714.51, 0.0514570
7726.01, 0.0503730
7737.54, 0.0492890
7749.11, 0.0481210
7760.71, 0.0469540
7772.35, 0.0459530
7784.02, 0.0449520
7795.72, 0.0439510
7807.46, 0.0430340
7819.23, 0.0420330
7831.04, 0.0411160
7842.89, 0.0402820
7854.77, 0.0395310
7866.69, 0.0387800
7878.65, 0.0381130
7890.64, 0.0372790
7902.67, 0.0364450
7914.74, 0.0356950
7926.84, 0.0350280
7938.98, 0.0342770
7951.16, 0.0334430
7963.37, 0.0324420
7975.62, 0.0315250
7987.91, 0.0305240
8000.24, 0.0295230
8012.6, 0.0286890
8025.01, 0.0279390
8037.45, 0.0271880
8049.93, 0.0265210
8062.45, 0.0257700
8075.01, 0.0250200
8087.61, 0.0244360
8100.24, 0.0239350
8112.91, 0.0234350
8125.63, 0.0227680
8138.39, 0.0221840
8151.18, 0.0216840
8164.02, 0.0211830
8176.9, 0.0207660
8189.81, 0.0202660
8202.77, 0.0198490
8215.77, 0.0193490
8228.82, 0.0189320
8241.9, 0.0187650
8255.02, 0.0183480
8268.19, 0.0178470
8281.39, 0.0174300
8294.65, 0.0170130
8307.94, 0.0169300
8321.28, 0.0167630
8334.66, 0.0165130
8348.08, 0.0164300
8361.54, 0.0164300
8375.05, 0.0161790
8388.6, 0.0160130
8402.2, 0.0160960
8415.84, 0.0163460
8429.52, 0.0167630
8443.25, 0.0172640
8457.02, 0.0180980
8470.84, 0.0191820
8484.7, 0.0204330
8498.61, 0.0222680
8512.57, 0.0247690
8526.57, 0.0278550
8540.62, 0.0314410
8554.71, 0.0357780
8568.85, 0.0411990
8583.04, 0.0473710
8597.27, 0.0544590
8611.55, 0.0627990
8625.88, 0.0723900
8640.26, 0.0830650
8654.68, 0.0948250
8669.16, 0.107334
8683.68, 0.120928
8698.25, 0.136024
8712.87, 0.151869
8727.53, 0.168216
8742.25, 0.184729
8757.02, 0.200574
8771.83, 0.215086
8786.7, 0.226762
8801.62, 0.234768
8816.59, 0.239188
8831.61, 0.241773
8846.68, 0.243858
8861.8, 0.245943
8876.97, 0.248028
8892.2, 0.249279
8907.48, 0.248529
8922.81, 0.245693
8938.2, 0.241356
8953.63, 0.236186
8969.13, 0.230598
8984.67, 0.225094
9000.27, 0.220256
9015.92, 0.216170
9031.63, 0.212584
9047.39, 0.209581
9063.21, 0.206996
9079.08, 0.204494
9095.01, 0.201992
9111.0, 0.199490
9127.04, 0.196821
9143.13, 0.194319
9159.28, 0.191901
9175.49, 0.189399
9191.76, 0.187231
9208.09, 0.185229
9224.47, 0.183311
9240.92, 0.181643
9257.42, 0.179891
9273.98, 0.177973
9290.6, 0.175888
9307.28, 0.173636
9324.02, 0.170884
9340.82, 0.167548
9357.68, 0.163712
9374.6, 0.159042
9391.58, 0.152954
9408.62, 0.145614
9425.73, 0.137358
9442.9, 0.128267
9460.13, 0.119177
9477.42, 0.111004
9494.78, 0.104249
9512.2, 0.0988280
9529.69, 0.0947410
9547.24, 0.0918220
9564.86, 0.0897370
9582.54, 0.0882360
9600.28, 0.0874850
9618.1, 0.0872350
9635.97, 0.0872350
9653.92, 0.0876520
9671.93, 0.0887360
9690.01, 0.0902380
9708.16, 0.0919060
9726.37, 0.0938240
9744.65, 0.0962420
9763.0, 0.0985770
9781.43, 0.100412
9799.92, 0.101330
9818.48, 0.101330
9837.1, 0.100662
9855.8, 0.0998280
9874.58, 0.0983270
9893.42, 0.0956590
9912.34, 0.0922390
9931.33, 0.0881530
9950.39, 0.0832320
9969.52, 0.0778950
9988.74, 0.0722230
10008.0, 0.0665520
10027.4, 0.0616320
10046.8, 0.0586290
10066.3, 0.0588800
10085.9, 0.0640500
10105.6, 0.0744750
10125.3, 0.0891530
10145.1, 0.105500
10165.0, 0.121262
10185.0, 0.135857
10205.0, 0.149284
10225.2, 0.161877
10245.4, 0.174387
10265.7, 0.186313
10286.0, 0.197405
10306.5, 0.207913
10327.0, 0.217421
10347.6, 0.225844
10368.3, 0.232183
10389.1, 0.235602
10409.9, 0.235769
10430.9, 0.233433
10451.9, 0.229514
10473.0, 0.226094
10494.2, 0.224009
10515.5, 0.223259
10536.9, 0.222925
10558.4, 0.222091
10579.9, 0.220840
10601.5, 0.218755
10623.3, 0.215753
10645.1, 0.212083
10667.0, 0.207913
10689.0, 0.204160
10711.1, 0.203327
10733.2, 0.207913
10755.5, 0.217254
10777.9, 0.227596
10800.3, 0.235602
10822.9, 0.240439
10845.5, 0.242441
10868.2, 0.243024
10891.1, 0.242691
10914.0, 0.241356
10937.0, 0.239522
10960.2, 0.237520
10983.4, 0.235685
11006.7, 0.233767
11030.1, 0.232099
11053.6, 0.230515
11077.3, 0.228680
11101.0, 0.226678
11124.8, 0.224593
11148.7, 0.222758
11172.7, 0.220757
11196.9, 0.218839
11221.1, 0.217087
11245.4, 0.215253
11269.9, 0.213001
11294.4, 0.210499
11319.1, 0.207913
11343.9, 0.205578
11368.8, 0.203410
11393.7, 0.201158
11418.8, 0.199073
11444.0, 0.197655
11469.4, 0.196488
11494.8, 0.195404
11520.3, 0.194153
11546.0, 0.192651
11571.8, 0.190650
11597.7, 0.188148
11623.7, 0.185146
11649.8, 0.181393
11676.0, 0.176889
11702.4, 0.171218
11728.9, 0.163962
11755.5, 0.156039
11782.2, 0.148450
11809.0, 0.142112
11836.0, 0.136941
11863.0, 0.132688
11890.3, 0.129268
11917.6, 0.126016
11945.0, 0.123013
11972.6, 0.120511
12000.4, 0.118426
12028.2, 0.115924
12056.2, 0.113589
12084.3, 0.111838
12112.5, 0.109670
12140.9, 0.107751
12169.4, 0.105917
12198.0, 0.104082
12226.8, 0.102414
12255.7, 0.100662
12284.7, 0.0989940
12313.9, 0.0974930
12343.2, 0.0959090
12372.7, 0.0943240
12402.3, 0.0929060
12432.0, 0.0917390
12461.9, 0.0905710
12491.9, 0.0887360
12522.1, 0.0869020
12552.4, 0.0856510
12582.9, 0.0846500
12613.5, 0.0836490
12644.3, 0.0824820
12675.2, 0.0813140
12706.3, 0.0801460
12737.5, 0.0792290
12768.9, 0.0782280
12800.4, 0.0773110
12832.1, 0.0768100
12863.9, 0.0760600
12895.9, 0.0748920
12928.1, 0.0742250
12960.4, 0.0737250
12992.9, 0.0726400
13025.5, 0.0715560
13058.3, 0.0710560
13091.3, 0.0701380
13124.4, 0.0691380
13157.8, 0.0683870
13191.2, 0.0674700
13224.9, 0.0668030
13258.7, 0.0658850
13292.7, 0.0648840
13326.9, 0.0640500
13361.2, 0.0632160
13395.7, 0.0622160
13430.4, 0.0615480
13465.3, 0.0610480
13500.4, 0.0601310
13535.7, 0.0587960
13571.1, 0.0576290
13606.7, 0.0567110
13642.5, 0.0557100
13678.5, 0.0547100
13714.7, 0.0537090
13751.1, 0.0526250
13787.6, 0.0517910
13824.4, 0.0507070
13861.4, 0.0497060
13898.5, 0.0483710
13935.9, 0.0466200
13973.5, 0.0451190
14011.2, 0.0441180
14049.2, 0.0432840
14087.4, 0.0424500
14125.8, 0.0411160
14164.3, 0.0398650
14203.2, 0.0386140
14242.2, 0.0375290
14281.4, 0.0366960
14320.9, 0.0356110
14360.5, 0.0343600
14400.4, 0.0331930
14440.5, 0.0318580
14480.9, 0.0306070
14521.4, 0.0296900
14562.2, 0.0289390
14603.3, 0.0280220
14644.5, 0.0272710
14686.0, 0.0276880
14727.7, 0.0301070
14769.7, 0.0340270
14811.9, 0.0385300
14854.3, 0.0411160
14897.0, 0.0406990
14939.9, 0.0388640
14983.1, 0.0363620
15026.5, 0.0336100
15070.2, 0.0312750
15114.2, 0.0287730
15158.3, 0.0266040
15202.8, 0.0248530
15247.5, 0.0231850
15292.5, 0.0216840
15337.7, 0.0211830
15383.2, 0.0216000
15429.0, 0.0231850
15475.1, 0.0261870
15521.4, 0.0310240
15568.0, 0.0364450
15614.9, 0.0403650
15662.1, 0.0416160
15709.6, 0.0409490
15757.3, 0.0390310
15805.4, 0.0366960
15853.7, 0.0341940
15902.3, 0.0320250
15951.2, 0.0295230
16000.5, 0.0271880
16050.0, 0.0254370
16099.8, 0.0241020
16150.0, 0.0235180
16200.5, 0.0226840
16251.3, 0.0216840
16302.4, 0.0214340
16353.8, 0.0217670
16405.5, 0.0223510
16457.6, 0.0242690
16510.0, 0.0270210
16562.8, 0.0307740
16615.9, 0.0366120
16669.3, 0.0437840
16723.1, 0.0528750
16777.2, 0.0638000
16831.7, 0.0770610
16886.5, 0.0919890
16941.7, 0.108502
16997.2, 0.127434
17053.1, 0.147449
17109.4, 0.167465
17166.1, 0.187898
17223.1, 0.208414
17280.5, 0.228930
17338.3, 0.248529
17396.5, 0.266126
17455.1, 0.281638
17514.0, 0.293564
17573.4, 0.302071
17633.2, 0.308242
17693.4, 0.311161
17754.0, 0.310994
17815.0, 0.309577
17876.4, 0.307075
17938.3, 0.303405
18000.5, 0.297901
18063.3, 0.292480
18126.4, 0.287226
18190.0, 0.281054
18254.1, 0.274883
18318.6, 0.269295
18383.5, 0.264541
18449.0, 0.260121
18514.9, 0.255451
18581.2, 0.250614
18648.0, 0.245943
18715.4, 0.241273
18783.2, 0.237437
18851.5, 0.233850
18920.3, 0.231766
18989.6, 0.231515
19059.4, 0.231432
19129.7, 0.233934
19200.6, 0.239438
19272.0, 0.245443
19343.9, 0.251364
19416.3, 0.257035
19489.3, 0.261789
19562.8, 0.265292
19637.0, 0.267127
19711.6, 0.267877
19786.8, 0.264374
19862.6, 0.258453
19939.0, 0.251865
20016.0, 0.244276
20093.6, 0.238861
20171.8, 0.236446
20250.6, 0.233262
20330.0, 0.230774
20410.0, 0.229457
20490.7, 0.233079
20572.0, 0.239666
20654.0, 0.241166
20736.6, 0.242849
20819.9, 0.244422
20903.8, 0.245337
20988.5, 0.243105
21073.8, 0.241678
21159.8, 0.239739
21246.5, 0.236738
21334.0, 0.234726
21422.1, 0.233409
21511.0, 0.231872
21600.7, 0.228213
21691.0, 0.225249
21782.1, 0.220858
21874.0, 0.216321
21966.7, 0.211418
22060.2, 0.205381
22154.5, 0.202710
22249.6, 0.197623
22345.5, 0.190891
22442.2, 0.184707
22539.8, 0.181999
22638.2, 0.181012
22737.5, 0.177828
22837.7, 0.177060
22938.7, 0.178670
23040.7, 0.182914
23143.5, 0.184744
23247.3, 0.182731
23352.1, 0.179328
23457.7, 0.172120
23564.4, 0.161729
23672.0, 0.157521
23780.5, 0.160228
23890.1, 0.162424
24000.7, 0.165388
24112.3, 0.171242
24225.0, 0.180938
24338.7, 0.190964
24453.5, 0.197331
24569.4, 0.202563
24686.4, 0.206186
24804.5, 0.206771
24923.8, 0.205088
25044.2, 0.205344
25165.8, 0.206076
25288.6, 0.203588
25412.5, 0.200477
25537.7, 0.199050
25664.1, 0.196818
25791.8, 0.192428
25920.8, 0.188622
26051.1, 0.183426
26182.6, 0.176255
26315.5, 0.169156
26449.8, 0.163119
26585.4, 0.157850
26722.5, 0.150386
26860.9, 0.140323
27000.8, 0.134030
27142.1, 0.130115
27285.0, 0.127919
27429.4, 0.128907
27575.3, 0.128944
27722.7, 0.126712
27871.8, 0.121589
28022.4, 0.115588
28174.7, 0.111710
28328.7, 0.111637
28484.4, 0.116796
28641.7, 0.127480
28800.9, 0.143324
28961.8, 0.161765
29124.5, 0.176840
29289.0, 0.188952
29455.4, 0.199855
29623.8, 0.205527
29794.0, 0.207759
29966.3, 0.207686
30140.5, 0.204429
30316.7, 0.200514
30495.1, 0.195209
30675.5, 0.185329
30858.1, 0.174901
31042.8, 0.162131
31229.8, 0.150605
31419.1, 0.142519
31610.7, 0.138823
31804.6, 0.137908
32000.9, 0.138933
32199.7, 0.142885
32400.9, 0.148483
32604.8, 0.154337
32811.1, 0.157813
33020.1, 0.159899
33231.8, 0.156386
33446.2, 0.151849
33663.4, 0.153605
33883.4, 0.165022
34106.3, 0.182439
34332.1, 0.198355
34561.0, 0.203332
34792.9, 0.198172
35028.0, 0.189683
35266.3, 0.183024
35507.8, 0.177938
35752.7, 0.168095
36001.0, 0.156386
36252.8, 0.148739
36508.1, 0.142446
36767.0, 0.137067
37029.7, 0.133920
37296.1, 0.129785
37566.3, 0.124443
37840.5, 0.122065
38118.8, 0.120272
38401.2, 0.120784
38687.8, 0.127773
38978.6, 0.142336
39273.9, 0.162277
39573.7, 0.178194
39878.1, 0.190964
40187.3, 0.202746
40501.2, 0.207174
40820.0, 0.205966
41144.0, 0.199929
41473.2, 0.192464
41807.6, 0.187415
42147.5, 0.183244
42493.0, 0.175011
42844.2, 0.162973
43201.2, 0.157447
43564.3, 0.154118
43933.5, 0.148702
44309.0, 0.144568
44691.0, 0.141458
45079.6, 0.141823
45475.0, 0.145848
45877.5, 0.146361
46287.1, 0.147166
46704.2, 0.147824
47128.7, 0.142775
47561.1, 0.140872
48001.5, 0.138384
48450.1, 0.136957
48907.2, 0.134213
49373.0, 0.136042
49847.7, 0.131139
50331.5, 0.125394
50825.0, 0.127883
51328.2, 0.127297
51841.5, 0.125065
52365.1, 0.126346
52899.4, 0.128761
53444.8, 0.121882
54001.5, 0.116064
54570.1, 0.114747
55150.6, 0.111783
55743.6, 0.107758
56349.5, 0.101465
56968.7, 0.0939270
57601.7, 0.0908900
58248.9, 0.0937070
58910.9, 0.0970740
59588.1, 0.0966710
60281.0, 0.0966350
60990.2, 0.0989760
61716.3, 0.111088
62459.8, 0.131688
63221.6, 0.155252
64002.1, 0.174645
64802.1, 0.191623
65622.1, 0.201941
66463.4, 0.205673
67326.6, 0.225944
68212.4, 0.233006
69121.9, 0.225761
70056.0, 0.227408
71015.7, 0.228945
72002.0, 0.228323
73016.3, 0.218809
74059.4, 0.217419
75132.7, 0.214492
76237.6, 0.200990
77375.5, 0.190635
78547.9, 0.191367
79756.3, 0.192391
81002.5, 0.190708
82288.5, 0.193452
83615.7, 0.191842
84986.5, 0.193050
86402.9, 0.195940
87867.4, 0.194806
89382.4, 0.197660
90950.5, 0.194477
92574.6, 0.203990
94257.2, 0.209662
96002.7, 0.203917
97814.1, 0.203222
99695.1, 0.212955
101650.0, 0.217785
103683.0, 0.214821
105799.0, 0.227335
108003.0, 0.238495
110301.0, 0.235458
112699.0, 0.234653
115204.0, 0.233884
117822.0, 0.234397
120562.0, 0.252326
123433.0, 0.273036
126443.0, 0.279842
129604.0, 0.282769
132926.0, 0.290453
136424.0, 0.306809
140111.0, 0.306882
144003.0, 0.297149
148118.0, 0.317127
152474.0, 0.335239
157095.0, 0.320786
162004.0, 0.330153
167231.0, 0.371719
172805.0, 0.368353
178764.0, 0.349107
185148.0, 0.339044
192005.0, 0.342557
199390.0, 0.371097
207366.0, 0.395430
216006.0, 0.354742
