Database of Origin, USGS Spectral Database
Sample Description, See USGS database for additional info
Date Added,2016-08-03 20:56:06.525954

Data ID,USGS_alu22          
Sample ID, alunite_res9.1585
Mineral Name, alunite
Material Class,Sulfate

Wavelength
1346.18, 0.465338
1346.53, 0.465283
1346.88, 0.465066
1347.23, 0.464576
1347.58, 0.464304
1347.93, 0.464630
1348.28, 0.465338
1348.64, 0.465446
1348.99, 0.465120
1349.34, 0.464902
1349.69, 0.464957
1350.04, 0.464522
1350.39, 0.464195
1350.74, 0.464413
1351.1, 0.464522
1351.45, 0.464576
1351.8, 0.464467
1352.15, 0.464576
1352.51, 0.464739
1352.86, 0.464250
1353.21, 0.463869
1353.56, 0.463869
1353.92, 0.464250
1354.27, 0.463978
1354.63, 0.463162
1354.98, 0.462563
1355.33, 0.462291
1355.69, 0.462400
1356.04, 0.462726
1356.4, 0.462835
1356.75, 0.462781
1357.11, 0.462781
1357.46, 0.462835
1357.82, 0.462291
1358.18, 0.461747
1358.53, 0.461856
1358.89, 0.462182
1359.24, 0.461747
1359.6, 0.461258
1359.96, 0.460877
1360.31, 0.460714
1360.67, 0.460387
1361.03, 0.460006
1361.39, 0.459789
1361.74, 0.460061
1362.1, 0.460061
1362.46, 0.459843
1362.82, 0.459952
1363.18, 0.459789
1363.53, 0.459354
1363.89, 0.459517
1364.25, 0.459354
1364.61, 0.459027
1364.97, 0.459027
1365.33, 0.458701
1365.69, 0.458483
1366.05, 0.457776
1366.41, 0.457395
1366.77, 0.457558
1367.13, 0.457395
1367.49, 0.457395
1367.85, 0.456525
1368.21, 0.455981
1368.57, 0.456198
1368.93, 0.456851
1369.3, 0.456797
1369.66, 0.456198
1370.02, 0.455600
1370.38, 0.455110
1370.74, 0.454566
1371.11, 0.454730
1371.47, 0.454566
1371.83, 0.453805
1372.19, 0.452880
1372.56, 0.452771
1372.92, 0.453043
1373.29, 0.452771
1373.65, 0.452608
1374.01, 0.452336
1374.38, 0.452064
1374.74, 0.451629
1375.11, 0.451357
1375.47, 0.451139
1375.84, 0.451085
1376.2, 0.450813
1376.57, 0.450323
1376.93, 0.450106
1377.3, 0.449453
1377.67, 0.448746
1378.03, 0.448419
1378.4, 0.448093
1378.76, 0.447658
1379.13, 0.447603
1379.5, 0.447331
1379.87, 0.447440
1380.23, 0.447222
1380.6, 0.446787
1380.97, 0.446189
1381.34, 0.445645
1381.7, 0.444992
1382.07, 0.444883
1382.44, 0.444448
1382.81, 0.444067
1383.18, 0.443795
1383.55, 0.443251
1383.92, 0.443034
1384.29, 0.442870
1384.66, 0.442435
1385.03, 0.442000
1385.4, 0.441510
1385.77, 0.441184
1386.14, 0.440912
1386.51, 0.440966
1386.88, 0.440422
1387.25, 0.439715
1387.62, 0.438899
1387.99, 0.438464
1388.36, 0.438464
1388.74, 0.438083
1389.11, 0.437539
1389.48, 0.437430
1389.85, 0.436832
1390.23, 0.436342
1390.6, 0.435798
1390.97, 0.435254
1391.35, 0.434602
1391.72, 0.433514
1392.09, 0.432752
1392.47, 0.432045
1392.84, 0.431066
1393.21, 0.430576
1393.59, 0.430141
1393.96, 0.429706
1394.34, 0.429488
1394.71, 0.428944
1395.09, 0.429270
1395.46, 0.429488
1395.84, 0.429434
1396.22, 0.429597
1396.59, 0.429651
1396.97, 0.429542
1397.35, 0.429216
1397.72, 0.428835
1398.1, 0.428781
1398.48, 0.428726
1398.85, 0.428128
1399.23, 0.427258
1399.61, 0.427149
1399.99, 0.427203
1400.37, 0.426931
1400.74, 0.426605
1401.12, 0.426278
1401.5, 0.426224
1401.88, 0.426224
1402.26, 0.425789
1402.64, 0.425245
1403.02, 0.425027
1403.4, 0.424266
1403.78, 0.423776
1404.16, 0.423558
1404.54, 0.423341
1404.92, 0.422906
1405.3, 0.422416
1405.68, 0.421872
1406.06, 0.421328
1406.44, 0.420730
1406.83, 0.420294
1407.21, 0.420077
1407.59, 0.420022
1407.97, 0.419424
1408.35, 0.419098
1408.74, 0.418934
1409.12, 0.418336
1409.5, 0.418282
1409.89, 0.417955
1410.27, 0.417574
1410.65, 0.417738
1411.04, 0.417520
1411.42, 0.416323
1411.81, 0.415344
1412.19, 0.414746
1412.58, 0.413658
1412.96, 0.413603
1413.35, 0.412026
1413.73, 0.411264
1414.12, 0.411971
1414.5, 0.411264
1414.89, 0.409197
1415.28, 0.407837
1415.66, 0.407674
1416.05, 0.410122
1416.44, 0.411590
1416.82, 0.411210
1417.21, 0.408762
1417.6, 0.406912
1417.98, 0.405661
1418.37, 0.404627
1418.76, 0.405334
1419.15, 0.407456
1419.54, 0.408762
1419.93, 0.409850
1420.32, 0.409306
1420.71, 0.406966
1421.09, 0.405117
1421.48, 0.404627
1421.88, 0.403920
1422.27, 0.403322
1422.66, 0.402342
1423.05, 0.399677
1423.44, 0.396794
1423.83, 0.395923
1424.22, 0.394890
1424.61, 0.392714
1425.0, 0.390755
1425.39, 0.389667
1425.78, 0.390429
1426.18, 0.389178
1426.57, 0.387382
1426.96, 0.386131
1427.36, 0.383955
1427.75, 0.382922
1428.14, 0.382541
1428.54, 0.382378
1428.93, 0.380637
1429.32, 0.377862
1429.72, 0.376774
1430.11, 0.376285
1430.51, 0.375686
1430.9, 0.375850
1431.3, 0.376067
1431.69, 0.374544
1432.09, 0.374490
1432.48, 0.374218
1432.88, 0.374272
1433.28, 0.374707
1433.67, 0.374381
1434.07, 0.374381
1434.46, 0.375741
1434.86, 0.376122
1435.26, 0.376666
1435.66, 0.377373
1436.05, 0.377754
1436.45, 0.378026
1436.85, 0.378134
1437.25, 0.379059
1437.65, 0.380202
1438.05, 0.380800
1438.44, 0.381562
1438.84, 0.382323
1439.24, 0.382432
1439.64, 0.382378
1440.04, 0.383139
1440.44, 0.383466
1440.84, 0.383792
1441.24, 0.384445
1441.65, 0.384608
1442.05, 0.385098
1442.45, 0.385805
1442.85, 0.386349
1443.25, 0.387002
1443.65, 0.388035
1444.05, 0.388090
1444.46, 0.388362
1444.86, 0.388851
1445.26, 0.388851
1445.67, 0.388851
1446.07, 0.389232
1446.47, 0.389558
1446.88, 0.389722
1447.28, 0.389830
1447.68, 0.389939
1448.09, 0.389994
1448.49, 0.390211
1448.9, 0.390429
1449.3, 0.390592
1449.71, 0.390211
1450.11, 0.389994
1450.52, 0.390266
1450.93, 0.390211
1451.33, 0.389830
1451.74, 0.390048
1452.14, 0.389994
1452.55, 0.389830
1452.96, 0.389014
1453.36, 0.388525
1453.77, 0.388362
1454.18, 0.388144
1454.59, 0.387981
1455.0, 0.387709
1455.41, 0.387382
1455.81, 0.387219
1456.22, 0.387056
1456.63, 0.386784
1457.04, 0.386458
1457.45, 0.386240
1457.86, 0.385805
1458.27, 0.385642
1458.68, 0.385642
1459.09, 0.385315
1459.5, 0.384554
1459.91, 0.384445
1460.32, 0.384064
1460.74, 0.383846
1461.15, 0.383792
1461.56, 0.383629
1461.97, 0.383302
1462.39, 0.383139
1462.8, 0.383030
1463.21, 0.382758
1463.62, 0.382323
1464.04, 0.382269
1464.45, 0.382106
1464.86, 0.381888
1465.28, 0.381453
1465.69, 0.381507
1466.11, 0.381181
1466.52, 0.380474
1466.94, 0.380582
1467.35, 0.380528
1467.77, 0.379549
1468.18, 0.379331
1468.6, 0.379222
1469.02, 0.378624
1469.43, 0.378189
1469.85, 0.378406
1470.27, 0.378189
1470.68, 0.377264
1471.1, 0.376557
1471.52, 0.376176
1471.94, 0.375686
1472.35, 0.374979
1472.77, 0.374054
1473.19, 0.373347
1473.61, 0.372477
1474.03, 0.371552
1474.45, 0.370954
1474.87, 0.370464
1475.29, 0.369648
1475.71, 0.368723
1476.13, 0.367418
1476.55, 0.366656
1476.97, 0.366275
1477.39, 0.365677
1477.81, 0.364752
1478.23, 0.363882
1478.65, 0.363174
1479.07, 0.362467
1479.5, 0.361978
1479.92, 0.361869
1480.34, 0.361488
1480.76, 0.361434
1481.19, 0.361162
1481.61, 0.360944
1482.03, 0.360944
1482.46, 0.360726
1482.88, 0.360563
1483.31, 0.360454
1483.73, 0.360509
1484.16, 0.360998
1484.58, 0.361053
1485.01, 0.361162
1485.43, 0.361379
1485.86, 0.361706
1486.28, 0.361923
1486.71, 0.362032
1487.14, 0.362141
1487.56, 0.362685
1487.99, 0.363229
1488.42, 0.363664
1488.84, 0.364317
1489.27, 0.365133
1489.7, 0.365622
1490.13, 0.366003
1490.56, 0.366765
1490.98, 0.367907
1491.41, 0.368832
1491.84, 0.369702
1492.27, 0.370083
1492.7, 0.370845
1493.13, 0.371715
1493.56, 0.372477
1493.99, 0.373021
1494.42, 0.373837
1494.85, 0.375142
1495.29, 0.376339
1495.72, 0.377373
1496.15, 0.378134
1496.58, 0.378842
1497.01, 0.379712
1497.44, 0.380691
1497.88, 0.381507
1498.31, 0.382269
1498.74, 0.383194
1499.18, 0.383792
1499.61, 0.384390
1500.04, 0.385206
1500.48, 0.386022
1500.91, 0.386512
1501.35, 0.387165
1501.78, 0.387546
1502.22, 0.387981
1502.65, 0.388416
1503.09, 0.388851
1503.53, 0.389558
1503.96, 0.390320
1504.4, 0.390592
1504.83, 0.391027
1505.27, 0.391462
1505.71, 0.391734
1506.15, 0.391734
1506.58, 0.392115
1507.02, 0.392659
1507.46, 0.392877
1507.9, 0.393094
1508.34, 0.393475
1508.78, 0.393747
1509.21, 0.394074
1509.66, 0.394454
1510.09, 0.394781
1510.53, 0.394944
1510.97, 0.395107
1511.42, 0.395379
1511.86, 0.395923
1512.3, 0.396358
1512.74, 0.396685
1513.18, 0.396794
1513.62, 0.397120
1514.06, 0.397610
1514.51, 0.397882
1514.95, 0.397990
1515.39, 0.398426
1515.83, 0.398698
1516.28, 0.399133
1516.72, 0.399296
1517.16, 0.399405
1517.61, 0.399677
1518.05, 0.400003
1518.5, 0.400384
1518.94, 0.400819
1519.39, 0.400928
1519.83, 0.400982
1520.28, 0.401363
1520.73, 0.401635
1521.17, 0.401853
1521.62, 0.401962
1522.07, 0.402179
1522.51, 0.402560
1522.96, 0.402886
1523.41, 0.403158
1523.85, 0.403213
1524.3, 0.403648
1524.75, 0.403757
1525.2, 0.404083
1525.65, 0.404518
1526.1, 0.404682
1526.55, 0.405008
1527.0, 0.405334
1527.45, 0.405606
1527.9, 0.405824
1528.35, 0.405824
1528.8, 0.406042
1529.25, 0.406314
1529.7, 0.406368
1530.15, 0.406205
1530.6, 0.406694
1531.05, 0.407130
1531.51, 0.407130
1531.96, 0.407184
1532.41, 0.407565
1532.87, 0.407891
1533.32, 0.408000
1533.77, 0.408054
1534.23, 0.408272
1534.68, 0.408490
1535.14, 0.408598
1535.59, 0.408925
1536.05, 0.409142
1536.5, 0.409034
1536.96, 0.408870
1537.41, 0.408870
1537.87, 0.409197
1538.32, 0.409306
1538.78, 0.409469
1539.24, 0.409578
1539.7, 0.409904
1540.15, 0.410013
1540.61, 0.410230
1541.07, 0.410448
1541.53, 0.410611
1541.98, 0.410448
1542.44, 0.410720
1542.9, 0.410938
1543.36, 0.411318
1543.82, 0.411699
1544.28, 0.411645
1544.74, 0.411590
1545.2, 0.411862
1545.66, 0.412080
1546.12, 0.412243
1546.59, 0.412189
1547.05, 0.412134
1547.51, 0.412352
1547.97, 0.412678
1548.43, 0.412950
1548.9, 0.413114
1549.36, 0.412950
1549.82, 0.413222
1550.29, 0.413549
1550.75, 0.413875
1551.21, 0.414147
1551.68, 0.414147
1552.14, 0.414474
1552.61, 0.414691
1553.07, 0.414637
1553.54, 0.414746
1554.0, 0.415072
1554.47, 0.415290
1554.93, 0.415072
1555.4, 0.415181
1555.87, 0.415453
1556.34, 0.415507
1556.8, 0.415670
1557.27, 0.415997
1557.74, 0.415997
1558.21, 0.416378
1558.68, 0.416486
1559.14, 0.416486
1559.61, 0.416541
1560.08, 0.416541
1560.55, 0.416813
1561.02, 0.417194
1561.49, 0.417411
1561.96, 0.417629
1562.43, 0.417738
1562.9, 0.417574
1563.38, 0.417792
1563.85, 0.418118
1564.32, 0.418227
1564.79, 0.418499
1565.26, 0.418608
1565.74, 0.418826
1566.21, 0.419098
1566.68, 0.419098
1567.16, 0.419152
1567.63, 0.419533
1568.1, 0.419805
1568.58, 0.420077
1569.05, 0.419968
1569.53, 0.420022
1570.0, 0.420240
1570.48, 0.420458
1570.96, 0.420403
1571.43, 0.420566
1571.91, 0.420730
1572.39, 0.421002
1572.86, 0.421110
1573.34, 0.421382
1573.82, 0.421709
1574.3, 0.421654
1574.77, 0.421709
1575.25, 0.421926
1575.73, 0.421981
1576.21, 0.422362
1576.69, 0.422579
1577.17, 0.422634
1577.65, 0.422470
1578.13, 0.422470
1578.61, 0.422579
1579.09, 0.423123
1579.57, 0.423667
1580.05, 0.423722
1580.54, 0.423613
1581.02, 0.423667
1581.5, 0.423885
1581.98, 0.424266
1582.47, 0.424320
1582.95, 0.424266
1583.43, 0.424374
1583.92, 0.424592
1584.4, 0.424592
1584.88, 0.424755
1585.37, 0.425082
1585.85, 0.425190
1586.34, 0.425245
1586.82, 0.425462
1587.31, 0.425734
1587.8, 0.426061
1588.28, 0.426115
1588.77, 0.426006
1589.26, 0.426170
1589.74, 0.426442
1590.23, 0.426714
1590.72, 0.427040
1591.21, 0.427149
1591.7, 0.427258
1592.19, 0.427366
1592.67, 0.427530
1593.16, 0.427638
1593.65, 0.427965
1594.14, 0.428237
1594.63, 0.428182
1595.12, 0.428291
1595.61, 0.428400
1596.11, 0.428400
1596.6, 0.428835
1597.09, 0.428890
1597.58, 0.428672
1598.08, 0.428672
1598.57, 0.428835
1599.06, 0.428944
1599.55, 0.429379
1600.05, 0.429542
1600.54, 0.429978
1601.04, 0.430032
1601.53, 0.430032
1602.03, 0.430250
1602.52, 0.430413
1603.02, 0.430522
1603.51, 0.430685
1604.01, 0.430739
1604.5, 0.430576
1605.0, 0.430576
1605.5, 0.430794
1606.0, 0.430902
1606.49, 0.431174
1606.99, 0.431338
1607.49, 0.431718
1607.99, 0.431827
1608.49, 0.431773
1608.99, 0.431773
1609.49, 0.431990
1609.99, 0.431990
1610.49, 0.432317
1610.99, 0.432806
1611.49, 0.432752
1611.99, 0.432643
1612.49, 0.432698
1612.99, 0.432970
1613.49, 0.433350
1614.0, 0.433514
1614.5, 0.433622
1615.0, 0.433568
1615.51, 0.433786
1616.01, 0.434058
1616.51, 0.433949
1617.02, 0.434003
1617.52, 0.434058
1618.03, 0.434221
1618.53, 0.434384
1619.04, 0.434602
1619.54, 0.434874
1620.05, 0.435091
1620.55, 0.435309
1621.06, 0.435200
1621.57, 0.435309
1622.08, 0.435635
1622.58, 0.435853
1623.09, 0.435853
1623.6, 0.436125
1624.11, 0.436397
1624.62, 0.436288
1625.13, 0.436070
1625.64, 0.436234
1626.15, 0.436234
1626.66, 0.436506
1627.17, 0.436614
1627.68, 0.436832
1628.19, 0.437213
1628.7, 0.437376
1629.21, 0.437539
1629.72, 0.437811
1630.24, 0.437811
1630.75, 0.437920
1631.26, 0.438138
1631.78, 0.438192
1632.29, 0.438518
1632.8, 0.438627
1633.32, 0.438355
1633.83, 0.438573
1634.35, 0.438899
1634.86, 0.438899
1635.38, 0.439008
1635.9, 0.439226
1636.41, 0.439334
1636.93, 0.439606
1637.45, 0.439715
1637.96, 0.439933
1638.48, 0.440205
1639.0, 0.440368
1639.52, 0.440368
1640.04, 0.440314
1640.56, 0.440586
1641.08, 0.440912
1641.59, 0.440912
1642.11, 0.441021
1642.63, 0.441021
1643.16, 0.441075
1643.68, 0.441402
1644.2, 0.441619
1644.72, 0.441782
1645.24, 0.442000
1645.76, 0.442218
1646.29, 0.442381
1646.81, 0.442598
1647.33, 0.442490
1647.86, 0.442435
1648.38, 0.442707
1648.9, 0.442707
1649.43, 0.442816
1649.95, 0.443034
1650.48, 0.443306
1651.0, 0.443686
1651.53, 0.443850
1652.06, 0.443904
1652.58, 0.444067
1653.11, 0.444122
1653.64, 0.444122
1654.17, 0.444230
1654.69, 0.444502
1655.22, 0.444502
1655.75, 0.444448
1656.28, 0.444448
1656.81, 0.444883
1657.34, 0.445046
1657.87, 0.445046
1658.4, 0.445264
1658.93, 0.445427
1659.46, 0.445536
1659.99, 0.445590
1660.52, 0.445536
1661.05, 0.445645
1661.59, 0.446026
1662.12, 0.446134
1662.65, 0.446026
1663.19, 0.446134
1663.72, 0.446298
1664.26, 0.446461
1664.79, 0.446570
1665.32, 0.446678
1665.86, 0.446842
1666.39, 0.447277
1666.93, 0.447005
1667.47, 0.446950
1668.0, 0.447059
1668.54, 0.447331
1669.08, 0.447603
1669.61, 0.447603
1670.15, 0.447821
1670.69, 0.447766
1671.23, 0.447658
1671.77, 0.447766
1672.31, 0.447930
1672.85, 0.448202
1673.39, 0.448147
1673.93, 0.448147
1674.47, 0.448474
1675.01, 0.448474
1675.55, 0.448365
1676.09, 0.448365
1676.64, 0.448637
1677.18, 0.448800
1677.72, 0.448800
1678.26, 0.449018
1678.81, 0.449018
1679.35, 0.449018
1679.89, 0.448963
1680.44, 0.448746
1680.98, 0.448800
1681.53, 0.449126
1682.07, 0.449126
1682.62, 0.449018
1683.17, 0.449072
1683.71, 0.449453
1684.26, 0.449507
1684.81, 0.449290
1685.36, 0.449126
1685.9, 0.449453
1686.45, 0.449725
1687.0, 0.449942
1687.55, 0.450160
1688.1, 0.450106
1688.65, 0.449942
1689.2, 0.449942
1689.75, 0.449834
1690.3, 0.449779
1690.85, 0.449834
1691.41, 0.449997
1691.96, 0.450323
1692.51, 0.450922
1693.06, 0.450813
1693.61, 0.450378
1694.17, 0.450432
1694.72, 0.450595
1695.28, 0.450595
1695.83, 0.450486
1696.39, 0.450650
1696.94, 0.451302
1697.5, 0.451520
1698.05, 0.451357
1698.61, 0.451085
1699.17, 0.451194
1699.72, 0.451357
1700.28, 0.451139
1700.84, 0.451085
1701.4, 0.451194
1701.95, 0.451248
1702.51, 0.451411
1703.07, 0.451738
1703.63, 0.451901
1704.19, 0.451792
1704.75, 0.451629
1705.31, 0.451629
1705.88, 0.451901
1706.44, 0.452010
1707.0, 0.451574
1707.56, 0.451738
1708.12, 0.452010
1708.69, 0.451901
1709.25, 0.451901
1709.81, 0.451955
1710.38, 0.452282
1710.94, 0.452227
1711.51, 0.451901
1712.07, 0.452118
1712.64, 0.452282
1713.2, 0.451901
1713.77, 0.451792
1714.34, 0.451846
1714.9, 0.452010
1715.47, 0.452010
1716.04, 0.451738
1716.61, 0.451629
1717.18, 0.451520
1717.74, 0.451411
1718.31, 0.451629
1718.88, 0.451574
1719.45, 0.451520
1720.02, 0.451466
1720.59, 0.451411
1721.17, 0.450976
1721.74, 0.450867
1722.31, 0.450813
1722.88, 0.450595
1723.45, 0.450486
1724.03, 0.450541
1724.6, 0.450378
1725.18, 0.450214
1725.75, 0.449834
1726.33, 0.449398
1726.9, 0.449453
1727.48, 0.449507
1728.05, 0.449181
1728.63, 0.448637
1729.2, 0.448365
1729.78, 0.448419
1730.36, 0.447930
1730.94, 0.447549
1731.51, 0.447277
1732.09, 0.446842
1732.67, 0.446570
1733.25, 0.446298
1733.83, 0.446080
1734.41, 0.445699
1734.99, 0.445373
1735.57, 0.445155
1736.15, 0.444883
1736.73, 0.444502
1737.32, 0.444176
1737.9, 0.443795
1738.48, 0.443414
1739.07, 0.443088
1739.65, 0.442762
1740.23, 0.442544
1740.82, 0.442054
1741.4, 0.441619
1741.99, 0.441456
1742.57, 0.441130
1743.16, 0.440640
1743.74, 0.440205
1744.33, 0.439715
1744.92, 0.439389
1745.51, 0.439062
1746.09, 0.438627
1746.68, 0.438138
1747.27, 0.437811
1747.86, 0.437485
1748.45, 0.437104
1749.04, 0.436506
1749.63, 0.436342
1750.22, 0.436070
1750.81, 0.435744
1751.4, 0.435472
1751.99, 0.435146
1752.59, 0.434656
1753.18, 0.434602
1753.77, 0.434384
1754.37, 0.434058
1754.96, 0.433731
1755.56, 0.433514
1756.15, 0.433350
1756.74, 0.433242
1757.34, 0.433296
1757.94, 0.433296
1758.53, 0.433024
1759.13, 0.432861
1759.73, 0.432752
1760.32, 0.432698
1760.92, 0.432534
1761.52, 0.432317
1762.12, 0.432208
1762.72, 0.432317
1763.32, 0.432317
1763.92, 0.432208
1764.52, 0.432099
1765.12, 0.432154
1765.72, 0.432099
1766.32, 0.432262
1766.92, 0.432589
1767.53, 0.432698
1768.13, 0.432806
1768.73, 0.433024
1769.34, 0.433350
1769.94, 0.433731
1770.55, 0.434166
1771.15, 0.434656
1771.76, 0.435037
1772.36, 0.435581
1772.97, 0.436125
1773.57, 0.436723
1774.18, 0.437322
1774.79, 0.438192
1775.4, 0.438954
1776.0, 0.439552
1776.61, 0.440150
1777.22, 0.440749
1777.83, 0.441456
1778.44, 0.442218
1779.05, 0.442816
1779.66, 0.443578
1780.27, 0.444122
1780.88, 0.444720
1781.5, 0.445482
1782.11, 0.446189
1782.72, 0.447059
1783.33, 0.447930
1783.95, 0.448528
1784.56, 0.449181
1785.18, 0.450051
1785.79, 0.451030
1786.41, 0.451955
1787.02, 0.452880
1787.64, 0.453587
1788.26, 0.454349
1788.87, 0.455110
1789.49, 0.455818
1790.11, 0.456634
1790.73, 0.457395
1791.35, 0.458157
1791.96, 0.459136
1792.58, 0.460061
1793.21, 0.460768
1793.83, 0.461203
1794.45, 0.461802
1795.07, 0.462509
1795.69, 0.462890
1796.31, 0.463325
1796.93, 0.464086
1797.56, 0.464467
1798.18, 0.464685
1798.8, 0.465120
1799.43, 0.465555
1800.05, 0.465773
1800.68, 0.466154
1801.3, 0.466480
1801.93, 0.466806
1802.56, 0.467078
1803.18, 0.467514
1803.81, 0.467786
1804.44, 0.467840
1805.07, 0.468112
1805.7, 0.468493
1806.33, 0.468765
1806.95, 0.468819
1807.58, 0.468928
1808.22, 0.468982
1808.85, 0.469146
1809.48, 0.469472
1810.11, 0.469798
1810.74, 0.469907
1811.38, 0.469962
1812.01, 0.470179
1812.64, 0.470451
1813.28, 0.470560
1813.91, 0.470614
1814.55, 0.470778
1815.18, 0.470995
1815.82, 0.471158
1816.45, 0.471376
1817.09, 0.471485
1817.73, 0.471485
1818.36, 0.471539
1819.0, 0.471539
1819.64, 0.471485
1820.28, 0.471594
1820.92, 0.472029
1821.56, 0.472138
1822.2, 0.472029
1822.84, 0.472029
1823.48, 0.472246
1824.12, 0.472192
1824.76, 0.472355
1825.41, 0.472410
1826.05, 0.472301
1826.69, 0.472246
1827.34, 0.472573
1827.98, 0.472954
1828.63, 0.472845
1829.27, 0.472518
1829.92, 0.472627
1830.56, 0.472627
1831.21, 0.472573
1831.86, 0.472845
1832.5, 0.473062
1833.15, 0.472736
1833.8, 0.472682
1834.45, 0.472573
1835.1, 0.472736
1835.75, 0.472845
1836.4, 0.472899
1837.05, 0.472736
1837.7, 0.472736
1838.35, 0.472682
1839.01, 0.472682
1839.66, 0.472682
1840.31, 0.472845
1840.96, 0.472845
1841.62, 0.472954
1842.27, 0.472845
1842.93, 0.472573
1843.58, 0.472627
1844.24, 0.472736
1844.9, 0.472899
1845.55, 0.473171
1846.21, 0.472954
1846.87, 0.472682
1847.53, 0.472899
1848.18, 0.473117
1848.84, 0.473171
1849.5, 0.472845
1850.16, 0.472573
1850.82, 0.472736
1851.48, 0.472899
1852.14, 0.472790
1852.81, 0.472627
1853.47, 0.472627
1854.13, 0.472845
1854.8, 0.472899
1855.46, 0.472899
1856.12, 0.472954
1856.79, 0.472954
1857.45, 0.472845
1858.12, 0.472573
1858.79, 0.472790
1859.45, 0.472845
1860.12, 0.472790
1860.79, 0.472790
1861.46, 0.472899
1862.12, 0.472736
1862.79, 0.472736
1863.46, 0.473008
1864.13, 0.473062
1864.8, 0.472899
1865.48, 0.472682
1866.15, 0.472410
1866.82, 0.472246
1867.49, 0.472192
1868.16, 0.472246
1868.84, 0.472355
1869.51, 0.472192
1870.19, 0.471920
1870.86, 0.471920
1871.54, 0.471757
1872.21, 0.471594
1872.89, 0.471866
1873.56, 0.472410
1874.24, 0.472410
1874.92, 0.472355
1875.6, 0.472355
1876.28, 0.472083
1876.96, 0.471757
1877.64, 0.471648
1878.32, 0.471974
1879.0, 0.472083
1879.68, 0.471702
1880.36, 0.471376
1881.04, 0.471376
1881.73, 0.471322
1882.41, 0.471213
1883.09, 0.471213
1883.78, 0.471158
1884.46, 0.470778
1885.15, 0.470614
1885.83, 0.470560
1886.52, 0.470451
1887.21, 0.470560
1887.89, 0.470397
1888.58, 0.470016
1889.27, 0.470070
1889.96, 0.470016
1890.65, 0.469526
1891.34, 0.469309
1892.03, 0.469363
1892.72, 0.469418
1893.41, 0.469472
1894.1, 0.469472
1894.79, 0.469200
1895.49, 0.469037
1896.18, 0.469146
1896.87, 0.469091
1897.57, 0.469037
1898.26, 0.468819
1898.96, 0.468710
1899.65, 0.468874
1900.35, 0.468928
1901.05, 0.468384
1901.74, 0.468112
1902.44, 0.468384
1903.14, 0.468330
1903.84, 0.468112
1904.54, 0.468058
1905.24, 0.467894
1905.94, 0.468003
1906.64, 0.467894
1907.34, 0.467840
1908.04, 0.467894
1908.75, 0.468003
1909.45, 0.467949
1910.15, 0.467840
1910.86, 0.468003
1911.56, 0.468166
1912.27, 0.468058
1912.97, 0.467894
1913.68, 0.467677
1914.39, 0.467622
1915.09, 0.467786
1915.8, 0.467840
1916.51, 0.467894
1917.22, 0.467840
1917.93, 0.468003
1918.64, 0.467949
1919.35, 0.468003
1920.06, 0.468058
1920.77, 0.468112
1921.48, 0.468275
1922.19, 0.468493
1922.91, 0.468493
1923.62, 0.468493
1924.33, 0.468765
1925.05, 0.468928
1925.76, 0.468874
1926.48, 0.468819
1927.19, 0.468656
1927.91, 0.468710
1928.63, 0.468819
1929.35, 0.468602
1930.07, 0.468275
1930.78, 0.468656
1931.5, 0.469037
1932.22, 0.469200
1932.94, 0.469309
1933.66, 0.469091
1934.39, 0.469254
1935.11, 0.469472
1935.83, 0.469526
1936.55, 0.469472
1937.28, 0.469635
1938.0, 0.469581
1938.73, 0.469363
1939.45, 0.469635
1940.18, 0.469962
1940.9, 0.470125
1941.63, 0.469962
1942.36, 0.469744
1943.09, 0.469744
1943.81, 0.469744
1944.54, 0.469581
1945.27, 0.469526
1946.0, 0.469581
1946.73, 0.469581
1947.47, 0.469200
1948.2, 0.468982
1948.93, 0.469146
1949.66, 0.469254
1950.4, 0.469363
1951.13, 0.469146
1951.86, 0.468765
1952.6, 0.468602
1953.34, 0.468384
1954.07, 0.468112
1954.81, 0.467894
1955.55, 0.467949
1956.29, 0.467949
1957.02, 0.467840
1957.76, 0.467731
1958.5, 0.467677
1959.24, 0.467622
1959.98, 0.467459
1960.72, 0.467350
1961.47, 0.467350
1962.21, 0.467133
1962.95, 0.467078
1963.7, 0.467242
1964.44, 0.467242
1965.18, 0.467242
1965.93, 0.467296
1966.67, 0.467405
1967.42, 0.467296
1968.17, 0.467242
1968.92, 0.467405
1969.66, 0.467350
1970.41, 0.467405
1971.16, 0.467514
1971.91, 0.467677
1972.66, 0.467840
1973.41, 0.467894
1974.16, 0.467894
1974.92, 0.467894
1975.67, 0.467840
1976.42, 0.467949
1977.18, 0.467840
1977.93, 0.467677
1978.69, 0.467622
1979.44, 0.467514
1980.2, 0.467296
1980.95, 0.467459
1981.71, 0.467405
1982.47, 0.467242
1983.23, 0.467133
1983.99, 0.466970
1984.74, 0.466534
1985.51, 0.466208
1986.27, 0.466154
1987.03, 0.465936
1987.79, 0.465555
1988.55, 0.465338
1989.32, 0.465011
1990.08, 0.464739
1990.84, 0.464413
1991.61, 0.463869
1992.37, 0.463162
1993.14, 0.462726
1993.9, 0.462563
1994.67, 0.462182
1995.44, 0.461856
1996.21, 0.461475
1996.98, 0.460877
1997.75, 0.460496
1998.52, 0.460387
1999.29, 0.460115
2000.06, 0.459517
2000.83, 0.459136
2001.6, 0.458810
2002.38, 0.458429
2003.15, 0.458157
2003.93, 0.457994
2004.7, 0.457776
2005.48, 0.457341
2006.25, 0.456851
2007.03, 0.456742
2007.81, 0.456579
2008.58, 0.456470
2009.36, 0.456253
2010.14, 0.456144
2010.92, 0.455981
2011.7, 0.456035
2012.48, 0.455872
2013.26, 0.455872
2014.05, 0.456090
2014.83, 0.456198
2015.61, 0.455981
2016.4, 0.455818
2017.18, 0.455872
2017.97, 0.455981
2018.75, 0.455872
2019.54, 0.455981
2020.32, 0.455981
2021.11, 0.455981
2021.9, 0.455818
2022.69, 0.455546
2023.48, 0.455491
2024.27, 0.455654
2025.06, 0.455654
2025.85, 0.455328
2026.64, 0.455002
2027.44, 0.454947
2028.23, 0.454730
2029.02, 0.454621
2029.82, 0.454458
2030.61, 0.454077
2031.41, 0.453370
2032.2, 0.453098
2033.0, 0.453043
2033.8, 0.452771
2034.6, 0.452336
2035.4, 0.452227
2036.2, 0.451846
2037.0, 0.451302
2037.8, 0.450813
2038.6, 0.450650
2039.4, 0.450269
2040.2, 0.449834
2041.01, 0.449507
2041.81, 0.449290
2042.61, 0.449181
2043.42, 0.449126
2044.22, 0.448746
2045.03, 0.448365
2045.84, 0.448202
2046.65, 0.447984
2047.46, 0.447821
2048.26, 0.447658
2049.07, 0.447494
2049.88, 0.447168
2050.69, 0.447059
2051.51, 0.447059
2052.32, 0.446678
2053.13, 0.446461
2053.94, 0.446189
2054.76, 0.446026
2055.57, 0.445862
2056.39, 0.445754
2057.2, 0.445645
2058.02, 0.445373
2058.84, 0.445046
2059.66, 0.444720
2060.48, 0.444611
2061.29, 0.444557
2062.11, 0.444557
2062.94, 0.444611
2063.76, 0.444502
2064.58, 0.444176
2065.4, 0.443958
2066.22, 0.444122
2067.05, 0.444176
2067.87, 0.443795
2068.7, 0.443686
2069.52, 0.443632
2070.35, 0.443414
2071.18, 0.443142
2072.0, 0.443197
2072.83, 0.443414
2073.66, 0.443469
2074.49, 0.442979
2075.32, 0.442490
2076.15, 0.442381
2076.98, 0.442381
2077.82, 0.442218
2078.65, 0.441674
2079.48, 0.441402
2080.32, 0.441075
2081.15, 0.440586
2081.99, 0.440259
2082.83, 0.440042
2083.66, 0.439606
2084.5, 0.439226
2085.34, 0.438954
2086.18, 0.438518
2087.02, 0.438246
2087.86, 0.438246
2088.7, 0.438246
2089.54, 0.438246
2090.39, 0.437974
2091.23, 0.437539
2092.07, 0.437267
2092.92, 0.436886
2093.76, 0.436723
2094.61, 0.436506
2095.45, 0.436179
2096.3, 0.435907
2097.15, 0.435526
2098.0, 0.435363
2098.85, 0.435091
2099.7, 0.434602
2100.55, 0.434166
2101.4, 0.433731
2102.25, 0.433078
2103.1, 0.432480
2103.96, 0.432045
2104.81, 0.431501
2105.67, 0.430739
2106.52, 0.430032
2107.38, 0.429270
2108.24, 0.428509
2109.09, 0.427584
2109.95, 0.426822
2110.81, 0.426006
2111.67, 0.425082
2112.53, 0.423939
2113.39, 0.423069
2114.25, 0.422198
2115.12, 0.421165
2115.98, 0.420077
2116.84, 0.418826
2117.71, 0.417411
2118.58, 0.416106
2119.44, 0.414691
2120.31, 0.413331
2121.18, 0.411917
2122.04, 0.410339
2122.91, 0.408653
2123.78, 0.407021
2124.65, 0.405552
2125.52, 0.403974
2126.4, 0.402342
2127.27, 0.400656
2128.14, 0.398970
2129.02, 0.397120
2129.89, 0.395597
2130.77, 0.394019
2131.64, 0.392496
2132.52, 0.390973
2133.4, 0.389504
2134.27, 0.388144
2135.15, 0.386566
2136.03, 0.384989
2136.91, 0.383520
2137.79, 0.382378
2138.68, 0.381018
2139.56, 0.379386
2140.44, 0.377754
2141.33, 0.376285
2142.21, 0.374870
2143.1, 0.373238
2143.99, 0.371715
2144.87, 0.370410
2145.76, 0.368941
2146.65, 0.367200
2147.54, 0.365459
2148.43, 0.363936
2149.32, 0.362358
2150.21, 0.360890
2151.1, 0.359203
2151.99, 0.357789
2152.89, 0.356429
2153.78, 0.355069
2154.68, 0.353872
2155.57, 0.352675
2156.47, 0.351696
2157.37, 0.350826
2158.27, 0.350064
2159.16, 0.349574
2160.06, 0.349030
2160.96, 0.348704
2161.86, 0.348486
2162.77, 0.348106
2163.67, 0.347616
2164.57, 0.347235
2165.48, 0.346909
2166.38, 0.346637
2167.29, 0.346474
2168.2, 0.346365
2169.1, 0.346256
2170.01, 0.346310
2170.92, 0.346582
2171.83, 0.346800
2172.74, 0.347181
2173.65, 0.347834
2174.56, 0.348378
2175.47, 0.348758
2176.39, 0.349357
2177.3, 0.350064
2178.22, 0.350771
2179.13, 0.351696
2180.05, 0.352512
2180.96, 0.353328
2181.88, 0.354253
2182.8, 0.355178
2183.72, 0.356320
2184.64, 0.357517
2185.56, 0.358496
2186.48, 0.359584
2187.41, 0.360998
2188.33, 0.362576
2189.25, 0.364045
2190.18, 0.365894
2191.1, 0.367690
2192.03, 0.369485
2192.96, 0.371334
2193.89, 0.373510
2194.82, 0.375795
2195.74, 0.377862
2196.68, 0.379712
2197.61, 0.381562
2198.54, 0.383357
2199.47, 0.384826
2200.4, 0.385914
2201.34, 0.386621
2202.28, 0.386947
2203.21, 0.386893
2204.15, 0.386240
2205.08, 0.385206
2206.02, 0.383738
2206.96, 0.382214
2207.9, 0.380854
2208.84, 0.379821
2209.78, 0.379059
2210.73, 0.378678
2211.67, 0.379168
2212.61, 0.380582
2213.56, 0.382486
2214.5, 0.384934
2215.45, 0.387872
2216.4, 0.391190
2217.35, 0.394509
2218.3, 0.398045
2219.24, 0.401581
2220.2, 0.405008
2221.15, 0.408326
2222.1, 0.411645
2223.05, 0.414528
2224.0, 0.417411
2224.96, 0.420349
2225.91, 0.423014
2226.87, 0.425789
2227.83, 0.428346
2228.79, 0.430685
2229.74, 0.433133
2230.7, 0.435472
2231.66, 0.437702
2232.63, 0.439824
2233.59, 0.441782
2234.55, 0.443523
2235.51, 0.445373
2236.48, 0.447059
2237.44, 0.448582
2238.41, 0.450106
2239.38, 0.451466
2240.34, 0.452608
2241.31, 0.453642
2242.28, 0.454349
2243.25, 0.455110
2244.22, 0.455926
2245.19, 0.456634
2246.17, 0.457178
2247.14, 0.457558
2248.12, 0.457885
2249.09, 0.458429
2250.07, 0.458701
2251.04, 0.459082
2252.02, 0.459517
2253.0, 0.459789
2253.98, 0.459898
2254.96, 0.459952
2255.94, 0.460061
2256.92, 0.460387
2257.91, 0.460605
2258.89, 0.460714
2259.88, 0.460659
2260.86, 0.460659
2261.85, 0.460605
2262.83, 0.460605
2263.82, 0.460496
2264.81, 0.460442
2265.8, 0.460442
2266.79, 0.460387
2267.78, 0.460224
2268.78, 0.460170
2269.77, 0.460061
2270.76, 0.459952
2271.76, 0.459734
2272.75, 0.459734
2273.75, 0.459626
2274.75, 0.459354
2275.75, 0.459245
2276.75, 0.459027
2277.75, 0.458646
2278.75, 0.458429
2279.75, 0.458048
2280.75, 0.457613
2281.76, 0.457286
2282.76, 0.457069
2283.77, 0.456742
2284.77, 0.456362
2285.78, 0.455926
2286.79, 0.455546
2287.8, 0.455002
2288.81, 0.454349
2289.82, 0.453805
2290.83, 0.453370
2291.84, 0.452826
2292.86, 0.452064
2293.87, 0.451194
2294.89, 0.450432
2295.91, 0.449507
2296.92, 0.448528
2297.94, 0.447277
2298.96, 0.446080
2299.98, 0.444883
2301.0, 0.443578
2302.02, 0.441782
2303.04, 0.439878
2304.07, 0.437974
2305.09, 0.435798
2306.12, 0.433405
2307.15, 0.430957
2308.17, 0.428291
2309.2, 0.425462
2310.23, 0.422525
2311.26, 0.419642
2312.29, 0.416758
2313.32, 0.413984
2314.35, 0.411155
2315.39, 0.408544
2316.42, 0.406314
2317.46, 0.404192
2318.5, 0.402451
2319.53, 0.401091
2320.57, 0.399894
2321.61, 0.399350
2322.65, 0.399187
2323.69, 0.399296
2324.73, 0.399840
2325.78, 0.400602
2326.82, 0.401581
2327.86, 0.402832
2328.91, 0.403866
2329.96, 0.405226
2331.01, 0.406749
2332.05, 0.408272
2333.1, 0.409795
2334.15, 0.411264
2335.21, 0.412896
2336.26, 0.414474
2337.31, 0.415997
2338.36, 0.417411
2339.42, 0.418717
2340.48, 0.420077
2341.53, 0.421382
2342.59, 0.422525
2343.65, 0.423722
2344.71, 0.424810
2345.77, 0.425626
2346.83, 0.426496
2347.9, 0.427258
2348.96, 0.427965
2350.02, 0.428672
2351.09, 0.429216
2352.16, 0.429651
2353.23, 0.430086
2354.29, 0.430304
2355.36, 0.430630
2356.43, 0.430794
2357.51, 0.430630
2358.58, 0.430467
2359.65, 0.430467
2360.73, 0.430467
2361.8, 0.430358
2362.88, 0.429869
2363.96, 0.429270
2365.03, 0.428563
2366.11, 0.427638
2367.19, 0.426714
2368.27, 0.425734
2369.36, 0.424483
2370.44, 0.422960
2371.53, 0.421437
2372.61, 0.419805
2373.7, 0.417955
2374.78, 0.415834
2375.87, 0.413549
2376.96, 0.411264
2378.05, 0.408816
2379.14, 0.406259
2380.24, 0.403648
2381.33, 0.401037
2382.42, 0.398208
2383.52, 0.395434
2384.61, 0.392659
2385.71, 0.389722
2386.81, 0.386838
2387.91, 0.384227
2389.01, 0.381507
2390.11, 0.378787
2391.22, 0.376339
2392.32, 0.374326
2393.42, 0.372422
2394.53, 0.370845
2395.64, 0.369594
2396.74, 0.368669
2397.85, 0.367962
2398.96, 0.367254
2400.07, 0.366819
2401.18, 0.366602
2402.3, 0.366330
2403.41, 0.366112
2404.52, 0.366058
2405.64, 0.366221
2406.76, 0.365949
2407.88, 0.365677
2408.99, 0.365459
2410.11, 0.365187
2411.23, 0.364752
2412.36, 0.364262
2413.48, 0.363555
2414.6, 0.362685
2415.73, 0.361597
2416.85, 0.360291
2417.98, 0.358877
2419.11, 0.357299
2420.24, 0.355613
2421.37, 0.353818
2422.5, 0.351859
2423.64, 0.349846
2424.77, 0.347507
2425.9, 0.345222
2427.04, 0.343101
2428.18, 0.340870
2429.31, 0.338586
2430.45, 0.336573
2431.59, 0.334723
2432.73, 0.332819
2433.88, 0.330970
2435.02, 0.329229
2436.16, 0.327923
2437.31, 0.326998
2438.45, 0.325965
2439.6, 0.325094
2440.75, 0.324605
2441.9, 0.324442
2443.05, 0.324333
2444.2, 0.324333
2445.35, 0.324496
2446.51, 0.324822
2447.67, 0.325366
2448.82, 0.325856
2449.98, 0.326454
2451.14, 0.327216
2452.3, 0.327923
2453.46, 0.328467
2454.62, 0.328957
2455.78, 0.329283
2456.94, 0.329446
2458.11, 0.329446
2459.28, 0.329229
2460.44, 0.329120
2461.61, 0.328902
2462.78, 0.328630
2463.95, 0.328195
2465.12, 0.327814
2466.3, 0.327325
2467.47, 0.326781
2468.65, 0.326400
2469.82, 0.326237
2471.0, 0.326346
2472.18, 0.326563
2473.36, 0.326835
2474.54, 0.327216
2475.72, 0.327597
2476.9, 0.328086
2478.08, 0.328576
2479.27, 0.329120
2480.46, 0.329446
2481.64, 0.329718
2482.83, 0.329990
2484.02, 0.330045
2485.21, 0.329827
2486.4, 0.329283
2487.6, 0.328413
2488.79, 0.327379
2489.99, 0.326074
2491.18, 0.324659
2492.38, 0.322864
2493.58, 0.320960
2494.78, 0.319002
2495.98, 0.317261
2497.18, 0.315520
2498.39, 0.313725
2499.59, 0.312038
2500.8, 0.310515
2502.01, 0.308938
2503.21, 0.307360
2504.42, 0.305728
2505.63, 0.303933
2506.84, 0.301757
2508.06, 0.299690
2509.27, 0.297350
2510.49, 0.295011
2511.7, 0.292890
2512.92, 0.290714
2514.14, 0.288646
2515.36, 0.286797
2516.58, 0.285274
2517.8, 0.284294
2519.03, 0.283750
2520.25, 0.283478
2521.48, 0.283533
2522.7, 0.284186
2523.93, 0.285654
2525.16, 0.287341
2526.39, 0.289299
2527.62, 0.291802
2528.86, 0.294358
2530.09, 0.296970
2531.33, 0.299798
2532.56, 0.302790
2533.8, 0.305674
2535.04, 0.308285
2536.28, 0.310787
2537.52, 0.313290
2538.76, 0.315574
2540.01, 0.317642
2541.25, 0.319328
2542.5, 0.320906
2543.75, 0.322755
2544.99, 0.324333
2546.24, 0.325421
2547.49, 0.326400
2548.75, 0.327434
2550.0, 0.328358
2551.26, 0.329174
2552.51, 0.329827
2553.77, 0.330208
2555.03, 0.330589
2556.29, 0.330806
2557.55, 0.330806
2558.81, 0.330480
2560.08, 0.330262
2561.34, 0.330154
2562.61, 0.329936
2563.88, 0.329882
2565.14, 0.329936
2566.41, 0.329990
2567.68, 0.330317
2568.96, 0.330426
2570.23, 0.330806
2571.51, 0.331242
2572.78, 0.331568
2574.06, 0.332275
2575.34, 0.332765
2576.62, 0.332982
2577.9, 0.333472
2579.18, 0.333907
2580.47, 0.334125
2581.75, 0.334288
2583.04, 0.334179
2584.32, 0.334288
2585.61, 0.334342
2586.9, 0.334397
2588.2, 0.334723
2589.49, 0.334995
2590.78, 0.335539
2592.08, 0.336192
2593.37, 0.336518
2594.67, 0.337226
2595.97, 0.339021
2597.27, 0.340925
2598.57, 0.342666
2599.88, 0.344189
2601.18, 0.345712
2602.49, 0.347398
2603.79, 0.348976
2605.1, 0.350390
2606.41, 0.352131
2607.72, 0.353763
2609.03, 0.355123
2610.35, 0.356429
2611.66, 0.357789
2612.98, 0.359203
2614.3, 0.360509
2615.62, 0.361434
2616.94, 0.362467
2618.26, 0.363827
2619.58, 0.364806
2620.91, 0.366003
2622.23, 0.367309
2623.56, 0.368342
2624.89, 0.369158
2626.22, 0.370029
2627.55, 0.371117
2628.88, 0.371824
2630.21, 0.372422
2631.55, 0.373619
2632.89, 0.374544
2634.22, 0.375197
2635.56, 0.375904
2636.9, 0.376394
2638.25, 0.376992
2639.59, 0.377318
2640.93, 0.377699
2642.28, 0.378134
2643.63, 0.378298
2644.98, 0.378080
2646.33, 0.377971
2647.68, 0.377536
2649.03, 0.376829
2650.39, 0.375795
2651.74, 0.374381
2653.1, 0.372803
2654.46, 0.371008
2655.82, 0.368941
2657.18, 0.366765
2658.54, 0.364208
2659.9, 0.361706
2661.27, 0.359203
2662.64, 0.356538
2664.01, 0.353546
2665.38, 0.350554
2666.74, 0.347997
2668.12, 0.345603
2669.49, 0.342883
2670.87, 0.340653
2672.24, 0.338749
2673.62, 0.336410
2675.0, 0.334016
2676.38, 0.331894
2677.76, 0.329827
2679.15, 0.328032
2680.54, 0.326400
2681.92, 0.324442
2683.31, 0.322157
2684.7, 0.319926
2686.09, 0.317587
2687.48, 0.314867
2688.88, 0.311549
2690.27, 0.307686
2691.67, 0.303389
2693.07, 0.298438
2694.47, 0.293162
2695.87, 0.287776
2697.27, 0.282118
2698.67, 0.276080
2700.08, 0.269389
2701.49, 0.262045
2702.9, 0.254483
2704.31, 0.247738
2705.72, 0.242570
2707.13, 0.239251
2708.54, 0.237510
2709.96, 0.236531
2711.38, 0.235770
2712.8, 0.234627
2714.22, 0.232506
2715.64, 0.229024
2717.06, 0.223638
2718.49, 0.215642
2719.91, 0.206122
2721.34, 0.199322
2722.77, 0.197907
2724.2, 0.198995
2725.63, 0.199811
2727.07, 0.200573
2728.5, 0.201280
2729.94, 0.201280
2731.38, 0.200192
2732.82, 0.197798
2734.26, 0.194534
2735.7, 0.191434
2737.15, 0.188714
2738.59, 0.186211
2740.04, 0.184416
2741.49, 0.183165
2742.94, 0.181805
2744.39, 0.180390
2745.84, 0.178486
2747.3, 0.176093
2748.76, 0.173536
2750.21, 0.170490
2751.67, 0.166845
2753.14, 0.163146
2754.6, 0.159120
2756.06, 0.154986
2757.53, 0.150634
2759.0, 0.145955
2760.46, 0.141712
2761.94, 0.139971
2763.41, 0.141059
2764.88, 0.142854
2766.36, 0.143616
2767.83, 0.143344
2769.31, 0.142310
2770.79, 0.140787
2772.27, 0.138883
2773.76, 0.136707
2775.24, 0.134259
2776.73, 0.131702
2778.22, 0.128982
2779.71, 0.126426
2781.2, 0.123869
2782.69, 0.121312
2784.18, 0.118810
2785.68, 0.116362
2787.18, 0.114022
2788.68, 0.111901
2790.18, 0.109997
2791.68, 0.108093
2793.19, 0.106298
2794.69, 0.104666
2796.2, 0.102816
2797.71, 0.100912
2799.22, 0.0987360
2800.73, 0.0967780
2802.24, 0.0948740
2803.76, 0.0929150
2805.28, 0.0909020
2806.8, 0.0889440
2808.32, 0.0871490
2809.84, 0.0852450
2811.36, 0.0831780
2812.89, 0.0809470
2814.42, 0.0786620
2815.94, 0.0764860
2817.48, 0.0743650
2819.01, 0.0721340
2820.54, 0.0696860
2822.08, 0.0671300
2823.61, 0.0648990
2825.15, 0.0625600
2826.69, 0.0600030
2828.23, 0.0575010
2829.78, 0.0551620
2831.32, 0.0527680
2832.87, 0.0502110
2834.42, 0.0475460
2835.97, 0.0449890
2837.52, 0.0424320
2839.08, 0.0399840
2840.63, 0.0378620
2842.19, 0.0361220
2843.75, 0.0348160
2845.31, 0.0336190
2846.87, 0.0326400
2848.44, 0.0317700
2850.0, 0.0309540
2851.57, 0.0303550
2853.14, 0.0298660
2854.71, 0.0292670
2856.28, 0.0290500
2857.86, 0.0288320
2859.43, 0.0285060
2861.01, 0.0284510
2862.59, 0.0286690
2864.17, 0.0287780
2865.76, 0.0287230
2867.34, 0.0287230
2868.93, 0.0287230
2870.52, 0.0285600
2872.11, 0.0285600
2873.7, 0.0288320
2875.29, 0.0289950
2876.89, 0.0288860
2878.49, 0.0289410
2880.08, 0.0291040
2881.69, 0.0292670
2883.29, 0.0293760
2884.89, 0.0296480
2886.5, 0.0299740
2888.11, 0.0301920
2889.72, 0.0306820
2891.33, 0.0311170
2892.94, 0.0315520
2894.56, 0.0320960
2896.17, 0.0327490
2897.79, 0.0335650
2899.42, 0.0343810
2901.04, 0.0353060
2902.66, 0.0362300
2904.29, 0.0373730
2905.92, 0.0385150
2907.55, 0.0397660
2909.18, 0.0409090
2910.81, 0.0421600
2912.45, 0.0433020
2914.08, 0.0444450
2915.72, 0.0455330
2917.36, 0.0465120
2919.01, 0.0473280
2920.65, 0.0482530
2922.3, 0.0494500
2923.94, 0.0504830
2925.59, 0.0511900
2927.25, 0.0520610
2928.9, 0.0529310
2930.56, 0.0538560
2932.21, 0.0546720
2933.87, 0.0554340
2935.53, 0.0561410
2937.2, 0.0569570
2938.86, 0.0577180
2940.53, 0.0583710
2942.2, 0.0589700
2943.87, 0.0596220
2945.54, 0.0603300
2947.22, 0.0611460
2948.89, 0.0617980
2950.57, 0.0625600
2952.25, 0.0631580
2953.93, 0.0637570
2955.62, 0.0646270
2957.3, 0.0656610
2958.99, 0.0665310
2960.68, 0.0673470
2962.37, 0.0683260
2964.07, 0.0694690
2965.76, 0.0704480
2967.46, 0.0716450
2969.16, 0.0729500
2970.86, 0.0741470
2972.56, 0.0753980
2974.27, 0.0766500
2975.98, 0.0779010
2977.69, 0.0790980
2979.4, 0.0804030
2981.11, 0.0816540
2982.83, 0.0829060
2984.54, 0.0841570
2986.26, 0.0854620
2987.98, 0.0866590
2989.71, 0.0879100
2991.43, 0.0892700
2993.16, 0.0907390
2994.89, 0.0920450
2996.62, 0.0933500
2998.35, 0.0948740
3000.09, 0.0965600
3001.83, 0.0980290
3003.57, 0.0994430
3005.31, 0.100912
3007.05, 0.102490
3008.79, 0.104122
3010.54, 0.105590
3012.29, 0.107059
3014.04, 0.108582
3015.8, 0.109997
3017.55, 0.111466
3019.31, 0.112771
3021.07, 0.113914
3022.83, 0.115002
3024.59, 0.116090
3026.36, 0.117123
3028.13, 0.118157
3029.9, 0.119136
3031.67, 0.119898
3033.44, 0.120714
3035.22, 0.121638
3037.0, 0.122672
3038.78, 0.123488
3040.56, 0.124250
3042.34, 0.125066
3044.13, 0.125990
3045.92, 0.126752
3047.71, 0.127459
3049.5, 0.128058
3051.3, 0.128656
3053.09, 0.129200
3054.89, 0.129635
3056.69, 0.129907
3058.5, 0.129907
3060.3, 0.130016
3062.11, 0.130070
3063.92, 0.130070
3065.73, 0.130070
3067.55, 0.129853
3069.36, 0.129690
3071.18, 0.129472
3073.0, 0.129146
3074.82, 0.128874
3076.65, 0.128602
3078.48, 0.128330
3080.31, 0.128275
3082.14, 0.128221
3083.97, 0.128112
3085.8, 0.128058
3087.64, 0.128112
3089.48, 0.128112
3091.33, 0.128058
3093.17, 0.128275
3095.02, 0.128656
3096.87, 0.128765
3098.72, 0.128874
3100.57, 0.129146
3102.43, 0.129418
3104.28, 0.129690
3106.14, 0.130125
3108.01, 0.130614
3109.87, 0.130995
3111.74, 0.131322
3113.61, 0.131811
3115.48, 0.132518
3117.35, 0.133280
3119.23, 0.133987
3121.1, 0.134749
3122.98, 0.135456
3124.87, 0.136109
3126.75, 0.136979
3128.64, 0.137632
3130.53, 0.138339
3132.42, 0.139046
3134.31, 0.139645
3136.21, 0.140134
3138.11, 0.140787
3140.01, 0.141331
3141.91, 0.141766
3143.82, 0.142202
3145.73, 0.142582
3147.64, 0.142909
3149.55, 0.143181
3151.46, 0.143670
3153.38, 0.144106
3155.3, 0.144595
3157.22, 0.145194
3159.14, 0.145792
3161.07, 0.146227
3163.0, 0.146771
3164.93, 0.147424
3166.86, 0.147968
3168.8, 0.148458
3170.74, 0.148947
3172.68, 0.149437
3174.62, 0.149818
3176.56, 0.150035
3178.51, 0.150470
3180.46, 0.150851
3182.42, 0.151123
3184.37, 0.151450
3186.33, 0.151776
3188.29, 0.151939
3190.25, 0.152211
3192.21, 0.152538
3194.18, 0.152864
3196.15, 0.152918
3198.12, 0.153190
3200.09, 0.153626
3202.07, 0.153952
3204.05, 0.154115
3206.03, 0.154333
3208.02, 0.154659
3210.0, 0.154822
3211.99, 0.154822
3213.98, 0.154986
3215.98, 0.155258
3217.97, 0.155475
3219.97, 0.155530
3221.97, 0.155584
3223.98, 0.155584
3225.98, 0.155802
3227.99, 0.155965
3230.0, 0.156019
3232.02, 0.156074
3234.03, 0.156128
3236.05, 0.156128
3238.07, 0.156237
3240.1, 0.156346
3242.12, 0.156509
3244.15, 0.156563
3246.18, 0.156672
3248.22, 0.156781
3250.25, 0.156781
3252.29, 0.156944
3254.33, 0.157053
3256.38, 0.157053
3258.43, 0.157325
3260.47, 0.157488
3262.53, 0.157651
3264.58, 0.157760
3266.64, 0.157978
3268.7, 0.158250
3270.76, 0.158467
3272.82, 0.158576
3274.89, 0.158848
3276.96, 0.159066
3279.04, 0.159283
3281.11, 0.159555
3283.19, 0.159936
3285.27, 0.160480
3287.35, 0.160970
3289.44, 0.161242
3291.53, 0.161514
3293.62, 0.161894
3295.71, 0.162221
3297.81, 0.162602
3299.91, 0.163146
3302.01, 0.163581
3304.11, 0.164070
3306.22, 0.164506
3308.33, 0.164995
3310.44, 0.165430
3312.56, 0.165811
3314.68, 0.166410
3316.8, 0.167008
3318.92, 0.167552
3321.05, 0.168096
3323.18, 0.168640
3325.31, 0.169238
3327.44, 0.169837
3329.58, 0.170653
3331.72, 0.171360
3333.86, 0.171958
3336.01, 0.172720
3338.16, 0.173482
3340.31, 0.174243
3342.46, 0.175059
3344.61, 0.175766
3346.77, 0.176637
3348.94, 0.177507
3351.1, 0.178432
3353.27, 0.179194
3355.44, 0.180010
3357.61, 0.180880
3359.79, 0.181696
3361.97, 0.182403
3364.15, 0.183274
3366.33, 0.184253
3368.52, 0.185178
3370.71, 0.186157
3372.9, 0.187027
3375.1, 0.187952
3377.3, 0.189203
3379.5, 0.190400
3381.71, 0.191542
3383.91, 0.192739
3386.12, 0.193827
3388.34, 0.194970
3390.55, 0.196275
3392.77, 0.197526
3394.99, 0.198614
3397.22, 0.199594
3399.45, 0.200627
3401.68, 0.201443
3403.91, 0.202259
3406.15, 0.203238
3408.39, 0.204054
3410.63, 0.204707
3412.87, 0.205523
3415.12, 0.206394
3417.37, 0.207482
3419.63, 0.208624
3421.88, 0.209930
3424.14, 0.211344
3426.41, 0.212867
3428.67, 0.214390
3430.94, 0.215914
3433.21, 0.217274
3435.49, 0.218525
3437.77, 0.219776
3440.05, 0.221082
3442.33, 0.222333
3444.62, 0.223638
3446.91, 0.224890
3449.2, 0.226141
3451.5, 0.227338
3453.8, 0.228426
3456.1, 0.229677
3458.41, 0.230982
3460.72, 0.232179
3463.03, 0.233594
3465.34, 0.234954
3467.66, 0.236042
3469.98, 0.237130
3472.31, 0.238272
3474.63, 0.239251
3476.96, 0.240339
3479.3, 0.241427
3481.64, 0.242461
3483.97, 0.243440
3486.32, 0.244365
3488.66, 0.245235
3491.01, 0.246106
3493.36, 0.246976
3495.72, 0.247683
3498.08, 0.248282
3500.44, 0.249043
3502.81, 0.249968
3505.18, 0.251219
3507.55, 0.252525
3509.92, 0.254211
3512.3, 0.255626
3514.68, 0.256714
3517.06, 0.257910
3519.45, 0.259216
3521.84, 0.260358
3524.24, 0.261446
3526.64, 0.262426
3529.04, 0.263350
3531.44, 0.264493
3533.85, 0.265581
3536.26, 0.266506
3538.67, 0.267539
3541.09, 0.268573
3543.51, 0.269552
3545.93, 0.270586
3548.36, 0.271619
3550.79, 0.272435
3553.22, 0.273360
3555.66, 0.274339
3558.1, 0.275264
3560.54, 0.276080
3562.99, 0.277168
3565.44, 0.278202
3567.9, 0.279126
3570.35, 0.280160
3572.81, 0.281085
3575.28, 0.282173
3577.75, 0.283206
3580.22, 0.283859
3582.69, 0.284730
3585.17, 0.285872
3587.65, 0.286851
3590.14, 0.287613
3592.62, 0.288646
3595.11, 0.289462
3597.61, 0.290278
3600.11, 0.291094
3602.61, 0.291965
3605.11, 0.292998
3607.62, 0.293869
3610.14, 0.294522
3612.65, 0.295283
3615.17, 0.296154
3617.69, 0.296915
3620.22, 0.297622
3622.75, 0.298384
3625.28, 0.299146
3627.82, 0.299962
3630.36, 0.300614
3632.9, 0.301267
3635.45, 0.302083
3638.0, 0.302954
3640.56, 0.303715
3643.12, 0.304422
3645.68, 0.305021
3648.24, 0.305728
3650.81, 0.306381
3653.39, 0.306979
3655.96, 0.307578
3658.54, 0.308394
3661.13, 0.308938
3663.71, 0.309427
3666.3, 0.309862
3668.9, 0.310570
3671.5, 0.311114
3674.1, 0.311440
3676.7, 0.311766
3679.31, 0.312202
3681.93, 0.312691
3684.54, 0.313072
3687.17, 0.313453
3689.79, 0.313888
3692.42, 0.314160
3695.05, 0.314432
3697.69, 0.314867
3700.32, 0.315302
3702.97, 0.315466
3705.61, 0.315792
3708.27, 0.316282
3710.92, 0.316717
3713.58, 0.316989
3716.24, 0.317261
3718.91, 0.317587
3721.58, 0.317914
3724.25, 0.318131
3726.93, 0.318566
3729.61, 0.318947
3732.29, 0.319274
3734.98, 0.319654
3737.67, 0.319926
3740.37, 0.320253
3743.07, 0.320634
3745.78, 0.321014
3748.49, 0.321286
3751.2, 0.321558
3753.91, 0.321830
3756.63, 0.322157
3759.36, 0.322701
3762.09, 0.323190
3764.82, 0.323571
3767.55, 0.323898
3770.29, 0.324224
3773.04, 0.324442
3775.78, 0.324714
3778.54, 0.325094
3781.29, 0.325366
3784.05, 0.325530
3786.82, 0.325856
3789.59, 0.326128
3792.36, 0.326128
3795.13, 0.326128
3797.92, 0.326291
3800.7, 0.326454
3803.49, 0.326454
3806.28, 0.326509
3809.08, 0.326618
3811.88, 0.326672
3814.68, 0.326672
3817.49, 0.326563
3820.31, 0.326509
3823.12, 0.326291
3825.94, 0.326074
3828.77, 0.326019
3831.6, 0.326074
3834.43, 0.325910
3837.27, 0.325747
3840.11, 0.325638
3842.96, 0.325366
3845.81, 0.324877
3848.67, 0.324605
3851.53, 0.324170
3854.39, 0.323626
3857.26, 0.322973
3860.13, 0.322157
3863.01, 0.321069
3865.89, 0.319600
3868.77, 0.318077
3871.66, 0.316717
3874.55, 0.315248
3877.45, 0.314051
3880.35, 0.313453
3883.26, 0.313126
3886.17, 0.312909
3889.09, 0.313018
3892.01, 0.313398
3894.93, 0.314214
3897.86, 0.315248
3900.79, 0.316173
3903.73, 0.317152
3906.67, 0.318240
3909.62, 0.319219
3912.57, 0.319709
3915.52, 0.319926
3918.48, 0.320090
3921.45, 0.319872
3924.42, 0.319763
3927.39, 0.319709
3930.37, 0.319328
3933.35, 0.318784
3936.34, 0.318512
3939.33, 0.318022
3942.32, 0.317478
3945.32, 0.316934
3948.33, 0.316445
3951.34, 0.316010
3954.35, 0.315357
3957.37, 0.314650
3960.39, 0.313888
3963.42, 0.313126
3966.45, 0.312528
3969.49, 0.311821
3972.53, 0.311059
3975.58, 0.310134
3978.63, 0.308938
3981.68, 0.307686
3984.75, 0.306598
3987.81, 0.305402
3990.88, 0.304150
3993.95, 0.302954
3997.03, 0.301757
4000.12, 0.300506
4003.21, 0.299091
4006.3, 0.297622
4009.4, 0.296154
4012.5, 0.294522
4015.61, 0.292998
4018.72, 0.291421
4021.84, 0.289898
4024.96, 0.288320
4028.09, 0.286797
4031.22, 0.285274
4034.36, 0.283533
4037.5, 0.281792
4040.65, 0.280160
4043.8, 0.278419
4046.96, 0.276624
4050.12, 0.274774
4053.29, 0.273088
4056.46, 0.271347
4059.64, 0.269606
4062.82, 0.267866
4066.0, 0.266125
4069.19, 0.264384
4072.39, 0.262534
4075.59, 0.260522
4078.8, 0.258781
4082.01, 0.256986
4085.23, 0.255082
4088.45, 0.253286
4091.68, 0.251654
4094.91, 0.249914
4098.15, 0.248227
4101.39, 0.246595
4104.63, 0.244909
4107.89, 0.243331
4111.14, 0.242189
4114.41, 0.240829
4117.67, 0.239360
4120.95, 0.238054
4124.23, 0.236803
4127.51, 0.235715
4130.8, 0.234573
4134.09, 0.233267
4137.39, 0.232288
4140.7, 0.231418
4144.01, 0.230493
4147.32, 0.229568
4150.64, 0.228806
4153.97, 0.228208
4157.3, 0.227446
4160.64, 0.226467
4163.98, 0.225706
4167.33, 0.224944
4170.68, 0.224019
4174.04, 0.223149
4177.4, 0.222224
4180.77, 0.221027
4184.14, 0.220102
4187.52, 0.218906
4190.91, 0.217491
4194.3, 0.216294
4197.69, 0.215424
4201.1, 0.214282
4204.5, 0.212867
4207.92, 0.211398
4211.34, 0.209984
4214.76, 0.208352
4218.19, 0.206666
4221.62, 0.204870
4225.06, 0.203184
4228.51, 0.201389
4231.96, 0.199594
4235.42, 0.197962
4238.88, 0.196275
4242.35, 0.194589
4245.83, 0.192902
4249.31, 0.191434
4252.79, 0.189802
4256.28, 0.188006
4259.78, 0.186211
4263.29, 0.184198
4266.79, 0.182458
4270.31, 0.180826
4273.83, 0.178922
4277.35, 0.177126
4280.89, 0.175331
4284.42, 0.172938
4287.97, 0.170435
4291.52, 0.167987
4295.07, 0.165539
4298.63, 0.162819
4302.2, 0.159990
4305.78, 0.157706
4309.35, 0.155203
4312.94, 0.152592
4316.53, 0.150525
4320.13, 0.148621
4323.73, 0.146717
4327.34, 0.144867
4330.96, 0.143344
4334.58, 0.141821
4338.21, 0.140570
4341.84, 0.139264
4345.48, 0.138448
4349.12, 0.138013
4352.77, 0.137632
4356.43, 0.137523
4360.1, 0.138013
4363.76, 0.138122
4367.44, 0.138013
4371.12, 0.138230
4374.81, 0.138448
4378.51, 0.138394
4382.21, 0.138285
4385.92, 0.137904
4389.63, 0.137414
4393.35, 0.136707
4397.08, 0.136000
4400.81, 0.134966
4404.55, 0.133933
4408.29, 0.132954
4412.04, 0.131811
4415.8, 0.130451
4419.57, 0.129254
4423.34, 0.128166
4427.12, 0.127242
4430.9, 0.126643
4434.69, 0.126099
4438.49, 0.125446
4442.29, 0.124739
4446.1, 0.123542
4449.92, 0.122726
4453.74, 0.122346
4457.57, 0.121638
4461.41, 0.120659
4465.25, 0.119789
4469.1, 0.118701
4472.95, 0.118157
4476.82, 0.117667
4480.69, 0.117069
4484.56, 0.116198
4488.44, 0.115872
4492.33, 0.115437
4496.23, 0.115056
4500.13, 0.114947
4504.04, 0.115165
4507.96, 0.115600
4511.88, 0.116144
4515.81, 0.116634
4519.75, 0.116960
4523.69, 0.116742
4527.65, 0.116906
4531.6, 0.116960
4535.57, 0.116906
4539.54, 0.116960
4543.52, 0.116851
4547.5, 0.116307
4551.5, 0.115328
4555.5, 0.114458
4559.5, 0.113805
4563.52, 0.112934
4567.54, 0.112118
4571.56, 0.111574
4575.6, 0.111520
4579.64, 0.111792
4583.69, 0.112118
4587.75, 0.112717
4591.81, 0.113533
4595.88, 0.114730
4599.96, 0.116362
4604.04, 0.117939
4608.14, 0.119245
4612.24, 0.120170
4616.34, 0.121094
4620.46, 0.122128
4624.58, 0.123434
4628.71, 0.124467
4632.84, 0.125555
4636.99, 0.126371
4641.14, 0.127622
4645.3, 0.129091
4649.47, 0.130179
4653.64, 0.130886
4657.82, 0.131648
4662.01, 0.131811
4666.21, 0.131485
4670.41, 0.131050
4674.62, 0.130342
4678.84, 0.129200
4683.07, 0.128166
4687.3, 0.126915
4691.54, 0.125936
4695.79, 0.125664
4700.05, 0.125610
4704.31, 0.126045
4708.59, 0.127350
4712.87, 0.129690
4717.15, 0.132845
4721.45, 0.136054
4725.76, 0.139645
4730.07, 0.143834
4734.39, 0.148730
4738.72, 0.153734
4743.05, 0.159174
4747.39, 0.164995
4751.75, 0.171360
4756.1, 0.178269
4760.47, 0.185504
4764.85, 0.192957
4769.23, 0.200899
4773.62, 0.207862
4778.02, 0.213846
4782.43, 0.219014
4786.85, 0.223094
4791.27, 0.226141
4795.7, 0.228806
4800.14, 0.230438
4804.59, 0.231526
4809.05, 0.231690
4813.51, 0.230874
4817.99, 0.229568
4822.47, 0.228154
4826.96, 0.226195
4831.46, 0.224944
4835.96, 0.224237
4840.48, 0.225325
4845.0, 0.227555
4849.54, 0.230547
4854.08, 0.233158
4858.63, 0.234954
4863.18, 0.235878
4867.75, 0.235280
4872.33, 0.232886
4876.91, 0.230656
4881.5, 0.228698
4886.1, 0.226195
4890.71, 0.223584
4895.33, 0.220701
4899.96, 0.216893
4904.59, 0.212432
4909.24, 0.208298
4913.89, 0.204544
4918.55, 0.200845
4923.22, 0.197962
4927.9, 0.196003
4932.59, 0.194262
4937.29, 0.192522
4942.0, 0.191162
4946.71, 0.189584
4951.44, 0.187789
4956.17, 0.185395
4960.91, 0.182566
4965.67, 0.179248
4970.43, 0.175766
4975.2, 0.172122
4979.98, 0.168749
4984.76, 0.166246
4989.56, 0.164560
4994.37, 0.162982
4999.18, 0.161568
5004.01, 0.160317
5008.84, 0.159773
5013.69, 0.159338
5018.54, 0.158902
5023.4, 0.159011
5028.28, 0.159446
5033.16, 0.159174
5038.05, 0.159120
5042.95, 0.159338
5047.86, 0.159392
5052.78, 0.159338
5057.71, 0.159066
5062.65, 0.159174
5067.6, 0.159446
5072.56, 0.159718
5077.53, 0.160752
5082.5, 0.162058
5087.49, 0.163635
5092.49, 0.164941
5097.5, 0.165920
5102.51, 0.167117
5107.54, 0.167606
5112.58, 0.167606
5117.62, 0.168096
5122.68, 0.168205
5127.75, 0.167770
5132.82, 0.167552
5137.91, 0.167715
5143.01, 0.168150
5148.12, 0.168477
5153.23, 0.168803
5158.36, 0.168858
5163.5, 0.168640
5168.65, 0.168694
5173.81, 0.168858
5178.98, 0.168912
5184.15, 0.168966
5189.34, 0.169347
5194.54, 0.169293
5199.75, 0.168586
5204.98, 0.167389
5210.21, 0.165485
5215.45, 0.162928
5220.7, 0.160045
5225.96, 0.156237
5231.23, 0.151885
5236.52, 0.147424
5241.81, 0.143072
5247.12, 0.139155
5252.44, 0.135347
5257.76, 0.131702
5263.1, 0.128547
5268.45, 0.125120
5273.81, 0.122182
5279.18, 0.119571
5284.56, 0.117178
5289.95, 0.115600
5295.36, 0.113914
5300.77, 0.112554
