Database of Origin, USGS Spectral Database
Sample Description, See USGS database for additional info
Date Added,2016-08-10 05:03:19.563890

Data ID,USGS_lep08          
Sample ID, lepidolite_nmnh105543.12778
Mineral Name, lepidolite
Material Class,Phyllosilicate

Wavelength
213.1, 0.0472320
221.1, 0.0473100
229.1, 0.0464440
236.1, 0.0448580
242.1, 0.0439990
248.1, 0.0441120
253.6, 0.0444210
258.6, 0.0451610
263.6, 0.0462960
268.6, 0.0481370
273.1, 0.0503990
277.1, 0.0518620
281.1, 0.0544260
285.1, 0.0573380
289.1, 0.0597180
293.1, 0.0637720
297.1, 0.0677700
301.1, 0.0729630
305.1, 0.0787360
309.1, 0.0854480
313.1, 0.0932360
317.1, 0.100959
321.1, 0.109441
325.1, 0.119200
329.1, 0.129759
333.1, 0.140928
337.1, 0.152807
341.1, 0.164128
345.1, 0.177359
349.1, 0.188149
353.1, 0.201003
357.1, 0.213072
360.6, 0.222780
363.6, 0.230737
366.6, 0.237100
369.6, 0.243448
372.6, 0.250436
375.6, 0.255758
378.6, 0.262163
381.1, 0.265786
383.1, 0.268018
385.1, 0.271253
387.1, 0.272895
389.1, 0.274323
391.1, 0.275352
393.1, 0.275828
395.1, 0.275409
397.1, 0.277387
399.1, 0.274779
401.1, 0.273986
403.1, 0.272681
405.1, 0.271167
407.1, 0.268571
409.1, 0.266173
411.1, 0.263787
412.8, 0.261380
415.8, 0.257516
418.8, 0.254508
421.8, 0.249768
424.8, 0.245721
427.8, 0.243133
430.8, 0.239152
433.8, 0.236595
436.8, 0.233362
439.8, 0.231791
442.8, 0.229257
445.8, 0.228269
448.8, 0.227972
451.3, 0.228183
453.3, 0.226330
455.3, 0.226468
457.3, 0.226813
459.3, 0.227111
461.3, 0.228205
463.3, 0.228308
465.3, 0.229582
467.3, 0.229194
469.3, 0.230513
471.3, 0.231068
473.3, 0.231491
475.3, 0.231222
477.3, 0.232237
479.3, 0.231393
481.3, 0.232860
483.3, 0.232473
485.3, 0.233119
487.3, 0.233286
489.3, 0.233983
491.3, 0.234179
493.3, 0.233315
495.3, 0.234127
497.3, 0.234085
499.3, 0.232989
501.3, 0.232633
503.3, 0.232019
505.3, 0.230862
507.3, 0.230020
509.3, 0.228877
511.3, 0.226990
513.3, 0.226010
515.3, 0.224844
517.3, 0.223711
519.3, 0.222516
521.3, 0.221770
523.3, 0.219572
525.3, 0.219522
527.3, 0.218379
529.3, 0.218370
531.3, 0.217055
533.3, 0.217625
535.3, 0.216366
537.3, 0.216877
539.3, 0.216117
541.3, 0.215575
543.3, 0.215871
545.3, 0.216405
547.3, 0.215457
549.3, 0.216262
551.3, 0.215524
553.3, 0.215642
555.3, 0.215988
557.3, 0.215867
559.3, 0.216918
561.3, 0.217598
563.3, 0.218411
565.3, 0.219299
567.3, 0.218846
569.3, 0.220479
571.3, 0.221820
573.3, 0.222896
575.3, 0.224593
577.3, 0.226168
579.3, 0.228115
581.3, 0.230231
583.3, 0.232255
585.3, 0.233941
587.3, 0.237095
589.3, 0.239606
591.3, 0.242187
593.3, 0.245726
595.3, 0.248140
597.3, 0.251497
599.3, 0.255081
601.1, 0.257510
602.7, 0.260874
604.3, 0.263314
605.9, 0.265603
607.5, 0.268884
609.1, 0.271648
610.7, 0.274797
612.3, 0.277678
613.9, 0.280167
615.5, 0.284398
617.1, 0.286521
618.7, 0.290697
620.3, 0.291983
621.9, 0.295599
623.5, 0.299315
625.1, 0.300574
626.7, 0.304392
628.3, 0.306806
629.9, 0.309021
631.7, 0.311786
633.7, 0.315392
635.7, 0.318058
637.7, 0.320854
639.7, 0.322687
641.7, 0.325906
643.7, 0.327749
645.7, 0.329246
647.7, 0.331011
649.7, 0.332362
651.7, 0.334225
653.7, 0.335795
655.7, 0.335527
657.7, 0.336651
659.7, 0.337574
661.7, 0.338227
663.7, 0.338426
665.7, 0.338369
667.7, 0.338727
670.2, 0.337802
673.2, 0.337457
676.2, 0.337639
679.2, 0.336228
682.2, 0.334646
685.2, 0.333143
688.2, 0.332940
691.2, 0.330857
694.2, 0.329648
697.2, 0.327003
700.2, 0.325899
702.0, 0.325564
704.0, 0.325260
706.0, 0.323607
708.0, 0.323219
710.0, 0.321863
712.0, 0.320276
714.0, 0.320017
716.0, 0.318474
718.0, 0.317841
720.0, 0.316945
722.0, 0.316541
724.0, 0.315571
726.0, 0.314479
728.0, 0.313557
730.0, 0.312135
732.0, 0.311781
734.0, 0.311323
736.0, 0.310709
738.0, 0.310337
740.0, 0.308431
742.0, 0.308355
744.0, 0.307957
746.0, 0.305291
748.0, 0.306707
750.5, 0.306005
753.5, 0.304825
756.5, 0.303960
759.5, 0.303848
762.5, 0.302889
765.5, 0.302297
768.5, 0.302597
771.5, 0.301600
774.5, 0.300464
777.5, 0.301366
781.0, 0.300400
785.0, 0.300793
789.0, 0.300353
793.0, 0.299973
797.0, 0.299912
801.5, 0.299490
806.5, 0.300292
811.5, 0.300602
816.5, 0.300146
822.0, 0.301733
828.0, 0.301058
835.0, 0.303614
843.0, 0.305020
851.0, 0.305021
859.0, 0.304895
871.0, 0.309258
883.0, 0.309231
894.0, 0.314996
904.0, 0.316405
914.0, 0.319217
924.0, 0.323091
933.0, 0.328161
941.0, 0.330088
949.0, 0.332291
957.0, 0.337854
964.0, 0.343316
970.0, 0.344384
976.0, 0.346926
982.0, 0.351505
988.0, 0.357333
994.0, 0.359687
1000.0, 0.364808
1006.0, 0.367741
1012.0, 0.370842
1018.0, 0.372153
1023.5, 0.376802
1028.5, 0.381354
1033.5, 0.385574
1038.5, 0.388420
1043.5, 0.390305
1048.5, 0.394856
1053.5, 0.397622
1058.5, 0.402351
1063.5, 0.405253
1068.5, 0.407167
1073.5, 0.412992
1078.5, 0.414134
1083.5, 0.419392
1088.5, 0.420669
1093.5, 0.425489
1098.5, 0.429420
1103.5, 0.431658
1108.5, 0.435841
1113.5, 0.439024
1118.5, 0.442645
1123.5, 0.447085
1128.5, 0.449422
1133.5, 0.453255
1138.5, 0.458805
1143.5, 0.459196
1148.5, 0.464337
1153.5, 0.467053
1158.5, 0.469694
1163.5, 0.473533
1168.5, 0.476138
1173.5, 0.479706
1178.5, 0.482538
1183.5, 0.487055
1188.5, 0.492855
1193.5, 0.492478
1198.5, 0.496310
1203.5, 0.500652
1208.5, 0.503093
1213.5, 0.506482
1218.5, 0.511144
1223.5, 0.513767
1228.5, 0.516458
1233.5, 0.519764
1238.5, 0.521182
1243.5, 0.523736
1248.5, 0.525277
1253.5, 0.529610
1258.5, 0.532702
1263.5, 0.536355
1268.5, 0.540158
1273.5, 0.542387
1278.5, 0.544043
1283.5, 0.546901
1288.5, 0.548026
1293.5, 0.548724
1298.5, 0.548287
1303.5, 0.549057
1308.5, 0.551348
1313.5, 0.554055
1318.5, 0.556445
1323.5, 0.557128
1328.5, 0.561035
1333.5, 0.562448
1338.5, 0.564334
1343.5, 0.567033
1348.5, 0.569382
1353.5, 0.570175
1358.5, 0.570515
1363.5, 0.567062
1368.5, 0.561190
1373.5, 0.549965
1378.5, 0.513818
1383.5, 0.418397
1388.5, 0.359125
1393.5, 0.371148
1398.5, 0.383084
1403.5, 0.382370
1408.5, 0.374081
1413.5, 0.363834
1418.5, 0.380176
1423.5, 0.409063
1428.5, 0.431859
1433.5, 0.464490
1438.5, 0.502766
1443.5, 0.544708
1448.5, 0.563032
1453.5, 0.571018
1458.5, 0.571813
1463.5, 0.576787
1468.5, 0.579608
1473.5, 0.586927
1478.5, 0.592011
1483.5, 0.599305
1488.5, 0.604189
1493.5, 0.608561
1498.5, 0.612066
1503.5, 0.613782
1508.5, 0.618403
1513.5, 0.621428
1518.5, 0.623890
1523.5, 0.629254
1528.5, 0.629024
1534.0, 0.632233
1540.0, 0.634884
1546.0, 0.634869
1552.0, 0.639242
1558.0, 0.641145
1564.0, 0.644126
1570.5, 0.645592
1577.5, 0.648650
1584.5, 0.650344
1591.5, 0.652743
1598.5, 0.654577
1605.5, 0.656699
1612.5, 0.659181
1619.5, 0.661630
1626.5, 0.662658
1633.5, 0.662525
1640.5, 0.663790
1647.5, 0.664616
1654.5, 0.668561
1661.5, 0.669212
1668.5, 0.670423
1676.0, 0.669190
1684.0, 0.671452
1692.0, 0.673637
1700.0, 0.673767
1708.0, 0.675908
1716.0, 0.673519
1724.0, 0.671343
1732.0, 0.674289
1740.0, 0.673575
1748.0, 0.669695
1756.0, 0.671757
1764.0, 0.670980
1772.0, 0.671608
1780.0, 0.671170
1788.0, 0.671152
1796.0, 0.670115
1805.0, 0.665561
1815.0, 0.663758
1825.0, 0.658480
1835.0, 0.652746
1845.0, 0.647055
1855.0, 0.637981
1865.0, 0.629384
1875.0, 0.617334
1885.0, 0.586909
1895.0, 0.521852
1905.0, 0.445883
1915.0, 0.436282
1925.0, 0.461670
1935.0, 0.486782
1945.0, 0.501319
1955.0, 0.512730
1965.0, 0.522848
1975.0, 0.524368
1985.0, 0.532694
1995.0, 0.540751
2005.0, 0.544748
2015.0, 0.549347
2025.0, 0.556616
2035.0, 0.559613
2045.0, 0.561718
2055.0, 0.562998
2065.0, 0.557301
2075.0, 0.538856
2085.0, 0.521792
2095.0, 0.509739
2105.0, 0.499532
2115.0, 0.496547
2125.0, 0.493239
2135.0, 0.492345
2145.0, 0.483003
2155.0, 0.469071
2165.0, 0.434871
2175.0, 0.385188
2185.0, 0.308569
2195.0, 0.231755
2205.0, 0.172672
2215.0, 0.185155
2225.0, 0.238041
2235.0, 0.294891
2245.0, 0.347033
2255.0, 0.375601
2265.0, 0.392250
2275.0, 0.392424
2285.0, 0.391990
2295.0, 0.375694
2305.0, 0.352407
2315.0, 0.314225
2325.0, 0.274588
2335.0, 0.244092
2345.0, 0.220939
2355.0, 0.213702
2365.0, 0.221963
2375.0, 0.229463
2386.0, 0.224958
2400.0, 0.220807
2418.0, 0.206219
2440.0, 0.187762
2466.0, 0.191152
2496.0, 0.205907
2528.0, 0.202073
2560.0, 0.200155
2592.0, 0.201343
2624.0, 0.199092
2656.0, 0.185045
2688.0, 0.122753
2720.0, 0.0372730
2752.0, 0.0308580
2784.0, 0.0392470
2816.0, 0.0394770
2848.0, 0.0550790
2880.0, 0.0589810
2912.0, 0.0550600
2944.0, 0.0682400
2976.0, 0.0727800
