Database of Origin, USGS Spectral Database
Sample Description, See USGS database for additional info
Date Added,2016-08-10 05:27:53.870508

Data ID,USGS_pyr02          
Sample ID, pyrite_gds483.18701
Mineral Name, pyrite
Material Class,Sulfide

Wavelength
350.0, 0.0254220
351.0, 0.0256100
352.0, 0.0267170
353.0, 0.0282190
354.0, 0.0287730
355.0, 0.0283700
356.0, 0.0265140
357.0, 0.0260380
358.0, 0.0264630
359.0, 0.0274660
360.0, 0.0278540
361.0, 0.0281950
362.0, 0.0287910
363.0, 0.0293960
364.0, 0.0297190
365.0, 0.0297450
366.0, 0.0295950
367.0, 0.0295090
368.0, 0.0294440
369.0, 0.0293030
370.0, 0.0302550
371.0, 0.0311790
372.0, 0.0312960
373.0, 0.0315580
374.0, 0.0317740
375.0, 0.0319060
376.0, 0.0316530
377.0, 0.0317130
378.0, 0.0320720
379.0, 0.0328920
380.0, 0.0327920
381.0, 0.0326100
382.0, 0.0330220
383.0, 0.0332250
384.0, 0.0332600
385.0, 0.0331210
386.0, 0.0335360
387.0, 0.0335140
388.0, 0.0333570
389.0, 0.0342730
390.0, 0.0342410
391.0, 0.0339800
392.0, 0.0340640
393.0, 0.0339480
394.0, 0.0340840
395.0, 0.0346080
396.0, 0.0347290
397.0, 0.0348610
398.0, 0.0349890
399.0, 0.0349860
400.0, 0.0350740
401.0, 0.0351070
402.0, 0.0348930
403.0, 0.0352340
404.0, 0.0355890
405.0, 0.0358150
406.0, 0.0354950
407.0, 0.0354610
408.0, 0.0356630
409.0, 0.0357900
410.0, 0.0356780
411.0, 0.0355360
412.0, 0.0356270
413.0, 0.0359510
414.0, 0.0361760
415.0, 0.0361780
416.0, 0.0362470
417.0, 0.0362970
418.0, 0.0363100
419.0, 0.0361650
420.0, 0.0362820
421.0, 0.0365040
422.0, 0.0366710
423.0, 0.0366590
424.0, 0.0366340
425.0, 0.0366630
426.0, 0.0367240
427.0, 0.0368330
428.0, 0.0369780
429.0, 0.0370580
430.0, 0.0371090
431.0, 0.0371410
432.0, 0.0371580
433.0, 0.0372310
434.0, 0.0373050
435.0, 0.0373560
436.0, 0.0375320
437.0, 0.0376770
438.0, 0.0377780
439.0, 0.0378080
440.0, 0.0378850
441.0, 0.0379700
442.0, 0.0379740
443.0, 0.0380880
444.0, 0.0382050
445.0, 0.0382620
446.0, 0.0383900
447.0, 0.0385000
448.0, 0.0385830
449.0, 0.0386760
450.0, 0.0387690
451.0, 0.0388710
452.0, 0.0390150
453.0, 0.0391160
454.0, 0.0392300
455.0, 0.0394060
456.0, 0.0394880
457.0, 0.0395890
458.0, 0.0397250
459.0, 0.0397320
460.0, 0.0397790
461.0, 0.0398640
462.0, 0.0400110
463.0, 0.0401760
464.0, 0.0403490
465.0, 0.0405290
466.0, 0.0406590
467.0, 0.0407740
468.0, 0.0408780
469.0, 0.0409750
470.0, 0.0411130
471.0, 0.0412580
472.0, 0.0412620
473.0, 0.0414180
474.0, 0.0416200
475.0, 0.0417800
476.0, 0.0418880
477.0, 0.0419580
478.0, 0.0419890
479.0, 0.0422020
480.0, 0.0423290
481.0, 0.0423930
482.0, 0.0425260
483.0, 0.0426300
484.0, 0.0427310
485.0, 0.0428560
486.0, 0.0430130
487.0, 0.0431620
488.0, 0.0432900
489.0, 0.0434270
490.0, 0.0435000
491.0, 0.0435340
492.0, 0.0437020
493.0, 0.0438490
494.0, 0.0439570
495.0, 0.0439760
496.0, 0.0440670
497.0, 0.0441780
498.0, 0.0442930
499.0, 0.0443890
500.0, 0.0444870
501.0, 0.0445850
502.0, 0.0446490
503.0, 0.0447390
504.0, 0.0448260
505.0, 0.0448600
506.0, 0.0449280
507.0, 0.0450040
508.0, 0.0450770
509.0, 0.0451380
510.0, 0.0451900
511.0, 0.0452350
512.0, 0.0452730
513.0, 0.0453580
514.0, 0.0454590
515.0, 0.0455120
516.0, 0.0455700
517.0, 0.0456410
518.0, 0.0457350
519.0, 0.0457590
520.0, 0.0458010
521.0, 0.0458650
522.0, 0.0458850
523.0, 0.0459220
524.0, 0.0459710
525.0, 0.0460320
526.0, 0.0460640
527.0, 0.0460950
528.0, 0.0461440
529.0, 0.0461880
530.0, 0.0462280
531.0, 0.0462670
532.0, 0.0463650
533.0, 0.0463980
534.0, 0.0463970
535.0, 0.0464390
536.0, 0.0464840
537.0, 0.0465270
538.0, 0.0465640
539.0, 0.0466300
540.0, 0.0466760
541.0, 0.0466930
542.0, 0.0467220
543.0, 0.0467550
544.0, 0.0467910
545.0, 0.0468360
546.0, 0.0468910
547.0, 0.0469370
548.0, 0.0469540
549.0, 0.0469960
550.0, 0.0470460
551.0, 0.0471020
552.0, 0.0471250
553.0, 0.0471440
554.0, 0.0471620
555.0, 0.0471900
556.0, 0.0472430
557.0, 0.0473040
558.0, 0.0473580
559.0, 0.0473960
560.0, 0.0474240
561.0, 0.0474440
562.0, 0.0474770
563.0, 0.0475080
564.0, 0.0475390
565.0, 0.0475930
566.0, 0.0476220
567.0, 0.0476470
568.0, 0.0476880
569.0, 0.0476950
570.0, 0.0477110
571.0, 0.0477540
572.0, 0.0477820
573.0, 0.0477950
574.0, 0.0478010
575.0, 0.0478420
576.0, 0.0478620
577.0, 0.0478750
578.0, 0.0479010
579.0, 0.0479250
580.0, 0.0479460
581.0, 0.0479610
582.0, 0.0479770
583.0, 0.0480000
584.0, 0.0480300
585.0, 0.0480440
586.0, 0.0480660
587.0, 0.0480860
588.0, 0.0480810
589.0, 0.0480670
590.0, 0.0480540
591.0, 0.0480460
592.0, 0.0480840
593.0, 0.0481090
594.0, 0.0481180
595.0, 0.0481520
596.0, 0.0481330
597.0, 0.0480990
598.0, 0.0481310
599.0, 0.0481260
600.0, 0.0481210
601.0, 0.0481360
602.0, 0.0481400
603.0, 0.0481350
604.0, 0.0481220
605.0, 0.0480890
606.0, 0.0480740
607.0, 0.0480730
608.0, 0.0480800
609.0, 0.0480760
610.0, 0.0480700
611.0, 0.0480640
612.0, 0.0480580
613.0, 0.0480520
614.0, 0.0480440
615.0, 0.0480420
616.0, 0.0480490
617.0, 0.0480590
618.0, 0.0480500
619.0, 0.0480550
620.0, 0.0480670
621.0, 0.0480800
622.0, 0.0480600
623.0, 0.0480480
624.0, 0.0480530
625.0, 0.0480860
626.0, 0.0480870
627.0, 0.0480750
628.0, 0.0481150
629.0, 0.0481240
630.0, 0.0481190
631.0, 0.0481100
632.0, 0.0481220
633.0, 0.0481380
634.0, 0.0481540
635.0, 0.0481590
636.0, 0.0481640
637.0, 0.0481720
638.0, 0.0481960
639.0, 0.0481900
640.0, 0.0481760
641.0, 0.0481730
642.0, 0.0481930
643.0, 0.0482200
644.0, 0.0482520
645.0, 0.0482860
646.0, 0.0483050
647.0, 0.0483130
648.0, 0.0483390
649.0, 0.0483460
650.0, 0.0483580
651.0, 0.0484100
652.0, 0.0484240
653.0, 0.0484380
654.0, 0.0484630
655.0, 0.0484910
656.0, 0.0485130
657.0, 0.0485290
658.0, 0.0485480
659.0, 0.0485810
660.0, 0.0486090
661.0, 0.0486010
662.0, 0.0486490
663.0, 0.0486850
664.0, 0.0486780
665.0, 0.0487150
666.0, 0.0487450
667.0, 0.0487660
668.0, 0.0487860
669.0, 0.0488050
670.0, 0.0488240
671.0, 0.0488420
672.0, 0.0488870
673.0, 0.0489190
674.0, 0.0489150
675.0, 0.0489340
676.0, 0.0489570
677.0, 0.0489800
678.0, 0.0489910
679.0, 0.0490080
680.0, 0.0490250
681.0, 0.0490290
682.0, 0.0490650
683.0, 0.0490920
684.0, 0.0490790
685.0, 0.0491010
686.0, 0.0491220
687.0, 0.0491360
688.0, 0.0491550
689.0, 0.0491720
690.0, 0.0491820
691.0, 0.0491680
692.0, 0.0491680
693.0, 0.0491740
694.0, 0.0491830
695.0, 0.0492020
696.0, 0.0492210
697.0, 0.0492370
698.0, 0.0492520
699.0, 0.0492510
700.0, 0.0492390
701.0, 0.0492330
702.0, 0.0492320
703.0, 0.0492260
704.0, 0.0492030
705.0, 0.0492200
706.0, 0.0492270
707.0, 0.0492120
708.0, 0.0491930
709.0, 0.0491810
710.0, 0.0491760
711.0, 0.0491890
712.0, 0.0491870
713.0, 0.0491740
714.0, 0.0491450
715.0, 0.0491460
716.0, 0.0491410
717.0, 0.0491230
718.0, 0.0490930
719.0, 0.0490660
720.0, 0.0490430
721.0, 0.0490420
722.0, 0.0490220
723.0, 0.0489930
724.0, 0.0489590
725.0, 0.0489310
726.0, 0.0489110
727.0, 0.0488990
728.0, 0.0488600
729.0, 0.0488300
730.0, 0.0488080
731.0, 0.0487650
732.0, 0.0487280
733.0, 0.0486900
734.0, 0.0486430
735.0, 0.0486030
736.0, 0.0485700
737.0, 0.0485470
738.0, 0.0484850
739.0, 0.0484380
740.0, 0.0484050
741.0, 0.0483720
742.0, 0.0483210
743.0, 0.0482640
744.0, 0.0482200
745.0, 0.0481720
746.0, 0.0481320
747.0, 0.0481090
748.0, 0.0480520
749.0, 0.0479990
750.0, 0.0479530
751.0, 0.0479220
752.0, 0.0478700
753.0, 0.0478110
754.0, 0.0477690
755.0, 0.0477320
756.0, 0.0476950
757.0, 0.0476550
758.0, 0.0476120
759.0, 0.0475640
760.0, 0.0475110
761.0, 0.0474640
762.0, 0.0474280
763.0, 0.0473950
764.0, 0.0473430
765.0, 0.0472990
766.0, 0.0472590
767.0, 0.0472210
768.0, 0.0471840
769.0, 0.0471390
770.0, 0.0470840
771.0, 0.0470350
772.0, 0.0470060
773.0, 0.0469830
774.0, 0.0469250
775.0, 0.0468730
776.0, 0.0468250
777.0, 0.0467810
778.0, 0.0467460
779.0, 0.0467030
780.0, 0.0466500
781.0, 0.0466190
782.0, 0.0465780
783.0, 0.0465320
784.0, 0.0464930
785.0, 0.0464440
786.0, 0.0463960
787.0, 0.0463600
788.0, 0.0462970
789.0, 0.0462460
790.0, 0.0462180
791.0, 0.0461850
792.0, 0.0461430
793.0, 0.0460930
794.0, 0.0460320
795.0, 0.0459930
796.0, 0.0459560
797.0, 0.0459010
798.0, 0.0458540
799.0, 0.0458130
800.0, 0.0457780
801.0, 0.0457240
802.0, 0.0456720
803.0, 0.0456230
804.0, 0.0455880
805.0, 0.0455360
806.0, 0.0454840
807.0, 0.0454540
808.0, 0.0454190
809.0, 0.0453700
810.0, 0.0453000
811.0, 0.0452600
812.0, 0.0452180
813.0, 0.0451710
814.0, 0.0451250
815.0, 0.0450770
816.0, 0.0450300
817.0, 0.0449920
818.0, 0.0449550
819.0, 0.0449050
820.0, 0.0448340
821.0, 0.0448000
822.0, 0.0447710
823.0, 0.0447420
824.0, 0.0446810
825.0, 0.0446410
826.0, 0.0446110
827.0, 0.0445680
828.0, 0.0445250
829.0, 0.0444690
830.0, 0.0443910
831.0, 0.0443570
832.0, 0.0443390
833.0, 0.0443300
834.0, 0.0442590
835.0, 0.0442110
836.0, 0.0441770
837.0, 0.0441500
838.0, 0.0440930
839.0, 0.0440380
840.0, 0.0440090
841.0, 0.0439760
842.0, 0.0439380
843.0, 0.0438970
844.0, 0.0438620
845.0, 0.0438180
846.0, 0.0437700
847.0, 0.0437250
848.0, 0.0436880
849.0, 0.0436550
850.0, 0.0436230
851.0, 0.0436020
852.0, 0.0435690
853.0, 0.0435190
854.0, 0.0435120
855.0, 0.0434700
856.0, 0.0434060
857.0, 0.0433530
858.0, 0.0433330
859.0, 0.0433200
860.0, 0.0432990
861.0, 0.0432870
862.0, 0.0432560
863.0, 0.0432010
864.0, 0.0431480
865.0, 0.0431230
866.0, 0.0431090
867.0, 0.0430420
868.0, 0.0430050
869.0, 0.0429810
870.0, 0.0429600
871.0, 0.0429500
872.0, 0.0429290
873.0, 0.0428880
874.0, 0.0428510
875.0, 0.0428090
876.0, 0.0427650
877.0, 0.0427360
878.0, 0.0427320
879.0, 0.0427220
880.0, 0.0426660
881.0, 0.0426560
882.0, 0.0426450
883.0, 0.0426180
884.0, 0.0426070
885.0, 0.0426000
886.0, 0.0425930
887.0, 0.0425470
888.0, 0.0425050
889.0, 0.0424580
890.0, 0.0423890
891.0, 0.0424070
892.0, 0.0424030
893.0, 0.0423330
894.0, 0.0423330
895.0, 0.0423340
896.0, 0.0423260
897.0, 0.0422530
898.0, 0.0422420
899.0, 0.0422470
900.0, 0.0422050
901.0, 0.0421660
902.0, 0.0421500
903.0, 0.0421730
904.0, 0.0421340
905.0, 0.0421100
906.0, 0.0421030
907.0, 0.0420840
908.0, 0.0420550
909.0, 0.0420250
910.0, 0.0420050
911.0, 0.0419950
912.0, 0.0419830
913.0, 0.0419610
914.0, 0.0419350
915.0, 0.0419180
916.0, 0.0419140
917.0, 0.0419240
918.0, 0.0419180
919.0, 0.0418920
920.0, 0.0418290
921.0, 0.0418090
922.0, 0.0418090
923.0, 0.0418230
924.0, 0.0417970
925.0, 0.0417510
926.0, 0.0416940
927.0, 0.0417130
928.0, 0.0417350
929.0, 0.0417580
930.0, 0.0417770
931.0, 0.0417310
932.0, 0.0416740
933.0, 0.0416450
934.0, 0.0416610
935.0, 0.0416530
936.0, 0.0416100
937.0, 0.0416070
938.0, 0.0416170
939.0, 0.0416360
940.0, 0.0416560
941.0, 0.0416010
942.0, 0.0415570
943.0, 0.0416070
944.0, 0.0416090
945.0, 0.0416160
946.0, 0.0416400
947.0, 0.0415750
948.0, 0.0415650
949.0, 0.0415870
950.0, 0.0415610
951.0, 0.0415260
952.0, 0.0415010
953.0, 0.0415110
954.0, 0.0415100
955.0, 0.0414750
956.0, 0.0413950
957.0, 0.0414540
958.0, 0.0414800
959.0, 0.0414850
960.0, 0.0415400
961.0, 0.0414820
962.0, 0.0414070
963.0, 0.0414230
964.0, 0.0414780
965.0, 0.0414940
966.0, 0.0414390
967.0, 0.0414560
968.0, 0.0414360
969.0, 0.0413960
970.0, 0.0414690
971.0, 0.0414400
972.0, 0.0413950
973.0, 0.0414580
974.0, 0.0415060
975.0, 0.0415010
976.0, 0.0414150
977.0, 0.0414620
978.0, 0.0414920
979.0, 0.0414940
980.0, 0.0414300
981.0, 0.0414010
982.0, 0.0413800
983.0, 0.0413150
984.0, 0.0413680
985.0, 0.0414530
986.0, 0.0415410
987.0, 0.0415360
988.0, 0.0414890
989.0, 0.0414150
990.0, 0.0414540
991.0, 0.0415080
992.0, 0.0415630
993.0, 0.0415890
994.0, 0.0415570
995.0, 0.0415240
996.0, 0.0415210
997.0, 0.0415720
998.0, 0.0415510
999.0, 0.0414610
1000.0, 0.0416180
1001.0, 0.0416270
1002.0, 0.0415430
1003.0, 0.0415470
1004.0, 0.0416290
1005.0, 0.0416740
1006.0, 0.0416950
1007.0, 0.0417030
1008.0, 0.0416850
1009.0, 0.0416590
1010.0, 0.0416120
1011.0, 0.0415890
1012.0, 0.0416340
1013.0, 0.0417040
1014.0, 0.0417310
1015.0, 0.0417340
1016.0, 0.0417560
1017.0, 0.0417880
1018.0, 0.0418090
1019.0, 0.0418220
1020.0, 0.0418340
1021.0, 0.0418430
1022.0, 0.0418620
1023.0, 0.0419020
1024.0, 0.0418810
1025.0, 0.0417380
1026.0, 0.0416570
1027.0, 0.0417520
1028.0, 0.0418860
1029.0, 0.0418990
1030.0, 0.0417970
1031.0, 0.0417950
1032.0, 0.0419300
1033.0, 0.0420180
1034.0, 0.0420300
1035.0, 0.0420200
1036.0, 0.0419980
1037.0, 0.0420050
1038.0, 0.0420560
1039.0, 0.0421120
1040.0, 0.0421310
1041.0, 0.0421310
1042.0, 0.0421620
1043.0, 0.0421930
1044.0, 0.0422150
1045.0, 0.0422460
1046.0, 0.0422700
1047.0, 0.0422950
1048.0, 0.0423240
1049.0, 0.0423360
1050.0, 0.0423270
1051.0, 0.0423240
1052.0, 0.0423360
1053.0, 0.0423620
1054.0, 0.0424090
1055.0, 0.0424520
1056.0, 0.0424910
1057.0, 0.0425250
1058.0, 0.0425410
1059.0, 0.0425520
1060.0, 0.0425540
1061.0, 0.0425630
1062.0, 0.0426050
1063.0, 0.0426570
1064.0, 0.0426770
1065.0, 0.0426880
1066.0, 0.0427180
1067.0, 0.0427620
1068.0, 0.0428270
1069.0, 0.0428750
1070.0, 0.0428660
1071.0, 0.0428520
1072.0, 0.0428770
1073.0, 0.0429350
1074.0, 0.0429930
1075.0, 0.0430360
1076.0, 0.0430770
1077.0, 0.0431070
1078.0, 0.0431150
1079.0, 0.0431340
1080.0, 0.0431770
1081.0, 0.0432110
1082.0, 0.0432690
1083.0, 0.0433390
1084.0, 0.0433770
1085.0, 0.0434210
1086.0, 0.0434400
1087.0, 0.0434410
1088.0, 0.0434920
1089.0, 0.0435630
1090.0, 0.0436140
1091.0, 0.0436560
1092.0, 0.0436940
1093.0, 0.0437230
1094.0, 0.0437540
1095.0, 0.0437830
1096.0, 0.0438300
1097.0, 0.0439040
1098.0, 0.0439730
1099.0, 0.0440380
1100.0, 0.0441030
1101.0, 0.0441500
1102.0, 0.0441900
1103.0, 0.0442230
1104.0, 0.0442460
1105.0, 0.0442900
1106.0, 0.0443570
1107.0, 0.0444150
1108.0, 0.0444600
1109.0, 0.0445110
1110.0, 0.0445740
1111.0, 0.0446310
1112.0, 0.0446700
1113.0, 0.0447170
1114.0, 0.0447730
1115.0, 0.0448080
1116.0, 0.0448510
1117.0, 0.0449100
1118.0, 0.0449680
1119.0, 0.0450380
1120.0, 0.0451000
1121.0, 0.0451400
1122.0, 0.0451810
1123.0, 0.0452320
1124.0, 0.0452810
1125.0, 0.0453470
1126.0, 0.0454110
1127.0, 0.0454440
1128.0, 0.0454920
1129.0, 0.0455490
1130.0, 0.0456050
1131.0, 0.0456810
1132.0, 0.0457510
1133.0, 0.0458050
1134.0, 0.0458480
1135.0, 0.0458960
1136.0, 0.0459590
1137.0, 0.0460310
1138.0, 0.0461080
1139.0, 0.0461780
1140.0, 0.0462350
1141.0, 0.0462840
1142.0, 0.0463470
1143.0, 0.0464180
1144.0, 0.0464770
1145.0, 0.0465380
1146.0, 0.0466030
1147.0, 0.0466630
1148.0, 0.0467140
1149.0, 0.0467550
1150.0, 0.0468100
1151.0, 0.0468800
1152.0, 0.0469480
1153.0, 0.0470160
1154.0, 0.0470890
1155.0, 0.0471620
1156.0, 0.0472280
1157.0, 0.0472900
1158.0, 0.0473500
1159.0, 0.0474140
1160.0, 0.0474830
1161.0, 0.0475480
1162.0, 0.0476160
1163.0, 0.0476840
1164.0, 0.0477530
1165.0, 0.0478250
1166.0, 0.0478900
1167.0, 0.0479550
1168.0, 0.0480260
1169.0, 0.0480980
1170.0, 0.0481690
1171.0, 0.0482380
1172.0, 0.0483020
1173.0, 0.0483710
1174.0, 0.0484560
1175.0, 0.0485370
1176.0, 0.0486160
1177.0, 0.0486930
1178.0, 0.0487650
1179.0, 0.0488370
1180.0, 0.0489080
1181.0, 0.0489800
1182.0, 0.0490570
1183.0, 0.0491330
1184.0, 0.0492110
1185.0, 0.0492990
1186.0, 0.0493740
1187.0, 0.0494290
1188.0, 0.0494980
1189.0, 0.0495850
1190.0, 0.0496650
1191.0, 0.0497350
1192.0, 0.0498040
1193.0, 0.0498810
1194.0, 0.0499610
1195.0, 0.0500400
1196.0, 0.0501200
1197.0, 0.0501960
1198.0, 0.0502700
1199.0, 0.0503550
1200.0, 0.0504500
1201.0, 0.0505370
1202.0, 0.0506220
1203.0, 0.0507010
1204.0, 0.0507680
1205.0, 0.0508410
1206.0, 0.0509220
1207.0, 0.0510010
1208.0, 0.0510740
1209.0, 0.0511480
1210.0, 0.0512210
1211.0, 0.0512970
1212.0, 0.0513850
1213.0, 0.0514790
1214.0, 0.0515720
1215.0, 0.0516650
1216.0, 0.0517460
1217.0, 0.0518130
1218.0, 0.0518890
1219.0, 0.0519710
1220.0, 0.0520560
1221.0, 0.0521530
1222.0, 0.0522370
1223.0, 0.0523040
1224.0, 0.0523750
1225.0, 0.0524490
1226.0, 0.0525280
1227.0, 0.0526190
1228.0, 0.0527090
1229.0, 0.0527890
1230.0, 0.0528660
1231.0, 0.0529490
1232.0, 0.0530340
1233.0, 0.0531160
1234.0, 0.0531960
1235.0, 0.0532790
1236.0, 0.0533630
1237.0, 0.0534480
1238.0, 0.0535350
1239.0, 0.0536220
1240.0, 0.0537080
1241.0, 0.0537920
1242.0, 0.0538720
1243.0, 0.0539530
1244.0, 0.0540370
1245.0, 0.0541200
1246.0, 0.0542000
1247.0, 0.0542780
1248.0, 0.0543600
1249.0, 0.0544430
1250.0, 0.0545260
1251.0, 0.0546130
1252.0, 0.0546960
1253.0, 0.0547730
1254.0, 0.0548560
1255.0, 0.0549430
1256.0, 0.0550300
1257.0, 0.0551210
1258.0, 0.0552080
1259.0, 0.0552890
1260.0, 0.0553740
1261.0, 0.0554650
1262.0, 0.0555560
1263.0, 0.0556430
1264.0, 0.0557250
1265.0, 0.0558040
1266.0, 0.0558820
1267.0, 0.0559640
1268.0, 0.0560490
1269.0, 0.0561360
1270.0, 0.0562270
1271.0, 0.0563150
1272.0, 0.0563970
1273.0, 0.0564730
1274.0, 0.0565440
1275.0, 0.0566240
1276.0, 0.0567160
1277.0, 0.0568070
1278.0, 0.0568990
1279.0, 0.0569870
1280.0, 0.0570680
1281.0, 0.0571450
1282.0, 0.0572190
1283.0, 0.0572980
1284.0, 0.0573880
1285.0, 0.0574840
1286.0, 0.0575740
1287.0, 0.0576640
1288.0, 0.0577520
1289.0, 0.0578320
1290.0, 0.0579140
1291.0, 0.0579970
1292.0, 0.0580830
1293.0, 0.0581770
1294.0, 0.0582690
1295.0, 0.0583650
1296.0, 0.0584560
1297.0, 0.0585390
1298.0, 0.0586210
1299.0, 0.0586990
1300.0, 0.0587800
1301.0, 0.0588680
1302.0, 0.0589610
1303.0, 0.0590580
1304.0, 0.0591490
1305.0, 0.0592390
1306.0, 0.0593230
1307.0, 0.0594040
1308.0, 0.0594900
1309.0, 0.0595850
1310.0, 0.0596870
1311.0, 0.0597880
1312.0, 0.0598810
1313.0, 0.0599720
1314.0, 0.0600610
1315.0, 0.0601460
1316.0, 0.0602260
1317.0, 0.0603070
1318.0, 0.0603910
1319.0, 0.0604760
1320.0, 0.0605640
1321.0, 0.0606600
1322.0, 0.0607650
1323.0, 0.0608620
1324.0, 0.0609510
1325.0, 0.0610420
1326.0, 0.0611430
1327.0, 0.0612420
1328.0, 0.0613240
1329.0, 0.0614090
1330.0, 0.0615050
1331.0, 0.0616000
1332.0, 0.0616990
1333.0, 0.0617990
1334.0, 0.0618890
1335.0, 0.0619780
1336.0, 0.0620730
1337.0, 0.0621720
1338.0, 0.0622680
1339.0, 0.0623610
1340.0, 0.0624570
1341.0, 0.0625560
1342.0, 0.0626530
1343.0, 0.0627520
1344.0, 0.0628440
1345.0, 0.0629250
1346.0, 0.0630150
1347.0, 0.0631200
1348.0, 0.0632160
1349.0, 0.0633060
1350.0, 0.0633990
1351.0, 0.0634950
1352.0, 0.0635970
1353.0, 0.0637030
1354.0, 0.0638110
1355.0, 0.0639170
1356.0, 0.0640190
1357.0, 0.0641200
1358.0, 0.0642130
1359.0, 0.0643080
1360.0, 0.0644110
1361.0, 0.0645080
1362.0, 0.0645960
1363.0, 0.0646940
1364.0, 0.0648010
1365.0, 0.0649030
1366.0, 0.0649970
1367.0, 0.0650910
1368.0, 0.0651870
1369.0, 0.0652850
1370.0, 0.0653820
1371.0, 0.0654790
1372.0, 0.0655800
1373.0, 0.0656750
1374.0, 0.0657660
1375.0, 0.0658540
1376.0, 0.0659390
1377.0, 0.0660310
1378.0, 0.0661280
1379.0, 0.0662330
1380.0, 0.0663450
1381.0, 0.0664520
1382.0, 0.0665500
1383.0, 0.0666440
1384.0, 0.0667440
1385.0, 0.0668540
1386.0, 0.0669550
1387.0, 0.0670470
1388.0, 0.0671380
1389.0, 0.0672210
1390.0, 0.0673120
1391.0, 0.0674150
1392.0, 0.0675130
1393.0, 0.0676130
1394.0, 0.0677130
1395.0, 0.0678130
1396.0, 0.0679140
1397.0, 0.0680170
1398.0, 0.0681160
1399.0, 0.0682120
1400.0, 0.0683110
1401.0, 0.0684130
1402.0, 0.0685210
1403.0, 0.0686390
1404.0, 0.0687520
1405.0, 0.0688530
1406.0, 0.0689480
1407.0, 0.0690460
1408.0, 0.0691470
1409.0, 0.0692450
1410.0, 0.0693470
1411.0, 0.0694540
1412.0, 0.0695580
1413.0, 0.0696620
1414.0, 0.0697620
1415.0, 0.0698610
1416.0, 0.0699650
1417.0, 0.0700660
1418.0, 0.0701640
1419.0, 0.0702640
1420.0, 0.0703670
1421.0, 0.0704710
1422.0, 0.0705780
1423.0, 0.0706800
1424.0, 0.0707760
1425.0, 0.0708750
1426.0, 0.0709810
1427.0, 0.0710920
1428.0, 0.0712110
1429.0, 0.0713210
1430.0, 0.0714150
1431.0, 0.0715070
1432.0, 0.0716040
1433.0, 0.0717020
1434.0, 0.0718020
1435.0, 0.0719080
1436.0, 0.0720100
1437.0, 0.0721090
1438.0, 0.0722100
1439.0, 0.0723120
1440.0, 0.0724220
1441.0, 0.0725280
1442.0, 0.0726230
1443.0, 0.0727180
1444.0, 0.0728180
1445.0, 0.0729180
1446.0, 0.0730120
1447.0, 0.0731010
1448.0, 0.0731930
1449.0, 0.0732850
1450.0, 0.0733760
1451.0, 0.0734740
1452.0, 0.0735690
1453.0, 0.0736650
1454.0, 0.0737580
1455.0, 0.0738430
1456.0, 0.0739320
1457.0, 0.0740250
1458.0, 0.0741150
1459.0, 0.0742050
1460.0, 0.0742970
1461.0, 0.0743900
1462.0, 0.0744810
1463.0, 0.0745640
1464.0, 0.0746490
1465.0, 0.0747430
1466.0, 0.0748340
1467.0, 0.0749210
1468.0, 0.0750140
1469.0, 0.0751070
1470.0, 0.0751940
1471.0, 0.0752740
1472.0, 0.0753540
1473.0, 0.0754420
1474.0, 0.0755290
1475.0, 0.0756100
1476.0, 0.0756960
1477.0, 0.0757820
1478.0, 0.0758630
1479.0, 0.0759370
1480.0, 0.0760050
1481.0, 0.0760880
1482.0, 0.0761790
1483.0, 0.0762650
1484.0, 0.0763500
1485.0, 0.0764310
1486.0, 0.0765130
1487.0, 0.0765950
1488.0, 0.0766660
1489.0, 0.0767430
1490.0, 0.0768220
1491.0, 0.0768960
1492.0, 0.0769700
1493.0, 0.0770460
1494.0, 0.0771240
1495.0, 0.0772040
1496.0, 0.0772830
1497.0, 0.0773610
1498.0, 0.0774360
1499.0, 0.0775160
1500.0, 0.0776040
1501.0, 0.0776870
1502.0, 0.0777620
1503.0, 0.0778380
1504.0, 0.0779150
1505.0, 0.0779880
1506.0, 0.0780620
1507.0, 0.0781360
1508.0, 0.0782050
1509.0, 0.0782740
1510.0, 0.0783470
1511.0, 0.0784200
1512.0, 0.0784920
1513.0, 0.0785650
1514.0, 0.0786410
1515.0, 0.0787180
1516.0, 0.0787890
1517.0, 0.0788620
1518.0, 0.0789430
1519.0, 0.0790200
1520.0, 0.0790870
1521.0, 0.0791520
1522.0, 0.0792230
1523.0, 0.0792970
1524.0, 0.0793660
1525.0, 0.0794370
1526.0, 0.0795090
1527.0, 0.0795810
1528.0, 0.0796530
1529.0, 0.0797180
1530.0, 0.0797880
1531.0, 0.0798600
1532.0, 0.0799300
1533.0, 0.0800040
1534.0, 0.0800780
1535.0, 0.0801510
1536.0, 0.0802260
1537.0, 0.0802970
1538.0, 0.0803690
1539.0, 0.0804420
1540.0, 0.0805090
1541.0, 0.0805770
1542.0, 0.0806500
1543.0, 0.0807270
1544.0, 0.0807970
1545.0, 0.0808520
1546.0, 0.0809090
1547.0, 0.0809700
1548.0, 0.0810360
1549.0, 0.0811080
1550.0, 0.0811750
1551.0, 0.0812360
1552.0, 0.0813030
1553.0, 0.0813720
1554.0, 0.0814390
1555.0, 0.0815060
1556.0, 0.0815730
1557.0, 0.0816400
1558.0, 0.0817070
1559.0, 0.0817730
1560.0, 0.0818380
1561.0, 0.0818970
1562.0, 0.0819560
1563.0, 0.0820130
1564.0, 0.0820670
1565.0, 0.0821170
1566.0, 0.0821740
1567.0, 0.0822380
1568.0, 0.0823010
1569.0, 0.0823630
1570.0, 0.0824250
1571.0, 0.0824920
1572.0, 0.0825510
1573.0, 0.0825980
1574.0, 0.0826510
1575.0, 0.0827090
1576.0, 0.0827690
1577.0, 0.0828350
1578.0, 0.0828940
1579.0, 0.0829500
1580.0, 0.0830030
1581.0, 0.0830460
1582.0, 0.0830960
1583.0, 0.0831600
1584.0, 0.0832210
1585.0, 0.0832800
1586.0, 0.0833360
1587.0, 0.0833920
1588.0, 0.0834450
1589.0, 0.0834880
1590.0, 0.0835350
1591.0, 0.0835860
1592.0, 0.0836380
1593.0, 0.0836920
1594.0, 0.0837450
1595.0, 0.0837950
1596.0, 0.0838420
1597.0, 0.0838880
1598.0, 0.0839340
1599.0, 0.0839790
1600.0, 0.0840230
1601.0, 0.0840620
1602.0, 0.0841030
1603.0, 0.0841540
1604.0, 0.0842060
1605.0, 0.0842540
1606.0, 0.0843010
1607.0, 0.0843410
1608.0, 0.0843830
1609.0, 0.0844350
1610.0, 0.0844830
1611.0, 0.0845270
1612.0, 0.0845720
1613.0, 0.0846210
1614.0, 0.0846700
1615.0, 0.0847150
1616.0, 0.0847590
1617.0, 0.0848040
1618.0, 0.0848420
1619.0, 0.0848660
1620.0, 0.0848890
1621.0, 0.0849250
1622.0, 0.0849680
1623.0, 0.0850060
1624.0, 0.0850440
1625.0, 0.0850840
1626.0, 0.0851220
1627.0, 0.0851570
1628.0, 0.0851930
1629.0, 0.0852340
1630.0, 0.0852780
1631.0, 0.0853180
1632.0, 0.0853540
1633.0, 0.0853860
1634.0, 0.0854140
1635.0, 0.0854400
1636.0, 0.0854700
1637.0, 0.0855050
1638.0, 0.0855410
1639.0, 0.0855760
1640.0, 0.0856100
1641.0, 0.0856390
1642.0, 0.0856670
1643.0, 0.0857000
1644.0, 0.0857360
1645.0, 0.0857730
1646.0, 0.0858090
1647.0, 0.0858430
1648.0, 0.0858760
1649.0, 0.0859010
1650.0, 0.0859250
1651.0, 0.0859500
1652.0, 0.0859770
1653.0, 0.0860060
1654.0, 0.0860380
1655.0, 0.0860740
1656.0, 0.0861070
1657.0, 0.0861310
1658.0, 0.0861530
1659.0, 0.0861830
1660.0, 0.0862120
1661.0, 0.0862280
1662.0, 0.0862390
1663.0, 0.0862450
1664.0, 0.0862540
1665.0, 0.0862720
1666.0, 0.0862910
1667.0, 0.0863090
1668.0, 0.0863250
1669.0, 0.0863420
1670.0, 0.0863560
1671.0, 0.0863610
1672.0, 0.0863670
1673.0, 0.0863750
1674.0, 0.0863870
1675.0, 0.0864080
1676.0, 0.0864300
1677.0, 0.0864450
1678.0, 0.0864610
1679.0, 0.0864820
1680.0, 0.0864990
1681.0, 0.0865090
1682.0, 0.0865210
1683.0, 0.0865390
1684.0, 0.0865530
1685.0, 0.0865560
1686.0, 0.0865610
1687.0, 0.0865700
1688.0, 0.0865770
1689.0, 0.0865780
1690.0, 0.0865850
1691.0, 0.0866020
1692.0, 0.0866190
1693.0, 0.0866340
1694.0, 0.0866500
1695.0, 0.0866720
1696.0, 0.0866810
1697.0, 0.0866680
1698.0, 0.0866590
1699.0, 0.0866500
1700.0, 0.0866440
1701.0, 0.0866420
1702.0, 0.0866370
1703.0, 0.0866250
1704.0, 0.0866220
1705.0, 0.0866300
1706.0, 0.0866330
1707.0, 0.0866330
1708.0, 0.0866330
1709.0, 0.0866300
1710.0, 0.0866290
1711.0, 0.0866280
1712.0, 0.0866240
1713.0, 0.0866180
1714.0, 0.0866090
1715.0, 0.0865940
1716.0, 0.0865840
1717.0, 0.0865780
1718.0, 0.0865730
1719.0, 0.0865700
1720.0, 0.0865570
1721.0, 0.0865360
1722.0, 0.0865180
1723.0, 0.0865000
1724.0, 0.0864870
1725.0, 0.0864760
1726.0, 0.0864580
1727.0, 0.0864330
1728.0, 0.0864100
1729.0, 0.0863860
1730.0, 0.0863440
1731.0, 0.0862930
1732.0, 0.0862580
1733.0, 0.0862320
1734.0, 0.0862030
1735.0, 0.0861700
1736.0, 0.0861330
1737.0, 0.0860960
1738.0, 0.0860600
1739.0, 0.0860250
1740.0, 0.0859890
1741.0, 0.0859560
1742.0, 0.0859430
1743.0, 0.0859320
1744.0, 0.0859100
1745.0, 0.0858860
1746.0, 0.0858640
1747.0, 0.0858360
1748.0, 0.0857940
1749.0, 0.0857510
1750.0, 0.0857140
1751.0, 0.0856760
1752.0, 0.0856360
1753.0, 0.0855980
1754.0, 0.0855580
1755.0, 0.0855160
1756.0, 0.0854720
1757.0, 0.0854340
1758.0, 0.0854080
1759.0, 0.0853820
1760.0, 0.0853640
1761.0, 0.0853330
1762.0, 0.0852850
1763.0, 0.0852390
1764.0, 0.0851900
1765.0, 0.0851470
1766.0, 0.0851110
1767.0, 0.0850680
1768.0, 0.0850200
1769.0, 0.0849790
1770.0, 0.0849400
1771.0, 0.0848950
1772.0, 0.0848470
1773.0, 0.0848010
1774.0, 0.0847540
1775.0, 0.0847150
1776.0, 0.0846830
1777.0, 0.0846460
1778.0, 0.0846040
1779.0, 0.0845630
1780.0, 0.0845180
1781.0, 0.0844710
1782.0, 0.0844180
1783.0, 0.0843480
1784.0, 0.0842720
1785.0, 0.0841960
1786.0, 0.0841290
1787.0, 0.0840830
1788.0, 0.0840400
1789.0, 0.0839940
1790.0, 0.0839460
1791.0, 0.0839000
1792.0, 0.0838480
1793.0, 0.0837790
1794.0, 0.0837180
1795.0, 0.0836690
1796.0, 0.0836170
1797.0, 0.0835700
1798.0, 0.0835170
1799.0, 0.0834440
1800.0, 0.0833960
1801.0, 0.0833180
1802.0, 0.0832670
1803.0, 0.0832060
1804.0, 0.0831480
1805.0, 0.0830890
1806.0, 0.0830270
1807.0, 0.0829720
1808.0, 0.0829260
1809.0, 0.0828670
1810.0, 0.0828080
1811.0, 0.0827600
1812.0, 0.0826750
1813.0, 0.0825920
1814.0, 0.0825280
1815.0, 0.0824640
1816.0, 0.0823910
1817.0, 0.0823260
1818.0, 0.0822650
1819.0, 0.0821860
1820.0, 0.0821190
1821.0, 0.0820690
1822.0, 0.0820160
1823.0, 0.0819490
1824.0, 0.0818650
1825.0, 0.0817760
1826.0, 0.0816960
1827.0, 0.0816160
1828.0, 0.0815360
1829.0, 0.0814630
1830.0, 0.0813880
1831.0, 0.0813340
1832.0, 0.0812870
1833.0, 0.0812230
1834.0, 0.0811410
1835.0, 0.0810690
1836.0, 0.0810040
1837.0, 0.0809390
1838.0, 0.0808850
1839.0, 0.0808310
1840.0, 0.0807540
1841.0, 0.0806620
1842.0, 0.0805720
1843.0, 0.0804950
1844.0, 0.0804290
1845.0, 0.0803590
1846.0, 0.0802770
1847.0, 0.0802050
1848.0, 0.0801420
1849.0, 0.0800820
1850.0, 0.0800130
1851.0, 0.0799230
1852.0, 0.0798290
1853.0, 0.0797710
1854.0, 0.0797190
1855.0, 0.0796430
1856.0, 0.0795640
1857.0, 0.0794980
1858.0, 0.0794290
1859.0, 0.0793490
1860.0, 0.0792570
1861.0, 0.0791710
1862.0, 0.0791150
1863.0, 0.0790620
1864.0, 0.0789930
1865.0, 0.0789150
1866.0, 0.0788330
1867.0, 0.0787510
1868.0, 0.0786730
1869.0, 0.0786070
1870.0, 0.0785430
1871.0, 0.0784820
1872.0, 0.0784180
1873.0, 0.0783450
1874.0, 0.0782660
1875.0, 0.0781820
1876.0, 0.0781160
1877.0, 0.0780520
1878.0, 0.0779900
1879.0, 0.0779270
1880.0, 0.0778570
1881.0, 0.0777780
1882.0, 0.0776950
1883.0, 0.0776190
1884.0, 0.0775400
1885.0, 0.0774580
1886.0, 0.0773810
1887.0, 0.0772960
1888.0, 0.0772100
1889.0, 0.0771250
1890.0, 0.0770420
1891.0, 0.0769640
1892.0, 0.0768930
1893.0, 0.0768250
1894.0, 0.0767620
1895.0, 0.0766980
1896.0, 0.0766220
1897.0, 0.0765470
1898.0, 0.0764700
1899.0, 0.0763920
1900.0, 0.0763020
1901.0, 0.0762110
1902.0, 0.0761240
1903.0, 0.0760480
1904.0, 0.0759740
1905.0, 0.0759010
1906.0, 0.0758290
1907.0, 0.0757570
1908.0, 0.0756830
1909.0, 0.0755920
1910.0, 0.0755000
1911.0, 0.0754170
1912.0, 0.0753470
1913.0, 0.0752780
1914.0, 0.0752090
1915.0, 0.0751420
1916.0, 0.0750750
1917.0, 0.0750070
1918.0, 0.0749390
1919.0, 0.0748730
1920.0, 0.0747940
1921.0, 0.0747090
1922.0, 0.0746320
1923.0, 0.0745640
1924.0, 0.0744960
1925.0, 0.0744220
1926.0, 0.0743470
1927.0, 0.0742900
1928.0, 0.0742360
1929.0, 0.0741720
1930.0, 0.0741070
1931.0, 0.0740380
1932.0, 0.0739610
1933.0, 0.0738890
1934.0, 0.0738260
1935.0, 0.0737610
1936.0, 0.0736900
1937.0, 0.0736180
1938.0, 0.0735630
1939.0, 0.0735120
1940.0, 0.0734620
1941.0, 0.0734090
1942.0, 0.0733510
1943.0, 0.0732870
1944.0, 0.0732230
1945.0, 0.0731610
1946.0, 0.0730970
1947.0, 0.0730150
1948.0, 0.0729340
1949.0, 0.0728680
1950.0, 0.0728050
1951.0, 0.0727570
1952.0, 0.0727160
1953.0, 0.0726720
1954.0, 0.0726250
1955.0, 0.0725700
1956.0, 0.0724950
1957.0, 0.0724190
1958.0, 0.0723400
1959.0, 0.0722620
1960.0, 0.0721980
1961.0, 0.0721370
1962.0, 0.0720720
1963.0, 0.0720030
1964.0, 0.0719350
1965.0, 0.0718680
1966.0, 0.0718030
1967.0, 0.0717420
1968.0, 0.0716800
1969.0, 0.0716330
1970.0, 0.0715870
1971.0, 0.0715280
1972.0, 0.0714640
1973.0, 0.0714200
1974.0, 0.0713920
1975.0, 0.0713560
1976.0, 0.0713070
1977.0, 0.0712580
1978.0, 0.0712190
1979.0, 0.0711800
1980.0, 0.0711420
1981.0, 0.0711020
1982.0, 0.0710510
1983.0, 0.0709950
1984.0, 0.0709470
1985.0, 0.0709040
1986.0, 0.0708540
1987.0, 0.0708030
1988.0, 0.0707580
1989.0, 0.0707400
1990.0, 0.0707230
1991.0, 0.0706990
1992.0, 0.0706710
1993.0, 0.0706210
1994.0, 0.0705670
1995.0, 0.0705270
1996.0, 0.0704980
1997.0, 0.0704720
1998.0, 0.0704530
1999.0, 0.0704340
2000.0, 0.0704000
2001.0, 0.0703680
2002.0, 0.0703320
2003.0, 0.0702990
2004.0, 0.0702790
2005.0, 0.0702640
2006.0, 0.0702540
2007.0, 0.0702460
2008.0, 0.0702300
2009.0, 0.0702060
2010.0, 0.0701900
2011.0, 0.0701790
2012.0, 0.0701650
2013.0, 0.0701320
2014.0, 0.0701000
2015.0, 0.0700960
2016.0, 0.0700970
2017.0, 0.0700850
2018.0, 0.0700630
2019.0, 0.0700520
2020.0, 0.0700540
2021.0, 0.0700520
2022.0, 0.0700370
2023.0, 0.0700260
2024.0, 0.0700150
2025.0, 0.0700010
2026.0, 0.0699870
2027.0, 0.0699730
2028.0, 0.0699600
2029.0, 0.0699460
2030.0, 0.0699310
2031.0, 0.0699190
2032.0, 0.0699120
2033.0, 0.0699030
2034.0, 0.0698950
2035.0, 0.0698700
2036.0, 0.0698480
2037.0, 0.0698280
2038.0, 0.0698090
2039.0, 0.0698180
2040.0, 0.0698360
2041.0, 0.0698560
2042.0, 0.0698730
2043.0, 0.0698860
2044.0, 0.0698950
2045.0, 0.0699050
2046.0, 0.0699100
2047.0, 0.0699120
2048.0, 0.0699040
2049.0, 0.0698940
2050.0, 0.0698770
2051.0, 0.0698600
2052.0, 0.0698590
2053.0, 0.0698630
2054.0, 0.0698610
2055.0, 0.0698540
2056.0, 0.0698460
2057.0, 0.0698430
2058.0, 0.0698420
2059.0, 0.0698320
2060.0, 0.0698230
2061.0, 0.0698090
2062.0, 0.0697960
2063.0, 0.0698220
2064.0, 0.0698530
2065.0, 0.0698750
2066.0, 0.0698970
2067.0, 0.0699030
2068.0, 0.0698920
2069.0, 0.0698940
2070.0, 0.0699080
2071.0, 0.0699180
2072.0, 0.0699190
2073.0, 0.0699250
2074.0, 0.0699450
2075.0, 0.0699640
2076.0, 0.0699630
2077.0, 0.0699630
2078.0, 0.0699930
2079.0, 0.0700280
2080.0, 0.0700450
2081.0, 0.0700470
2082.0, 0.0700400
2083.0, 0.0700380
2084.0, 0.0700400
2085.0, 0.0700430
2086.0, 0.0700520
2087.0, 0.0700870
2088.0, 0.0701200
2089.0, 0.0701200
2090.0, 0.0701140
2091.0, 0.0701250
2092.0, 0.0701440
2093.0, 0.0701750
2094.0, 0.0702140
2095.0, 0.0702470
2096.0, 0.0702680
2097.0, 0.0702830
2098.0, 0.0702850
2099.0, 0.0702890
2100.0, 0.0703280
2101.0, 0.0703690
2102.0, 0.0703990
2103.0, 0.0704240
2104.0, 0.0704550
2105.0, 0.0704820
2106.0, 0.0705150
2107.0, 0.0705510
2108.0, 0.0705840
2109.0, 0.0706220
2110.0, 0.0706560
2111.0, 0.0706900
2112.0, 0.0707310
2113.0, 0.0707430
2114.0, 0.0707520
2115.0, 0.0707900
2116.0, 0.0708290
2117.0, 0.0708770
2118.0, 0.0709270
2119.0, 0.0709660
2120.0, 0.0709980
2121.0, 0.0710360
2122.0, 0.0710740
2123.0, 0.0711100
2124.0, 0.0711460
2125.0, 0.0711760
2126.0, 0.0711980
2127.0, 0.0712270
2128.0, 0.0712630
2129.0, 0.0713020
2130.0, 0.0713290
2131.0, 0.0713500
2132.0, 0.0713900
2133.0, 0.0714440
2134.0, 0.0714960
2135.0, 0.0715530
2136.0, 0.0715960
2137.0, 0.0716240
2138.0, 0.0716550
2139.0, 0.0716800
2140.0, 0.0717010
2141.0, 0.0717220
2142.0, 0.0717460
2143.0, 0.0718020
2144.0, 0.0718580
2145.0, 0.0718900
2146.0, 0.0719210
2147.0, 0.0719590
2148.0, 0.0719960
2149.0, 0.0720220
2150.0, 0.0720500
2151.0, 0.0720650
2152.0, 0.0720710
2153.0, 0.0720890
2154.0, 0.0721230
2155.0, 0.0721560
2156.0, 0.0721840
2157.0, 0.0722100
2158.0, 0.0722360
2159.0, 0.0722580
2160.0, 0.0722820
2161.0, 0.0723120
2162.0, 0.0723470
2163.0, 0.0723790
2164.0, 0.0724100
2165.0, 0.0724340
2166.0, 0.0724590
2167.0, 0.0724890
2168.0, 0.0725330
2169.0, 0.0726000
2170.0, 0.0726590
2171.0, 0.0726890
2172.0, 0.0727170
2173.0, 0.0727400
2174.0, 0.0727540
2175.0, 0.0727760
2176.0, 0.0728000
2177.0, 0.0728570
2178.0, 0.0729200
2179.0, 0.0729740
2180.0, 0.0730200
2181.0, 0.0730380
2182.0, 0.0730420
2183.0, 0.0730580
2184.0, 0.0730890
2185.0, 0.0731080
2186.0, 0.0731190
2187.0, 0.0731480
2188.0, 0.0731910
2189.0, 0.0732350
2190.0, 0.0732690
2191.0, 0.0733010
2192.0, 0.0733670
2193.0, 0.0734300
2194.0, 0.0734650
2195.0, 0.0735000
2196.0, 0.0735510
2197.0, 0.0736000
2198.0, 0.0736250
2199.0, 0.0736470
2200.0, 0.0736920
2201.0, 0.0737420
2202.0, 0.0737780
2203.0, 0.0738140
2204.0, 0.0738510
2205.0, 0.0738800
2206.0, 0.0739130
2207.0, 0.0739520
2208.0, 0.0739970
2209.0, 0.0740510
2210.0, 0.0741000
2211.0, 0.0741500
2212.0, 0.0741950
2213.0, 0.0742190
2214.0, 0.0742420
2215.0, 0.0742790
2216.0, 0.0743130
2217.0, 0.0743380
2218.0, 0.0743660
2219.0, 0.0743860
2220.0, 0.0744060
2221.0, 0.0744270
2222.0, 0.0744460
2223.0, 0.0744700
2224.0, 0.0744970
2225.0, 0.0745290
2226.0, 0.0745770
2227.0, 0.0746270
2228.0, 0.0746990
2229.0, 0.0747690
2230.0, 0.0747860
2231.0, 0.0748080
2232.0, 0.0748370
2233.0, 0.0748650
2234.0, 0.0748980
2235.0, 0.0749330
2236.0, 0.0749800
2237.0, 0.0750360
2238.0, 0.0750610
2239.0, 0.0750770
2240.0, 0.0751210
2241.0, 0.0751690
2242.0, 0.0752020
2243.0, 0.0752330
2244.0, 0.0752670
2245.0, 0.0753190
2246.0, 0.0753680
2247.0, 0.0754000
2248.0, 0.0754330
2249.0, 0.0754620
2250.0, 0.0754890
2251.0, 0.0755310
2252.0, 0.0755750
2253.0, 0.0756160
2254.0, 0.0756560
2255.0, 0.0756900
2256.0, 0.0757220
2257.0, 0.0757320
2258.0, 0.0757350
2259.0, 0.0757870
2260.0, 0.0758530
2261.0, 0.0759050
2262.0, 0.0759530
2263.0, 0.0760020
2264.0, 0.0760500
2265.0, 0.0760790
2266.0, 0.0760910
2267.0, 0.0761060
2268.0, 0.0761270
2269.0, 0.0761540
2270.0, 0.0762080
2271.0, 0.0762560
2272.0, 0.0762800
2273.0, 0.0763110
2274.0, 0.0763570
2275.0, 0.0764000
2276.0, 0.0764150
2277.0, 0.0764280
2278.0, 0.0764660
2279.0, 0.0765050
2280.0, 0.0765160
2281.0, 0.0765240
2282.0, 0.0765550
2283.0, 0.0765870
2284.0, 0.0766600
2285.0, 0.0767460
2286.0, 0.0767900
2287.0, 0.0768220
2288.0, 0.0768270
2289.0, 0.0768160
2290.0, 0.0768420
2291.0, 0.0768970
2292.0, 0.0769210
2293.0, 0.0769130
2294.0, 0.0769170
2295.0, 0.0769430
2296.0, 0.0769690
2297.0, 0.0769990
2298.0, 0.0770360
2299.0, 0.0770770
2300.0, 0.0771120
2301.0, 0.0771230
2302.0, 0.0771330
2303.0, 0.0771600
2304.0, 0.0771920
2305.0, 0.0772110
2306.0, 0.0772280
2307.0, 0.0772370
2308.0, 0.0772440
2309.0, 0.0773020
2310.0, 0.0773700
2311.0, 0.0774240
2312.0, 0.0774770
2313.0, 0.0775020
2314.0, 0.0775130
2315.0, 0.0775390
2316.0, 0.0775720
2317.0, 0.0775800
2318.0, 0.0775700
2319.0, 0.0775920
2320.0, 0.0776440
2321.0, 0.0776940
2322.0, 0.0777370
2323.0, 0.0777620
2324.0, 0.0777580
2325.0, 0.0777660
2326.0, 0.0777980
2327.0, 0.0778260
2328.0, 0.0778480
2329.0, 0.0778750
2330.0, 0.0779070
2331.0, 0.0779370
2332.0, 0.0779560
2333.0, 0.0779830
2334.0, 0.0780670
2335.0, 0.0781490
2336.0, 0.0781710
2337.0, 0.0781930
2338.0, 0.0782490
2339.0, 0.0783020
2340.0, 0.0783430
2341.0, 0.0783870
2342.0, 0.0783450
2343.0, 0.0782950
2344.0, 0.0783240
2345.0, 0.0783710
2346.0, 0.0783990
2347.0, 0.0784240
2348.0, 0.0784790
2349.0, 0.0785440
2350.0, 0.0785610
2351.0, 0.0785500
2352.0, 0.0785490
2353.0, 0.0785600
2354.0, 0.0785780
2355.0, 0.0785990
2356.0, 0.0786270
2357.0, 0.0786520
2358.0, 0.0786770
2359.0, 0.0787130
2360.0, 0.0787670
2361.0, 0.0788430
2362.0, 0.0789070
2363.0, 0.0789440
2364.0, 0.0789660
2365.0, 0.0789600
2366.0, 0.0789540
2367.0, 0.0789500
2368.0, 0.0789550
2369.0, 0.0789800
2370.0, 0.0789960
2371.0, 0.0789750
2372.0, 0.0789620
2373.0, 0.0789740
2374.0, 0.0789840
2375.0, 0.0789750
2376.0, 0.0789690
2377.0, 0.0790110
2378.0, 0.0790490
2379.0, 0.0790350
2380.0, 0.0790250
2381.0, 0.0790310
2382.0, 0.0790360
2383.0, 0.0790250
2384.0, 0.0790120
2385.0, 0.0790090
2386.0, 0.0790160
2387.0, 0.0790300
2388.0, 0.0790410
2389.0, 0.0790680
2390.0, 0.0790960
2391.0, 0.0790900
2392.0, 0.0790720
2393.0, 0.0790610
2394.0, 0.0790560
2395.0, 0.0790690
2396.0, 0.0790880
2397.0, 0.0790910
2398.0, 0.0790870
2399.0, 0.0790960
2400.0, 0.0791150
2401.0, 0.0791350
2402.0, 0.0791520
2403.0, 0.0791880
2404.0, 0.0792320
2405.0, 0.0792600
2406.0, 0.0792730
2407.0, 0.0792820
2408.0, 0.0792990
2409.0, 0.0793210
2410.0, 0.0793520
2411.0, 0.0794000
2412.0, 0.0794560
2413.0, 0.0794970
2414.0, 0.0795220
2415.0, 0.0795490
2416.0, 0.0795740
2417.0, 0.0795990
2418.0, 0.0796320
2419.0, 0.0796670
2420.0, 0.0796970
2421.0, 0.0797030
2422.0, 0.0796540
2423.0, 0.0796360
2424.0, 0.0797030
2425.0, 0.0797780
2426.0, 0.0798730
2427.0, 0.0799490
2428.0, 0.0799600
2429.0, 0.0799960
2430.0, 0.0800470
2431.0, 0.0800720
2432.0, 0.0800970
2433.0, 0.0801230
2434.0, 0.0801670
2435.0, 0.0801950
2436.0, 0.0801440
2437.0, 0.0800950
2438.0, 0.0800510
2439.0, 0.0800190
2440.0, 0.0800440
2441.0, 0.0800580
2442.0, 0.0800250
2443.0, 0.0800260
2444.0, 0.0801050
2445.0, 0.0801700
2446.0, 0.0802090
2447.0, 0.0802330
2448.0, 0.0801630
2449.0, 0.0800710
2450.0, 0.0800530
2451.0, 0.0801190
2452.0, 0.0803530
2453.0, 0.0805230
2454.0, 0.0804440
2455.0, 0.0803970
2456.0, 0.0804320
2457.0, 0.0804430
2458.0, 0.0804190
2459.0, 0.0803870
2460.0, 0.0804770
2461.0, 0.0806160
2462.0, 0.0807690
2463.0, 0.0808250
2464.0, 0.0803570
2465.0, 0.0799390
2466.0, 0.0800500
2467.0, 0.0801690
2468.0, 0.0801760
2469.0, 0.0802330
2470.0, 0.0804370
2471.0, 0.0806310
2472.0, 0.0808230
2473.0, 0.0809270
2474.0, 0.0806690
2475.0, 0.0805480
2476.0, 0.0806550
2477.0, 0.0806780
2478.0, 0.0806560
2479.0, 0.0805800
2480.0, 0.0802330
2481.0, 0.0797860
2482.0, 0.0795150
2483.0, 0.0796020
2484.0, 0.0805720
2485.0, 0.0815400
2486.0, 0.0819720
2487.0, 0.0822180
2488.0, 0.0820660
2489.0, 0.0816940
2490.0, 0.0813970
2491.0, 0.0813900
2492.0, 0.0813790
2493.0, 0.0814990
2494.0, 0.0814710
2495.0, 0.0810970
2496.0, 0.0812160
2497.0, 0.0815810
2498.0, 0.0822640
2499.0, 0.0828190
2500.0, 0.0829030
