Database of Origin, USGS Spectral Database
Sample Description, See USGS database for additional info
Date Added,2016-08-10 05:24:07.928855

Data ID,USGS_phl02          
Sample ID, phlogopite_gds20.17628
Mineral Name, phlogopite
Material Class,Phyllosilicate

Wavelength
1354.98, 0.576146
1355.33, 0.576526
1355.69, 0.576478
1356.04, 0.577333
1356.4, 0.578092
1356.75, 0.578710
1357.11, 0.579137
1357.46, 0.579564
1357.82, 0.579802
1358.18, 0.579707
1358.53, 0.580039
1358.89, 0.580039
1359.24, 0.579849
1359.6, 0.580229
1359.96, 0.581179
1360.31, 0.581321
1360.67, 0.581321
1361.03, 0.581796
1361.39, 0.582081
1361.74, 0.582318
1362.1, 0.581844
1362.46, 0.582176
1362.82, 0.583126
1363.18, 0.583838
1363.53, 0.584123
1363.89, 0.584408
1364.25, 0.583553
1364.61, 0.583363
1364.97, 0.584313
1365.33, 0.584597
1365.69, 0.584882
1366.05, 0.585405
1366.41, 0.585927
1366.77, 0.585500
1367.13, 0.585405
1367.49, 0.585452
1367.85, 0.585500
1368.21, 0.585215
1368.57, 0.585357
1368.93, 0.585832
1369.3, 0.586069
1369.66, 0.584740
1370.02, 0.584170
1370.38, 0.583553
1370.74, 0.582223
1371.11, 0.581179
1371.47, 0.580277
1371.83, 0.578947
1372.19, 0.577380
1372.56, 0.575861
1372.92, 0.574246
1373.29, 0.572537
1373.65, 0.570543
1374.01, 0.568596
1374.38, 0.566649
1374.74, 0.565035
1375.11, 0.563278
1375.47, 0.562138
1375.84, 0.560809
1376.2, 0.559859
1376.57, 0.558435
1376.93, 0.558008
1377.3, 0.558245
1377.67, 0.558815
1378.03, 0.559100
1378.4, 0.559575
1378.76, 0.560809
1379.13, 0.561379
1379.5, 0.561854
1379.87, 0.562803
1380.23, 0.563231
1380.6, 0.564275
1380.97, 0.566127
1381.34, 0.567884
1381.7, 0.569498
1382.07, 0.570400
1382.44, 0.571113
1382.81, 0.572632
1383.18, 0.574484
1383.55, 0.575956
1383.92, 0.577048
1384.29, 0.578567
1384.66, 0.579042
1385.03, 0.579754
1385.4, 0.581179
1385.77, 0.582318
1386.14, 0.583363
1386.51, 0.583933
1386.88, 0.584408
1387.25, 0.584550
1387.62, 0.584645
1387.99, 0.584882
1388.36, 0.585500
1388.74, 0.585595
1389.11, 0.586212
1389.48, 0.586354
1389.85, 0.586164
1390.23, 0.586069
1390.6, 0.586782
1390.97, 0.586782
1391.35, 0.586592
1391.72, 0.586212
1392.09, 0.585452
1392.47, 0.585025
1392.84, 0.585405
1393.21, 0.585547
1393.59, 0.586069
1393.96, 0.586307
1394.34, 0.585879
1394.71, 0.585452
1395.09, 0.585357
1395.46, 0.585832
1395.84, 0.585690
1396.22, 0.585547
1396.59, 0.586307
1396.97, 0.586687
1397.35, 0.587066
1397.72, 0.587399
1398.1, 0.587684
1398.48, 0.587684
1398.85, 0.587541
1399.23, 0.587256
1399.61, 0.587874
1399.99, 0.588016
1400.37, 0.587921
1400.74, 0.587684
1401.12, 0.588111
1401.5, 0.588633
1401.88, 0.589061
1402.26, 0.589393
1402.64, 0.589393
1403.02, 0.589583
1403.4, 0.590010
1403.78, 0.589963
1404.16, 0.589915
1404.54, 0.589346
1404.92, 0.589583
1405.3, 0.590200
1405.68, 0.590343
1406.06, 0.590390
1406.44, 0.590438
1406.83, 0.590153
1407.21, 0.589963
1407.59, 0.590200
1407.97, 0.590628
1408.35, 0.590865
1408.74, 0.590580
1409.12, 0.590058
1409.5, 0.590058
1409.89, 0.590675
1410.27, 0.591197
1410.65, 0.590913
1411.04, 0.590295
1411.42, 0.590105
1411.81, 0.590723
1412.19, 0.591008
1412.58, 0.590818
1412.96, 0.590438
1413.35, 0.590628
1413.73, 0.590438
1414.12, 0.589868
1414.5, 0.589868
1414.89, 0.589773
1415.28, 0.589821
1415.66, 0.590010
1416.05, 0.590105
1416.44, 0.590010
1416.82, 0.589536
1417.21, 0.589393
1417.6, 0.589583
1417.98, 0.589725
1418.37, 0.589536
1418.76, 0.588966
1419.15, 0.588728
1419.54, 0.589108
1419.93, 0.589203
1420.32, 0.589441
1420.71, 0.589251
1421.09, 0.589298
1421.48, 0.588966
1421.88, 0.588918
1422.27, 0.588966
1422.66, 0.588966
1423.05, 0.588966
1423.44, 0.588301
1423.83, 0.588396
1424.22, 0.588396
1424.61, 0.588633
1425.0, 0.588633
1425.39, 0.588871
1425.78, 0.588918
1426.18, 0.588918
1426.57, 0.588776
1426.96, 0.588491
1427.36, 0.588301
1427.75, 0.588159
1428.14, 0.588064
1428.54, 0.587779
1428.93, 0.587826
1429.32, 0.587874
1429.72, 0.587969
1430.11, 0.588016
1430.51, 0.588064
1430.9, 0.587731
1431.3, 0.587826
1431.69, 0.587541
1432.09, 0.587541
1432.48, 0.587494
1432.88, 0.587779
1433.28, 0.587731
1433.67, 0.587446
1434.07, 0.587256
1434.46, 0.586924
1434.86, 0.587256
1435.26, 0.587684
1435.66, 0.587731
1436.05, 0.587541
1436.45, 0.587446
1436.85, 0.587256
1437.25, 0.587256
1437.65, 0.587209
1438.05, 0.587019
1438.44, 0.586734
1438.84, 0.586544
1439.24, 0.586687
1439.64, 0.586924
1440.04, 0.587161
1440.44, 0.586972
1440.84, 0.586924
1441.24, 0.586544
1441.65, 0.586592
1442.05, 0.586639
1442.45, 0.586544
1442.85, 0.586307
1443.25, 0.586212
1443.65, 0.586069
1444.05, 0.586022
1444.46, 0.586259
1444.86, 0.586402
1445.26, 0.586212
1445.67, 0.585927
1446.07, 0.585927
1446.47, 0.585832
1446.88, 0.585784
1447.28, 0.585927
1447.68, 0.585595
1448.09, 0.585357
1448.49, 0.585405
1448.9, 0.585500
1449.3, 0.585452
1449.71, 0.585262
1450.11, 0.585215
1450.52, 0.585072
1450.93, 0.584930
1451.33, 0.584977
1451.74, 0.584930
1452.14, 0.584835
1452.55, 0.584787
1452.96, 0.584692
1453.36, 0.584455
1453.77, 0.584265
1454.18, 0.584313
1454.59, 0.584455
1455.0, 0.584455
1455.41, 0.584408
1455.81, 0.584455
1456.22, 0.584265
1456.63, 0.584075
1457.04, 0.583885
1457.45, 0.583838
1457.86, 0.583933
1458.27, 0.583743
1458.68, 0.583553
1459.09, 0.583363
1459.5, 0.583553
1459.91, 0.583695
1460.32, 0.583553
1460.74, 0.583315
1461.15, 0.583458
1461.56, 0.583078
1461.97, 0.582603
1462.39, 0.582698
1462.8, 0.582888
1463.21, 0.582793
1463.62, 0.582651
1464.04, 0.582698
1464.45, 0.582746
1464.86, 0.582318
1465.28, 0.582128
1465.69, 0.582223
1466.11, 0.582128
1466.52, 0.582318
1466.94, 0.582318
1467.35, 0.582033
1467.77, 0.581844
1468.18, 0.581796
1468.6, 0.581701
1469.02, 0.581796
1469.43, 0.581844
1469.85, 0.581986
1470.27, 0.581844
1470.68, 0.581606
1471.1, 0.581369
1471.52, 0.581274
1471.94, 0.581321
1472.35, 0.581274
1472.77, 0.581226
1473.19, 0.581321
1473.61, 0.581369
1474.03, 0.581179
1474.45, 0.581131
1474.87, 0.581274
1475.29, 0.581416
1475.71, 0.581131
1476.13, 0.581226
1476.55, 0.581321
1476.97, 0.581321
1477.39, 0.581226
1477.81, 0.581416
1478.23, 0.581321
1478.65, 0.581274
1479.07, 0.581036
1479.5, 0.581179
1479.92, 0.581321
1480.34, 0.581274
1480.76, 0.581084
1481.19, 0.581274
1481.61, 0.581274
1482.03, 0.581226
1482.46, 0.581321
1482.88, 0.581416
1483.31, 0.580941
1483.73, 0.580989
1484.16, 0.581131
1484.58, 0.581464
1485.01, 0.581464
1485.43, 0.581274
1485.86, 0.581179
1486.28, 0.581084
1486.71, 0.581369
1487.14, 0.581559
1487.56, 0.581511
1487.99, 0.581559
1488.42, 0.581701
1488.84, 0.581749
1489.27, 0.581606
1489.7, 0.581511
1490.13, 0.581416
1490.56, 0.581606
1490.98, 0.581749
1491.41, 0.581986
1491.84, 0.581891
1492.27, 0.581606
1492.7, 0.581654
1493.13, 0.581986
1493.56, 0.581939
1493.99, 0.582081
1494.42, 0.582128
1494.85, 0.582176
1495.29, 0.582176
1495.72, 0.582033
1496.15, 0.581986
1496.58, 0.581939
1497.01, 0.582128
1497.44, 0.582366
1497.88, 0.582413
1498.31, 0.582746
1498.74, 0.582603
1499.18, 0.582508
1499.61, 0.582318
1500.04, 0.582366
1500.48, 0.582556
1500.91, 0.582651
1501.35, 0.582556
1501.78, 0.582651
1502.22, 0.582508
1502.65, 0.582603
1503.09, 0.582603
1503.53, 0.582746
1503.96, 0.582936
1504.4, 0.583126
1504.83, 0.582936
1505.27, 0.582746
1505.71, 0.582698
1506.15, 0.582746
1506.58, 0.582746
1507.02, 0.582603
1507.46, 0.582793
1507.9, 0.582983
1508.34, 0.583078
1508.78, 0.583220
1509.21, 0.583078
1509.66, 0.583078
1510.09, 0.582983
1510.53, 0.583268
1510.97, 0.583220
1511.42, 0.583173
1511.86, 0.583315
1512.3, 0.583315
1512.74, 0.583126
1513.18, 0.583315
1513.62, 0.583315
1514.06, 0.583268
1514.51, 0.583410
1514.95, 0.583600
1515.39, 0.583505
1515.83, 0.583220
1516.28, 0.582983
1516.72, 0.583315
1517.16, 0.583458
1517.61, 0.583743
1518.05, 0.583695
1518.5, 0.583505
1518.94, 0.583505
1519.39, 0.583458
1519.83, 0.583600
1520.28, 0.583600
1520.73, 0.583600
1521.17, 0.583648
1521.62, 0.583600
1522.07, 0.583410
1522.51, 0.583410
1522.96, 0.583695
1523.41, 0.584028
1523.85, 0.583980
1524.3, 0.583933
1524.75, 0.583790
1525.2, 0.583885
1525.65, 0.583838
1526.1, 0.583885
1526.55, 0.583885
1527.0, 0.583743
1527.45, 0.583790
1527.9, 0.583933
1528.35, 0.584170
1528.8, 0.583933
1529.25, 0.583980
1529.7, 0.583980
1530.15, 0.584170
1530.6, 0.584360
1531.05, 0.584645
1531.51, 0.584692
1531.96, 0.584597
1532.41, 0.584645
1532.87, 0.584787
1533.32, 0.584645
1533.77, 0.584787
1534.23, 0.584930
1534.68, 0.584930
1535.14, 0.584787
1535.59, 0.584597
1536.05, 0.584835
1536.5, 0.585310
1536.96, 0.585310
1537.41, 0.585167
1537.87, 0.585262
1538.32, 0.585357
1538.78, 0.585357
1539.24, 0.585642
1539.7, 0.585690
1540.15, 0.585784
1540.61, 0.586117
1541.07, 0.586212
1541.53, 0.586212
1541.98, 0.586307
1542.44, 0.586259
1542.9, 0.586354
1543.36, 0.586449
1543.82, 0.586402
1544.28, 0.586497
1544.74, 0.586687
1545.2, 0.586402
1545.66, 0.586734
1546.12, 0.587066
1546.59, 0.587114
1547.05, 0.587066
1547.51, 0.587209
1547.97, 0.587541
1548.43, 0.587636
1548.9, 0.587446
1549.36, 0.587541
1549.82, 0.587874
1550.29, 0.587921
1550.75, 0.587874
1551.21, 0.587921
1551.68, 0.588159
1552.14, 0.588301
1552.61, 0.588538
1553.07, 0.588586
1553.54, 0.588491
1554.0, 0.588206
1554.47, 0.588254
1554.93, 0.588254
1555.4, 0.588633
1555.87, 0.589108
1556.34, 0.589251
1556.8, 0.589156
1557.27, 0.589298
1557.74, 0.589346
1558.21, 0.589631
1558.68, 0.589678
1559.14, 0.589631
1559.61, 0.589963
1560.08, 0.589773
1560.55, 0.589725
1561.02, 0.589868
1561.49, 0.590153
1561.96, 0.589963
1562.43, 0.590105
1562.9, 0.590438
1563.38, 0.590153
1563.85, 0.590295
1564.32, 0.590580
1564.79, 0.590390
1565.26, 0.590628
1565.74, 0.590723
1566.21, 0.590818
1566.68, 0.590960
1567.16, 0.591008
1567.63, 0.591055
1568.1, 0.591008
1568.58, 0.591150
1569.05, 0.591102
1569.53, 0.591102
1570.0, 0.591292
1570.48, 0.591482
1570.96, 0.591672
1571.43, 0.591577
1571.91, 0.591102
1572.39, 0.591435
1572.86, 0.591625
1573.34, 0.591625
1573.82, 0.591672
1574.3, 0.591862
1574.77, 0.591815
1575.25, 0.591862
1575.73, 0.592147
1576.21, 0.591957
1576.69, 0.592005
1577.17, 0.592052
1577.65, 0.592100
1578.13, 0.592290
1578.61, 0.592147
1579.09, 0.592147
1579.57, 0.592337
1580.05, 0.592384
1580.54, 0.592290
1581.02, 0.592574
1581.5, 0.592669
1581.98, 0.592432
1582.47, 0.592432
1582.95, 0.592717
1583.43, 0.592859
1583.92, 0.593097
1584.4, 0.593192
1584.88, 0.593334
1585.37, 0.593097
1585.85, 0.592764
1586.34, 0.592622
1586.82, 0.592669
1587.31, 0.592907
1587.8, 0.592954
1588.28, 0.593097
1588.77, 0.593144
1589.26, 0.593192
1589.74, 0.593049
1590.23, 0.592907
1590.72, 0.592907
1591.21, 0.593382
1591.7, 0.593524
1592.19, 0.593524
1592.67, 0.593477
1593.16, 0.593809
1593.65, 0.593666
1594.14, 0.593714
1594.63, 0.593761
1595.12, 0.593809
1595.61, 0.593904
1596.11, 0.593809
1596.6, 0.593904
1597.09, 0.594189
1597.58, 0.594046
1598.08, 0.594094
1598.57, 0.594236
1599.06, 0.594331
1599.55, 0.594284
1600.05, 0.594331
1600.54, 0.594379
1601.04, 0.594426
1601.53, 0.594474
1602.03, 0.594759
1602.52, 0.594854
1603.02, 0.594854
1603.51, 0.595043
1604.01, 0.595281
1604.5, 0.595423
1605.0, 0.595566
1605.5, 0.595423
1606.0, 0.595376
1606.49, 0.595328
1606.99, 0.595423
1607.49, 0.595518
1607.99, 0.595803
1608.49, 0.595993
1608.99, 0.595993
1609.49, 0.595993
1609.99, 0.596088
1610.49, 0.596183
1610.99, 0.596468
1611.49, 0.596373
1611.99, 0.596183
1612.49, 0.596563
1612.99, 0.596848
1613.49, 0.596705
1614.0, 0.596610
1614.5, 0.596848
1615.0, 0.597085
1615.51, 0.597180
1616.01, 0.597418
1616.51, 0.597560
1617.02, 0.597655
1617.52, 0.597513
1618.03, 0.597560
1618.53, 0.597987
1619.04, 0.598035
1619.54, 0.597987
1620.05, 0.597987
1620.55, 0.598177
1621.06, 0.598320
1621.57, 0.598272
1622.08, 0.598462
1622.58, 0.598462
1623.09, 0.598510
1623.6, 0.598795
1624.11, 0.598937
1624.62, 0.598842
1625.13, 0.599127
1625.64, 0.599317
1626.15, 0.599317
1626.66, 0.599412
1627.17, 0.599554
1627.68, 0.599412
1628.19, 0.599507
1628.7, 0.599697
1629.21, 0.599792
1629.72, 0.599649
1630.24, 0.599744
1630.75, 0.599839
1631.26, 0.600124
1631.78, 0.600219
1632.29, 0.600172
1632.8, 0.600077
1633.32, 0.600124
1633.83, 0.600266
1634.35, 0.600362
1634.86, 0.600599
1635.38, 0.600694
1635.9, 0.600551
1636.41, 0.600504
1636.93, 0.600504
1637.45, 0.600646
1637.96, 0.600741
1638.48, 0.600884
1639.0, 0.601074
1639.52, 0.601216
1640.04, 0.600979
1640.56, 0.601216
1641.08, 0.601454
1641.59, 0.601549
1642.11, 0.601501
1642.63, 0.601549
1643.16, 0.601216
1643.68, 0.601311
1644.2, 0.601786
1644.72, 0.601976
1645.24, 0.601833
1645.76, 0.601833
1646.29, 0.601596
1646.81, 0.601596
1647.33, 0.601786
1647.86, 0.601928
1648.38, 0.602166
1648.9, 0.601976
1649.43, 0.601881
1649.95, 0.602118
1650.48, 0.602071
1651.0, 0.601786
1651.53, 0.602023
1652.06, 0.602308
1652.58, 0.602403
1653.11, 0.602688
1653.64, 0.602593
1654.17, 0.602403
1654.69, 0.602451
1655.22, 0.602546
1655.75, 0.602593
1656.28, 0.602736
1656.81, 0.602783
1657.34, 0.602925
1657.87, 0.602783
1658.4, 0.602830
1658.93, 0.602973
1659.46, 0.602925
1659.99, 0.602783
1660.52, 0.602878
1661.05, 0.602973
1661.59, 0.603163
1662.12, 0.603400
1662.65, 0.603780
1663.19, 0.603733
1663.72, 0.603543
1664.26, 0.603305
1664.79, 0.603495
1665.32, 0.603543
1665.86, 0.603828
1666.39, 0.604113
1666.93, 0.604255
1667.47, 0.604255
1668.0, 0.604255
1668.54, 0.604350
1669.08, 0.604350
1669.61, 0.604255
1670.15, 0.604302
1670.69, 0.604635
1671.23, 0.604730
1671.77, 0.604777
1672.31, 0.604967
1672.85, 0.604920
1673.39, 0.604967
1673.93, 0.605300
1674.47, 0.605395
1675.01, 0.605300
1675.55, 0.605395
1676.09, 0.605442
1676.64, 0.605632
1677.18, 0.605774
1677.72, 0.605917
1678.26, 0.605869
1678.81, 0.606107
1679.35, 0.606392
1679.89, 0.606344
1680.44, 0.606487
1680.98, 0.606582
1681.53, 0.606914
1682.07, 0.606724
1682.62, 0.606487
1683.17, 0.606534
1683.71, 0.606961
1684.26, 0.607294
1684.81, 0.607341
1685.36, 0.607484
1685.9, 0.607341
1686.45, 0.607341
1687.0, 0.607626
1687.55, 0.607674
1688.1, 0.607816
1688.65, 0.608054
1689.2, 0.608291
1689.75, 0.608386
1690.3, 0.608291
1690.85, 0.608291
1691.41, 0.608481
1691.96, 0.608671
1692.51, 0.608671
1693.06, 0.608813
1693.61, 0.608718
1694.17, 0.608861
1694.72, 0.609003
1695.28, 0.609241
1695.83, 0.609288
1696.39, 0.609193
1696.94, 0.609241
1697.5, 0.609383
1698.05, 0.609335
1698.61, 0.609383
1699.17, 0.609478
1699.72, 0.609620
1700.28, 0.609715
1700.84, 0.609810
1701.4, 0.609858
1701.95, 0.609763
1702.51, 0.609810
1703.07, 0.609953
1703.63, 0.610238
1704.19, 0.610380
1704.75, 0.610380
1705.31, 0.610380
1705.88, 0.610285
1706.44, 0.610095
1707.0, 0.609953
1707.56, 0.610095
1708.12, 0.610238
1708.69, 0.610380
1709.25, 0.610000
1709.81, 0.610000
1710.38, 0.610238
1710.94, 0.610570
1711.51, 0.610333
1712.07, 0.610095
1712.64, 0.610380
1713.2, 0.610475
1713.77, 0.610475
1714.34, 0.610570
1714.9, 0.610665
1715.47, 0.610570
1716.04, 0.610618
1716.61, 0.610902
1717.18, 0.610807
1717.74, 0.610807
1718.31, 0.610807
1718.88, 0.611045
1719.45, 0.611140
1720.02, 0.611235
1720.59, 0.611425
1721.17, 0.611282
1721.74, 0.611330
1722.31, 0.611520
1722.88, 0.611710
1723.45, 0.611947
1724.03, 0.611994
1724.6, 0.612042
1725.18, 0.612090
1725.75, 0.612184
1726.33, 0.612279
1726.9, 0.612327
1727.48, 0.612469
1728.05, 0.612612
1728.63, 0.612612
1729.2, 0.612707
1729.78, 0.612517
1730.36, 0.612659
1730.94, 0.612659
1731.51, 0.612944
1732.09, 0.613087
1732.67, 0.613134
1733.25, 0.613229
1733.83, 0.613134
1734.41, 0.613087
1734.99, 0.613324
1735.57, 0.613609
1736.15, 0.613751
1736.73, 0.613656
1737.32, 0.613561
1737.9, 0.613704
1738.48, 0.613941
1739.07, 0.613941
1739.65, 0.614036
1740.23, 0.614036
1740.82, 0.613941
1741.4, 0.613894
1741.99, 0.614179
1742.57, 0.614226
1743.16, 0.614226
1743.74, 0.614416
1744.33, 0.614464
1744.92, 0.614321
1745.51, 0.614274
1746.09, 0.614369
1746.68, 0.614464
1747.27, 0.614511
1747.86, 0.614701
1748.45, 0.614986
1749.04, 0.615033
1749.63, 0.615176
1750.22, 0.615223
1750.81, 0.615271
1751.4, 0.615176
1751.99, 0.615271
1752.59, 0.615651
1753.18, 0.615698
1753.77, 0.615698
1754.37, 0.615698
1754.96, 0.615841
1755.56, 0.616031
1756.15, 0.616173
1756.74, 0.615983
1757.34, 0.615983
1757.94, 0.616220
1758.53, 0.616363
1759.13, 0.616553
1759.73, 0.616648
1760.32, 0.616695
1760.92, 0.616743
1761.52, 0.616838
1762.12, 0.617028
1762.72, 0.617265
1763.32, 0.617407
1763.92, 0.617407
1764.52, 0.617407
1765.12, 0.617550
1765.72, 0.617645
1766.32, 0.617740
1766.92, 0.617645
1767.53, 0.617977
1768.13, 0.618072
1768.73, 0.618167
1769.34, 0.618025
1769.94, 0.618215
1770.55, 0.618262
1771.15, 0.618310
1771.76, 0.618642
1772.36, 0.618689
1772.97, 0.618595
1773.57, 0.618784
1774.18, 0.619117
1774.79, 0.619354
1775.4, 0.619259
1776.0, 0.619022
1776.61, 0.618974
1777.22, 0.619069
1777.83, 0.619259
1778.44, 0.619544
1779.05, 0.619449
1779.66, 0.619354
1780.27, 0.619592
1780.88, 0.619734
1781.5, 0.619639
1782.11, 0.619639
1782.72, 0.619734
1783.33, 0.619829
1783.95, 0.619829
1784.56, 0.619971
1785.18, 0.620019
1785.79, 0.620019
1786.41, 0.620209
1787.02, 0.620161
1787.64, 0.620066
1788.26, 0.619971
1788.87, 0.620019
1789.49, 0.620256
1790.11, 0.620446
1790.73, 0.620446
1791.35, 0.620351
1791.96, 0.620399
1792.58, 0.620589
1793.21, 0.620541
1793.83, 0.620589
1794.45, 0.620589
1795.07, 0.620541
1795.69, 0.620541
1796.31, 0.620684
1796.93, 0.620636
1797.56, 0.620684
1798.18, 0.620731
1798.8, 0.620826
1799.43, 0.620826
1800.05, 0.620779
1800.68, 0.620684
1801.3, 0.620779
1801.93, 0.621064
1802.56, 0.621064
1803.18, 0.620779
1803.81, 0.620969
1804.44, 0.620826
1805.07, 0.620779
1805.7, 0.620826
1806.33, 0.621111
1806.95, 0.621111
1807.58, 0.621111
1808.22, 0.621016
1808.85, 0.621159
1809.48, 0.621396
1810.11, 0.621349
1810.74, 0.621159
1811.38, 0.621111
1812.01, 0.621111
1812.64, 0.621254
1813.28, 0.621349
1813.91, 0.621349
1814.55, 0.621301
1815.18, 0.620921
1815.82, 0.620921
1816.45, 0.621301
1817.09, 0.621349
1817.73, 0.621254
1818.36, 0.621159
1819.0, 0.621301
1819.64, 0.621111
1820.28, 0.620779
1820.92, 0.620921
1821.56, 0.621301
1822.2, 0.621491
1822.84, 0.621728
1823.48, 0.622108
1824.12, 0.622156
1824.76, 0.622013
1825.41, 0.621443
1826.05, 0.620779
1826.69, 0.621586
1827.34, 0.622393
1827.98, 0.622203
1828.63, 0.621871
1829.27, 0.621823
1829.92, 0.621871
1830.56, 0.621586
1831.21, 0.621538
1831.86, 0.622013
1832.5, 0.622203
1833.15, 0.622441
1833.8, 0.622583
1834.45, 0.622203
1835.1, 0.621871
1835.75, 0.621633
1836.4, 0.621681
1837.05, 0.621823
1837.7, 0.621823
1838.35, 0.622678
1839.01, 0.622678
1839.66, 0.621918
1840.31, 0.622298
1840.96, 0.622536
1841.62, 0.621728
1842.27, 0.622298
1842.93, 0.623438
1843.58, 0.623865
1844.24, 0.623913
1844.9, 0.624197
1845.55, 0.624102
1846.21, 0.623105
1846.87, 0.621918
1847.53, 0.621966
1848.18, 0.622583
1848.84, 0.623723
1849.5, 0.624292
1850.16, 0.624435
1850.82, 0.624482
1851.48, 0.624672
1852.14, 0.624340
1852.81, 0.623913
1853.47, 0.623200
1854.13, 0.623675
1854.8, 0.624862
1855.46, 0.625147
1856.12, 0.624197
1856.79, 0.624102
1857.45, 0.625100
1858.12, 0.625337
1858.79, 0.624672
1859.45, 0.623628
1860.12, 0.624102
1860.79, 0.625194
1861.46, 0.625669
1862.12, 0.625669
1862.79, 0.625717
1863.46, 0.625622
1864.13, 0.625432
1864.8, 0.625812
1865.48, 0.626049
1866.15, 0.625907
1866.82, 0.625289
1867.49, 0.624245
1868.16, 0.624672
1868.84, 0.625432
1869.51, 0.625337
1870.19, 0.624625
1870.86, 0.623770
1871.54, 0.624957
1872.21, 0.625100
1872.89, 0.624007
1873.56, 0.624530
1874.24, 0.625764
1874.92, 0.625764
1875.6, 0.625717
1876.28, 0.625432
1876.96, 0.625052
1877.64, 0.625574
1878.32, 0.626382
1879.0, 0.626714
1879.68, 0.626666
1880.36, 0.626334
1881.04, 0.626239
1881.73, 0.626524
1882.41, 0.626619
1883.09, 0.626192
1883.78, 0.625574
1884.46, 0.625717
1885.15, 0.626049
1885.83, 0.626002
1886.52, 0.626049
1887.21, 0.626334
1887.89, 0.626571
1888.58, 0.626524
1889.27, 0.625812
1889.96, 0.625147
1890.65, 0.625527
1891.34, 0.625764
1892.03, 0.625527
1892.72, 0.625574
1893.41, 0.625622
1894.1, 0.625669
1894.79, 0.625717
1895.49, 0.625384
1896.18, 0.625337
1896.87, 0.625194
1897.57, 0.624815
1898.26, 0.624625
1898.96, 0.623818
1899.65, 0.623248
1900.35, 0.624055
1901.05, 0.624862
1901.74, 0.624862
1902.44, 0.624007
1903.14, 0.623960
1903.84, 0.624815
1904.54, 0.624387
1905.24, 0.623628
1905.94, 0.623865
1906.64, 0.623960
1907.34, 0.624530
1908.04, 0.625052
1908.75, 0.624862
1909.45, 0.624910
1910.15, 0.625052
1910.86, 0.624957
1911.56, 0.624672
1912.27, 0.624720
1912.97, 0.624197
1913.68, 0.623960
1914.39, 0.624625
1915.09, 0.624957
1915.8, 0.624910
1916.51, 0.624815
1917.22, 0.625147
1917.93, 0.625432
1918.64, 0.625289
1919.35, 0.624672
1920.06, 0.623960
1920.77, 0.624102
1921.48, 0.625147
1922.19, 0.625574
1922.91, 0.625622
1923.62, 0.625147
1924.33, 0.625337
1925.05, 0.625812
1925.76, 0.625954
1926.48, 0.625717
1927.19, 0.625717
1927.91, 0.625812
1928.63, 0.625859
1929.35, 0.626049
1930.07, 0.626192
1930.78, 0.626476
1931.5, 0.626666
1932.22, 0.626714
1932.94, 0.626666
1933.66, 0.626571
1934.39, 0.626809
1935.11, 0.626904
1935.83, 0.626666
1936.55, 0.626761
1937.28, 0.627141
1938.0, 0.627284
1938.73, 0.627236
1939.45, 0.627331
1940.18, 0.627759
1940.9, 0.627759
1941.63, 0.627664
1942.36, 0.627759
1943.09, 0.627948
1943.81, 0.627901
1944.54, 0.627853
1945.27, 0.627948
1946.0, 0.628138
1946.73, 0.628138
1947.47, 0.628091
1948.2, 0.628043
1948.93, 0.628376
1949.66, 0.628518
1950.4, 0.628518
1951.13, 0.628566
1951.86, 0.628566
1952.6, 0.628661
1953.34, 0.628803
1954.07, 0.628851
1954.81, 0.628851
1955.55, 0.628851
1956.29, 0.628803
1957.02, 0.628898
1957.76, 0.629230
1958.5, 0.629088
1959.24, 0.628993
1959.98, 0.628946
1960.72, 0.629041
1961.47, 0.628993
1962.21, 0.628993
1962.95, 0.628851
1963.7, 0.628898
1964.44, 0.629088
1965.18, 0.629135
1965.93, 0.629041
1966.67, 0.628946
1967.42, 0.629135
1968.17, 0.629041
1968.92, 0.628993
1969.66, 0.629088
1970.41, 0.628993
1971.16, 0.628946
1971.91, 0.628993
1972.66, 0.629041
1973.41, 0.629183
1974.16, 0.629183
1974.92, 0.628946
1975.67, 0.628946
1976.42, 0.628946
1977.18, 0.628851
1977.93, 0.628661
1978.69, 0.628946
1979.44, 0.628993
1980.2, 0.628946
1980.95, 0.628898
1981.71, 0.628946
1982.47, 0.628803
1983.23, 0.628756
1983.99, 0.628898
1984.74, 0.628756
1985.51, 0.628803
1986.27, 0.628756
1987.03, 0.628613
1987.79, 0.628613
1988.55, 0.628566
1989.32, 0.628566
1990.08, 0.628613
1990.84, 0.628566
1991.61, 0.628566
1992.37, 0.628471
1993.14, 0.628328
1993.9, 0.628186
1994.67, 0.628233
1995.44, 0.628328
1996.21, 0.628138
1996.98, 0.628281
1997.75, 0.628281
1998.52, 0.627948
1999.29, 0.627901
2000.06, 0.628186
2000.83, 0.628423
2001.6, 0.628471
2002.38, 0.628376
2003.15, 0.628281
2003.93, 0.628138
2004.7, 0.627901
2005.48, 0.627901
2006.25, 0.628233
2007.03, 0.628233
2007.81, 0.628186
2008.58, 0.627901
2009.36, 0.627806
2010.14, 0.627948
2010.92, 0.628043
2011.7, 0.628043
2012.48, 0.628043
2013.26, 0.627948
2014.05, 0.627996
2014.83, 0.627901
2015.61, 0.627853
2016.4, 0.627901
2017.18, 0.627996
2017.97, 0.628091
2018.75, 0.627901
2019.54, 0.627806
2020.32, 0.627996
2021.11, 0.628043
2021.9, 0.628043
2022.69, 0.628043
2023.48, 0.628138
2024.27, 0.628186
2025.06, 0.628091
2025.85, 0.628233
2026.64, 0.628281
2027.44, 0.628091
2028.23, 0.628043
2029.02, 0.628138
2029.82, 0.628233
2030.61, 0.628186
2031.41, 0.628138
2032.2, 0.628138
2033.0, 0.628233
2033.8, 0.628138
2034.6, 0.628091
2035.4, 0.628281
2036.2, 0.628471
2037.0, 0.628613
2037.8, 0.628613
2038.6, 0.628613
2039.4, 0.628566
2040.2, 0.628376
2041.01, 0.628471
2041.81, 0.628613
2042.61, 0.628756
2043.42, 0.628756
2044.22, 0.628851
2045.03, 0.628851
2045.84, 0.628851
2046.65, 0.628946
2047.46, 0.629088
2048.26, 0.628993
2049.07, 0.628851
2049.88, 0.628898
2050.69, 0.628993
2051.51, 0.629088
2052.32, 0.629088
2053.13, 0.628993
2053.94, 0.629088
2054.76, 0.629230
2055.57, 0.629135
2056.39, 0.628993
2057.2, 0.628851
2058.02, 0.628898
2058.84, 0.628851
2059.66, 0.628851
2060.48, 0.629041
2061.29, 0.628851
2062.11, 0.628851
2062.94, 0.628851
2063.76, 0.628898
2064.58, 0.628898
2065.4, 0.629041
2066.22, 0.628898
2067.05, 0.628661
2067.87, 0.628566
2068.7, 0.628376
2069.52, 0.628138
2070.35, 0.628043
2071.18, 0.627996
2072.0, 0.627901
2072.83, 0.627759
2073.66, 0.627284
2074.49, 0.627189
2075.32, 0.627094
2076.15, 0.626619
2076.98, 0.626287
2077.82, 0.626049
2078.65, 0.625954
2079.48, 0.625717
2080.32, 0.625574
2081.15, 0.625337
2081.99, 0.625289
2082.83, 0.625194
2083.66, 0.625147
2084.5, 0.625289
2085.34, 0.625147
2086.18, 0.625005
2087.02, 0.625052
2087.86, 0.625100
2088.7, 0.624957
2089.54, 0.624720
2090.39, 0.624625
2091.23, 0.624577
2092.07, 0.624672
2092.92, 0.624672
2093.76, 0.624767
2094.61, 0.624577
2095.45, 0.624482
2096.3, 0.624340
2097.15, 0.624387
2098.0, 0.624435
2098.85, 0.624387
2099.7, 0.624387
2100.55, 0.624482
2101.4, 0.624435
2102.25, 0.624245
2103.1, 0.624245
2103.96, 0.624292
2104.81, 0.624197
2105.67, 0.624197
2106.52, 0.624292
2107.38, 0.624292
2108.24, 0.624292
2109.09, 0.624340
2109.95, 0.624435
2110.81, 0.624340
2111.67, 0.624340
2112.53, 0.624292
2113.39, 0.624197
2114.25, 0.624197
2115.12, 0.624197
2115.98, 0.624102
2116.84, 0.624055
2117.71, 0.624150
2118.58, 0.624150
2119.44, 0.624150
2120.31, 0.624292
2121.18, 0.624197
2122.04, 0.624340
2122.91, 0.624387
2123.78, 0.624387
2124.65, 0.624482
2125.52, 0.624530
2126.4, 0.624577
2127.27, 0.624767
2128.14, 0.625005
2129.02, 0.625100
2129.89, 0.625147
2130.77, 0.625289
2131.64, 0.625337
2132.52, 0.625384
2133.4, 0.625432
2134.27, 0.625574
2135.15, 0.625717
2136.03, 0.625764
2136.91, 0.625764
2137.79, 0.625907
2138.68, 0.626097
2139.56, 0.626049
2140.44, 0.626144
2141.33, 0.626429
2142.21, 0.626761
2143.1, 0.626714
2143.99, 0.626619
2144.87, 0.626619
2145.76, 0.626761
2146.65, 0.626809
2147.54, 0.626856
2148.43, 0.626999
2149.32, 0.626999
2150.21, 0.626951
2151.1, 0.627094
2151.99, 0.627094
2152.89, 0.627141
2153.78, 0.627141
2154.68, 0.627284
2155.57, 0.627331
2156.47, 0.627379
2157.37, 0.627189
2158.27, 0.627284
2159.16, 0.627379
2160.06, 0.627474
2160.96, 0.627426
2161.86, 0.627426
2162.77, 0.627474
2163.67, 0.627616
2164.57, 0.627711
2165.48, 0.627759
2166.38, 0.627759
2167.29, 0.627806
2168.2, 0.627806
2169.1, 0.627948
2170.01, 0.628091
2170.92, 0.628091
2171.83, 0.628043
2172.74, 0.628043
2173.65, 0.628043
2174.56, 0.628091
2175.47, 0.628186
2176.39, 0.628186
2177.3, 0.628138
2178.22, 0.628186
2179.13, 0.628233
2180.05, 0.628186
2180.96, 0.628043
2181.88, 0.627901
2182.8, 0.627853
2183.72, 0.627996
2184.64, 0.628043
2185.56, 0.627996
2186.48, 0.627806
2187.41, 0.627711
2188.33, 0.627806
2189.25, 0.627711
2190.18, 0.627379
2191.1, 0.627379
2192.03, 0.627331
2192.96, 0.627189
2193.89, 0.626999
2194.82, 0.627326
2195.74, 0.627489
2196.68, 0.626944
2197.61, 0.626454
2198.54, 0.626454
2199.47, 0.626399
2200.4, 0.626508
2201.34, 0.626563
2202.28, 0.626290
2203.21, 0.626072
2204.15, 0.626127
2205.08, 0.626127
2206.02, 0.625800
2206.96, 0.626072
2207.9, 0.626018
2208.84, 0.625963
2209.78, 0.625418
2210.73, 0.624873
2211.67, 0.624873
2212.61, 0.625255
2213.56, 0.625091
2214.5, 0.625037
2215.45, 0.624873
2216.4, 0.624546
2217.35, 0.624437
2218.3, 0.624709
2219.24, 0.624709
2220.2, 0.624273
2221.15, 0.624219
2222.1, 0.624164
2223.05, 0.624219
2224.0, 0.623783
2224.96, 0.623292
2225.91, 0.623020
2226.87, 0.622638
2227.83, 0.621821
2228.79, 0.620894
2229.74, 0.620240
2230.7, 0.619695
2231.66, 0.618768
2232.63, 0.617569
2233.59, 0.616860
2234.55, 0.615607
2235.51, 0.613863
2236.48, 0.611682
2237.44, 0.610156
2238.41, 0.608630
2239.38, 0.606122
2240.34, 0.603779
2241.31, 0.602034
2242.28, 0.600508
2243.25, 0.598873
2244.22, 0.597456
2245.19, 0.596638
2246.17, 0.596747
2247.14, 0.596965
2248.12, 0.597129
2249.09, 0.597074
2250.07, 0.597837
2251.04, 0.598600
2252.02, 0.599418
2253.0, 0.600454
2253.98, 0.601762
2254.96, 0.602743
2255.94, 0.603997
2256.92, 0.604978
2257.91, 0.605250
2258.89, 0.605959
2259.88, 0.606722
2260.86, 0.607376
2261.85, 0.607867
2262.83, 0.607976
2263.82, 0.608357
2264.81, 0.608303
2265.8, 0.608412
2266.79, 0.608085
2267.78, 0.608030
2268.78, 0.608357
2269.77, 0.608030
2270.76, 0.607376
2271.76, 0.606831
2272.75, 0.606341
2273.75, 0.605250
2274.75, 0.604433
2275.75, 0.603942
2276.75, 0.603016
2277.75, 0.602252
2278.75, 0.601489
2279.75, 0.599854
2280.75, 0.598709
2281.76, 0.598328
2282.76, 0.597292
2283.77, 0.595385
2284.77, 0.593313
2285.78, 0.591569
2286.79, 0.590424
2287.8, 0.588953
2288.81, 0.587426
2289.82, 0.586391
2290.83, 0.585192
2291.84, 0.583502
2292.86, 0.582085
2293.87, 0.580940
2294.89, 0.579359
2295.91, 0.578160
2296.92, 0.577288
2297.94, 0.576198
2298.96, 0.574781
2299.98, 0.572982
2301.0, 0.571456
2302.02, 0.570039
2303.04, 0.568349
2304.07, 0.566605
2305.09, 0.564206
2306.12, 0.562244
2307.15, 0.560282
2308.17, 0.558210
2309.2, 0.556139
2310.23, 0.553795
2311.26, 0.551833
2312.29, 0.549435
2313.32, 0.547418
2314.35, 0.545892
2315.39, 0.544475
2316.42, 0.542676
2317.46, 0.540932
2318.5, 0.539623
2319.53, 0.538479
2320.57, 0.537443
2321.61, 0.536189
2322.65, 0.534936
2323.69, 0.534500
2324.73, 0.534609
2325.78, 0.534663
2326.82, 0.534827
2327.86, 0.535590
2328.91, 0.536516
2329.96, 0.538206
2331.01, 0.540550
2332.05, 0.543330
2333.1, 0.546110
2334.15, 0.549053
2335.21, 0.552160
2336.26, 0.555049
2337.31, 0.557556
2338.36, 0.560009
2339.42, 0.562517
2340.48, 0.564261
2341.53, 0.565351
2342.59, 0.567041
2343.65, 0.568621
2344.71, 0.569821
2345.77, 0.570311
2346.83, 0.570747
2347.9, 0.571728
2348.96, 0.572328
2350.02, 0.572764
2351.09, 0.572873
2352.16, 0.573146
2353.23, 0.573200
2354.29, 0.573200
2355.36, 0.573091
2356.43, 0.572764
2357.51, 0.572709
2358.58, 0.572709
2359.65, 0.571892
2360.73, 0.570965
2361.8, 0.570148
2362.88, 0.569494
2363.96, 0.568785
2365.03, 0.567531
2366.11, 0.566223
2367.19, 0.565078
2368.27, 0.563879
2369.36, 0.562626
2370.44, 0.560445
2371.53, 0.558537
2372.61, 0.556957
2373.7, 0.555376
2374.78, 0.553959
2375.87, 0.552433
2376.96, 0.550797
2378.05, 0.549489
2379.14, 0.548999
2380.24, 0.548835
2381.33, 0.548508
2382.42, 0.548726
2383.52, 0.549871
2384.61, 0.551125
2385.71, 0.552814
2386.81, 0.554885
2387.91, 0.556902
2389.01, 0.559083
2390.11, 0.560990
2391.22, 0.562680
2392.32, 0.564315
2393.42, 0.566441
2394.53, 0.568567
2395.64, 0.569984
2396.74, 0.570965
2397.85, 0.572437
2398.96, 0.573309
2400.07, 0.573636
2401.18, 0.574290
2402.3, 0.574999
2403.41, 0.575544
2404.52, 0.575980
2405.64, 0.576688
2406.76, 0.576907
2407.88, 0.577234
2408.99, 0.578051
2410.11, 0.578651
2411.23, 0.579087
2412.36, 0.579632
2413.48, 0.580231
2414.6, 0.581049
2415.73, 0.581921
2416.85, 0.582521
2417.98, 0.583120
2419.11, 0.583720
2420.24, 0.583829
2421.37, 0.583938
2422.5, 0.584101
2423.64, 0.584265
2424.77, 0.584265
2425.9, 0.584265
2427.04, 0.583883
2428.18, 0.583502
2429.31, 0.583502
2430.45, 0.583120
2431.59, 0.582194
2432.73, 0.581758
2433.88, 0.581540
2435.02, 0.580722
2436.16, 0.580504
2437.31, 0.580340
2438.45, 0.580449
2439.6, 0.580449
2440.75, 0.580449
2441.9, 0.580504
2443.05, 0.580613
2444.2, 0.580559
2445.35, 0.581158
2446.51, 0.581867
2447.67, 0.582303
2448.82, 0.582466
2449.98, 0.582957
2451.14, 0.583938
2452.3, 0.584810
2453.46, 0.585301
2454.62, 0.585791
2455.78, 0.586663
2456.94, 0.587263
2458.11, 0.587972
2459.28, 0.588844
2460.44, 0.589443
2461.61, 0.589770
2462.78, 0.590479
2463.95, 0.591024
2465.12, 0.591624
2466.3, 0.592223
2467.47, 0.592441
2468.65, 0.592823
2469.82, 0.593041
2471.0, 0.593204
2472.18, 0.593477
2473.36, 0.593640
2474.54, 0.593913
2475.72, 0.594512
2476.9, 0.594676
2478.08, 0.595003
2479.27, 0.595112
2480.46, 0.595221
2481.64, 0.595493
2482.83, 0.595657
2484.02, 0.595766
2485.21, 0.595930
2486.4, 0.595875
2487.6, 0.596202
2488.79, 0.596257
2489.99, 0.596148
2491.18, 0.596039
2492.38, 0.596311
2493.58, 0.596257
2494.78, 0.595821
2495.98, 0.595603
2497.18, 0.595439
2498.39, 0.595166
2499.59, 0.595221
2500.8, 0.594894
2502.01, 0.594839
2503.21, 0.594676
2504.42, 0.595057
2505.63, 0.595548
2506.84, 0.595821
2508.06, 0.595875
2509.27, 0.595875
2510.49, 0.595984
2511.7, 0.596257
2512.92, 0.596911
2514.14, 0.597456
2515.36, 0.597619
2516.58, 0.598055
2517.8, 0.598873
2519.03, 0.599473
2520.25, 0.599636
2521.48, 0.599691
2522.7, 0.600072
2523.93, 0.600617
2525.16, 0.600944
2526.39, 0.601108
2527.62, 0.601435
2528.86, 0.601762
2530.09, 0.601435
2531.33, 0.601053
2532.56, 0.600999
2533.8, 0.600944
2535.04, 0.600345
2536.28, 0.600018
2537.52, 0.600127
2538.76, 0.600454
2540.01, 0.600508
2541.25, 0.600072
2542.5, 0.598873
2543.75, 0.598600
2544.99, 0.599145
2546.24, 0.599091
2547.49, 0.598219
2548.75, 0.597837
2550.0, 0.597456
2551.26, 0.597074
2552.51, 0.596093
2553.77, 0.596311
2555.03, 0.596638
2556.29, 0.596584
2557.55, 0.596311
2558.81, 0.595548
2560.08, 0.593422
2561.34, 0.591514
2562.61, 0.591460
2563.88, 0.592060
2565.14, 0.593695
2566.41, 0.595493
2567.68, 0.595330
2568.96, 0.593967
2570.23, 0.594076
2571.51, 0.595221
2572.78, 0.593368
2574.06, 0.593477
2575.34, 0.594894
2576.62, 0.594567
2577.9, 0.595657
2579.18, 0.596856
2580.47, 0.595930
2581.75, 0.595657
2583.04, 0.594022
2584.32, 0.594185
2585.61, 0.596747
2586.9, 0.596366
2588.2, 0.596747
2589.49, 0.598546
2590.78, 0.600236
2592.08, 0.599636
2593.37, 0.594022
2594.67, 0.587972
2595.97, 0.592768
2597.27, 0.599527
2598.57, 0.602143
2599.88, 0.601980
2601.18, 0.600781
2602.49, 0.599800
2603.79, 0.598164
2605.1, 0.595821
2606.41, 0.596911
2607.72, 0.599255
2609.03, 0.599963
2610.35, 0.600345
2611.66, 0.601217
2612.98, 0.600999
2614.3, 0.600944
2615.62, 0.598273
2616.94, 0.595984
2618.26, 0.597892
2619.58, 0.596529
2620.91, 0.596475
2622.23, 0.599909
2623.56, 0.600454
2624.89, 0.598491
2626.22, 0.595003
2627.55, 0.595221
2628.88, 0.594403
2630.21, 0.590533
2631.55, 0.591896
2632.89, 0.593477
2634.22, 0.592932
2635.56, 0.593749
2636.9, 0.593749
2638.25, 0.593477
2639.59, 0.593531
2640.93, 0.593368
2642.28, 0.593204
2643.63, 0.593531
2644.98, 0.593041
2646.33, 0.593749
2647.68, 0.595984
2649.03, 0.597619
2650.39, 0.598001
2651.74, 0.597292
2653.1, 0.597946
2654.46, 0.599418
2655.82, 0.600018
2657.18, 0.601653
2658.54, 0.600672
2659.9, 0.599745
2661.27, 0.600072
2662.64, 0.599800
2664.01, 0.595057
2665.38, 0.589988
2666.74, 0.588408
2668.12, 0.589334
2669.49, 0.583992
2670.87, 0.579795
2672.24, 0.582466
2673.62, 0.579959
2675.0, 0.571892
2676.38, 0.560173
2677.76, 0.547036
2679.15, 0.527741
2680.54, 0.504357
2681.92, 0.476231
2683.31, 0.446307
2684.7, 0.419108
2686.09, 0.394961
2687.48, 0.373648
2688.88, 0.355988
2690.27, 0.341652
2691.67, 0.330696
2693.07, 0.321703
2694.47, 0.317179
2695.87, 0.317015
2697.27, 0.319577
2698.67, 0.323120
2700.08, 0.328026
2701.49, 0.334948
2702.9, 0.344269
2704.31, 0.353753
2705.72, 0.364001
2707.13, 0.374139
2708.54, 0.383024
2709.96, 0.390818
2711.38, 0.399975
2712.8, 0.409242
2714.22, 0.414256
2715.64, 0.415892
2717.06, 0.414692
2718.49, 0.411095
2719.91, 0.404936
2721.34, 0.402646
2722.77, 0.401774
2724.2, 0.398449
2725.63, 0.398613
2727.07, 0.400193
2728.5, 0.400957
2729.94, 0.401502
2731.38, 0.402701
2732.82, 0.403954
2734.26, 0.404936
2735.7, 0.408479
2737.15, 0.412076
2738.59, 0.412621
2740.04, 0.414692
2741.49, 0.420252
2742.94, 0.427011
2744.39, 0.432189
2745.84, 0.436277
2747.3, 0.439657
2748.76, 0.443036
2750.21, 0.446034
2751.67, 0.448215
2753.14, 0.449305
2754.6, 0.447778
2756.06, 0.449632
2757.53, 0.454755
2759.0, 0.457590
2760.46, 0.458407
2761.94, 0.458189
2763.41, 0.459879
2764.88, 0.462931
2766.36, 0.464185
2767.83, 0.464567
2769.31, 0.465330
2770.79, 0.466038
2772.27, 0.467728
2773.76, 0.468873
2775.24, 0.469145
2776.73, 0.468764
2778.22, 0.468491
2779.71, 0.468164
2781.2, 0.467837
2782.69, 0.468110
2784.18, 0.468709
2785.68, 0.467728
2787.18, 0.467074
2788.68, 0.468709
2790.18, 0.470399
2791.68, 0.470835
2793.19, 0.471162
2794.69, 0.471598
2796.2, 0.471871
2797.71, 0.472034
2799.22, 0.472252
2800.73, 0.471489
2802.24, 0.469799
2803.76, 0.469472
2805.28, 0.470781
2806.8, 0.471489
2808.32, 0.471489
2809.84, 0.471489
2811.36, 0.471544
2812.89, 0.471108
2814.42, 0.470617
2815.94, 0.470290
2817.48, 0.469963
2819.01, 0.469363
2820.54, 0.469200
2822.08, 0.469472
2823.61, 0.469690
2825.15, 0.469472
2826.69, 0.469254
2828.23, 0.469145
2829.78, 0.469145
2831.32, 0.468927
2832.87, 0.468764
2834.42, 0.468491
2835.97, 0.468164
2837.52, 0.467946
2839.08, 0.468110
2840.63, 0.468001
2842.19, 0.468055
2843.75, 0.467892
2845.31, 0.467292
2846.87, 0.466911
2848.44, 0.466365
2850.0, 0.466147
2851.57, 0.466093
2853.14, 0.465711
2854.71, 0.465548
2856.28, 0.465602
2857.86, 0.465493
2859.43, 0.465221
2861.01, 0.464948
2862.59, 0.464676
2864.17, 0.464240
2865.76, 0.463804
2867.34, 0.463640
2868.93, 0.463695
2870.52, 0.463313
2872.11, 0.462986
2873.7, 0.462986
2875.29, 0.462986
2876.89, 0.462713
2878.49, 0.462441
2880.08, 0.462277
2881.69, 0.462005
2883.29, 0.461896
2884.89, 0.461841
2886.5, 0.461678
2888.11, 0.461296
2889.72, 0.461296
2891.33, 0.461133
2892.94, 0.461187
2894.56, 0.461242
2896.17, 0.461024
2897.79, 0.460860
2899.42, 0.460533
2901.04, 0.460424
2902.66, 0.460588
2904.29, 0.460533
2905.92, 0.460479
2907.55, 0.460370
2909.18, 0.460315
2910.81, 0.460479
2912.45, 0.460479
2914.08, 0.460370
2915.72, 0.460370
2917.36, 0.460533
2919.01, 0.460533
2920.65, 0.460533
2922.3, 0.460642
2923.94, 0.460751
2925.59, 0.460860
2927.25, 0.461024
2928.9, 0.461187
2930.56, 0.461187
2932.21, 0.461187
2933.87, 0.461242
2935.53, 0.461514
2937.2, 0.461514
2938.86, 0.461460
2940.53, 0.461569
2942.2, 0.461896
2943.87, 0.462005
2945.54, 0.462114
2947.22, 0.462277
2948.89, 0.462659
2950.57, 0.462768
2952.25, 0.462713
2953.93, 0.462768
2955.62, 0.462986
2957.3, 0.463041
2958.99, 0.463259
2960.68, 0.463586
2962.37, 0.464022
2964.07, 0.464240
2965.76, 0.464458
2967.46, 0.464730
2969.16, 0.464894
2970.86, 0.465003
2972.56, 0.465330
2974.27, 0.465548
2975.98, 0.465875
2977.69, 0.466093
2979.4, 0.466365
2981.11, 0.466583
2982.83, 0.466965
2984.54, 0.467238
2986.26, 0.467565
2987.98, 0.467946
2989.71, 0.468273
2991.43, 0.468600
2993.16, 0.469036
2994.89, 0.469254
2996.62, 0.469418
2998.35, 0.469636
3000.09, 0.470017
3001.83, 0.470454
3003.57, 0.470781
3005.31, 0.471053
3007.05, 0.471435
3008.79, 0.471925
3010.54, 0.472307
3012.29, 0.472579
3014.04, 0.473070
3015.8, 0.473560
3017.55, 0.473996
3019.31, 0.474433
3021.07, 0.474651
3022.83, 0.474978
3024.59, 0.475523
3026.36, 0.475904
3028.13, 0.476340
3029.9, 0.476504
3031.67, 0.476722
3033.44, 0.477212
3035.22, 0.477594
3037.0, 0.477921
3038.78, 0.478357
3040.56, 0.478630
3042.34, 0.478848
3044.13, 0.479066
3045.92, 0.479229
3047.71, 0.479338
3049.5, 0.479829
3051.3, 0.480265
3053.09, 0.480537
3054.89, 0.480755
3056.69, 0.481191
3058.5, 0.481682
3060.3, 0.482064
3062.11, 0.482391
3063.92, 0.482663
3065.73, 0.482990
3067.55, 0.483372
3069.36, 0.483808
3071.18, 0.484080
3073.0, 0.484407
3074.82, 0.484734
3076.65, 0.484898
3078.48, 0.485116
3080.31, 0.485171
3082.14, 0.485443
3083.97, 0.485661
3085.8, 0.485825
3087.64, 0.485988
3089.48, 0.486479
3091.33, 0.486751
3093.17, 0.486969
3095.02, 0.487024
3096.87, 0.487242
3098.72, 0.487678
3100.57, 0.488005
3102.43, 0.488332
3104.28, 0.488768
3106.14, 0.489150
3108.01, 0.489695
3109.87, 0.490131
3111.74, 0.490676
3113.61, 0.491384
3115.48, 0.492038
3117.35, 0.492693
3119.23, 0.493347
3121.1, 0.493946
3122.98, 0.494818
3124.87, 0.495636
3126.75, 0.496236
3128.64, 0.496999
3130.53, 0.497762
3132.42, 0.498361
3134.31, 0.499124
3136.21, 0.499942
3138.11, 0.500651
3140.01, 0.501359
3141.91, 0.502068
3143.82, 0.502667
3145.73, 0.503321
3147.64, 0.504030
3149.55, 0.504739
3151.46, 0.505502
3153.38, 0.506319
3155.3, 0.506919
3157.22, 0.507410
3159.14, 0.508009
3161.07, 0.508718
3163.0, 0.509317
3164.93, 0.509862
3166.86, 0.510298
3168.8, 0.510898
3170.74, 0.511334
3172.68, 0.511825
3174.62, 0.512152
3176.56, 0.512588
3178.51, 0.513024
3180.46, 0.513242
3182.42, 0.513460
3184.37, 0.513678
3186.33, 0.513841
3188.29, 0.514059
3190.25, 0.514169
3192.21, 0.514277
3194.18, 0.514332
3196.15, 0.514386
3198.12, 0.514550
3200.09, 0.514877
3202.07, 0.514877
3204.05, 0.514986
3206.03, 0.515150
3208.02, 0.515368
3210.0, 0.515749
3211.99, 0.516240
3213.98, 0.516403
3215.98, 0.516621
3217.97, 0.516948
3219.97, 0.517275
3221.97, 0.517711
3223.98, 0.518202
3225.98, 0.518584
3227.99, 0.519020
3230.0, 0.519292
3232.02, 0.519783
3234.03, 0.520546
3236.05, 0.521200
3238.07, 0.521800
3240.1, 0.522399
3242.12, 0.522781
3244.15, 0.523162
3246.18, 0.523762
3248.22, 0.524470
3250.25, 0.525124
3252.29, 0.525670
3254.33, 0.526269
3256.38, 0.526923
3258.43, 0.527468
3260.47, 0.528068
3262.53, 0.528613
3264.58, 0.529267
3266.64, 0.529976
3268.7, 0.530575
3270.76, 0.530957
3272.82, 0.531502
3274.89, 0.532210
3276.96, 0.532865
3279.04, 0.533519
3281.11, 0.534282
3283.19, 0.534718
3285.27, 0.535154
3287.35, 0.535590
3289.44, 0.536244
3291.53, 0.536680
3293.62, 0.537007
3295.71, 0.537389
3297.81, 0.537879
3299.91, 0.538370
3302.01, 0.539024
3304.11, 0.539351
3306.22, 0.539623
3308.33, 0.540060
3310.44, 0.540605
3312.56, 0.541150
3314.68, 0.541531
3316.8, 0.541422
3318.92, 0.541422
3321.05, 0.541477
3323.18, 0.541586
3325.31, 0.541477
3327.44, 0.541422
3329.58, 0.541313
3331.72, 0.541095
3333.86, 0.540605
3336.01, 0.540060
3338.16, 0.539405
3340.31, 0.538697
3342.46, 0.537770
3344.61, 0.536680
3346.77, 0.535372
3348.94, 0.534009
3351.1, 0.532755
3353.27, 0.531502
3355.44, 0.530194
3357.61, 0.528831
3359.79, 0.527468
3361.97, 0.526051
3364.15, 0.524416
3366.33, 0.522726
3368.52, 0.521091
3370.71, 0.519728
3372.9, 0.518965
3375.1, 0.518638
3377.3, 0.518693
3379.5, 0.519238
3381.71, 0.519946
3383.91, 0.520655
3386.12, 0.521036
3388.34, 0.521091
3390.55, 0.520818
3392.77, 0.519837
3394.99, 0.518256
3397.22, 0.516349
3399.45, 0.514059
3401.68, 0.511716
3403.91, 0.509208
3406.15, 0.506755
3408.39, 0.504684
3410.63, 0.502776
3412.87, 0.501305
3415.12, 0.500596
3417.37, 0.500596
3419.63, 0.501632
3421.88, 0.503649
3424.14, 0.506483
3426.41, 0.509481
3428.67, 0.512697
3430.94, 0.515749
3433.21, 0.518256
3435.49, 0.520382
3437.77, 0.522399
3440.05, 0.524198
3442.33, 0.526051
3444.62, 0.528013
3446.91, 0.530085
3449.2, 0.532047
3451.5, 0.534118
3453.8, 0.536080
3456.1, 0.537934
3458.41, 0.539460
3460.72, 0.540877
3463.03, 0.542076
3465.34, 0.542948
3467.66, 0.543275
3469.98, 0.543275
3472.31, 0.543330
3474.63, 0.543439
3476.96, 0.543384
3479.3, 0.543166
3481.64, 0.543166
3483.97, 0.543221
3486.32, 0.543057
3488.66, 0.542567
3491.01, 0.541586
3493.36, 0.540114
3495.72, 0.538424
3498.08, 0.536844
3500.44, 0.535808
3502.81, 0.535971
3505.18, 0.537716
3507.55, 0.540768
3509.92, 0.544529
3512.3, 0.548726
3514.68, 0.552814
3517.06, 0.556357
3519.45, 0.559573
3521.84, 0.562408
3524.24, 0.564915
3526.64, 0.567095
3529.04, 0.568948
3531.44, 0.570529
3533.85, 0.571837
3536.26, 0.572818
3538.67, 0.573636
3541.09, 0.574236
3543.51, 0.574508
3545.93, 0.574781
3548.36, 0.575217
3550.79, 0.575762
3553.22, 0.576634
3555.66, 0.577724
3558.1, 0.578923
3560.54, 0.580340
3562.99, 0.581649
3565.44, 0.582630
3567.9, 0.583338
3570.35, 0.584047
3572.81, 0.584756
3575.28, 0.585410
3577.75, 0.586009
3580.22, 0.586718
3582.69, 0.587263
3585.17, 0.587808
3587.65, 0.588517
3590.14, 0.589062
3592.62, 0.589607
3595.11, 0.590261
3597.61, 0.590806
3600.11, 0.591133
3602.61, 0.591514
3605.11, 0.592114
3607.62, 0.592550
3610.14, 0.592877
3612.65, 0.593204
3615.17, 0.593531
3617.69, 0.593913
3620.22, 0.594240
3622.75, 0.594512
3625.28, 0.594839
3627.82, 0.595166
3630.36, 0.595276
3632.9, 0.595439
3635.45, 0.595821
3638.0, 0.596093
3640.56, 0.596311
3643.12, 0.596638
3645.68, 0.596693
3648.24, 0.596911
3650.81, 0.597238
3653.39, 0.597456
3655.96, 0.597837
3658.54, 0.598382
3661.13, 0.598818
3663.71, 0.599309
3666.3, 0.599963
3668.9, 0.600454
3671.5, 0.600944
3674.1, 0.601489
3676.7, 0.602034
3679.31, 0.602416
3681.93, 0.602852
3684.54, 0.603343
3687.17, 0.603779
3689.79, 0.604215
3692.42, 0.604760
3695.05, 0.605196
3697.69, 0.605523
3700.32, 0.605959
3702.97, 0.606504
3705.61, 0.606886
3708.27, 0.607213
3710.92, 0.607594
3713.58, 0.607976
3716.24, 0.608357
3718.91, 0.608793
3721.58, 0.609175
3724.25, 0.609665
3726.93, 0.609829
3729.61, 0.610102
3732.29, 0.610483
3734.98, 0.611028
3737.67, 0.611464
3740.37, 0.611846
3743.07, 0.612282
3745.78, 0.612663
3748.49, 0.613154
3751.2, 0.613644
3753.91, 0.613863
3756.63, 0.614190
3759.36, 0.614571
3762.09, 0.615007
3764.82, 0.615389
3767.55, 0.615661
3770.29, 0.615879
3773.04, 0.616206
3775.78, 0.616533
3778.54, 0.616860
3781.29, 0.617133
3784.05, 0.617406
3786.82, 0.617678
3789.59, 0.617842
3792.36, 0.618060
3795.13, 0.618223
3797.92, 0.618496
3800.7, 0.618714
3803.49, 0.618877
3806.28, 0.619095
3809.08, 0.619150
3811.88, 0.619150
3814.68, 0.619368
3817.49, 0.619695
3820.31, 0.619913
3823.12, 0.620022
3825.94, 0.620185
3828.77, 0.620349
3831.6, 0.620512
3834.43, 0.620676
3837.27, 0.620730
3840.11, 0.620785
3842.96, 0.620894
3845.81, 0.621112
3848.67, 0.621221
3851.53, 0.621330
3854.39, 0.621439
3857.26, 0.621657
3860.13, 0.621821
3863.01, 0.621875
3865.89, 0.621821
3868.77, 0.621766
3871.66, 0.621875
3874.55, 0.622039
3877.45, 0.622039
3880.35, 0.622039
3883.26, 0.621984
3886.17, 0.621930
3889.09, 0.621875
3892.01, 0.621930
3894.93, 0.621875
3897.86, 0.621766
3900.79, 0.621657
3903.73, 0.621766
3906.67, 0.621712
3909.62, 0.621766
3912.57, 0.621657
3915.52, 0.621603
3918.48, 0.621494
3921.45, 0.621439
3924.42, 0.621439
3927.39, 0.621330
3930.37, 0.621167
3933.35, 0.621058
3936.34, 0.621058
3939.33, 0.621003
3942.32, 0.620948
3945.32, 0.620839
3948.33, 0.620676
3951.34, 0.620567
3954.35, 0.620458
3957.37, 0.620294
3960.39, 0.620185
3963.42, 0.620240
3966.45, 0.620185
3969.49, 0.620131
3972.53, 0.620022
3975.58, 0.619913
3978.63, 0.619858
3981.68, 0.619858
3984.75, 0.619749
3987.81, 0.619695
3990.88, 0.619586
3993.95, 0.619586
3997.03, 0.619531
4000.12, 0.619531
4003.21, 0.619368
4006.3, 0.619313
4009.4, 0.619150
4012.5, 0.618932
4015.61, 0.618932
4018.72, 0.618877
4021.84, 0.618659
4024.96, 0.618496
4028.09, 0.618278
4031.22, 0.618060
4034.36, 0.617896
4037.5, 0.617733
4040.65, 0.617515
4043.8, 0.617296
4046.96, 0.617133
4050.12, 0.617024
4053.29, 0.616751
4056.46, 0.616315
4059.64, 0.616043
4062.82, 0.615879
4066.0, 0.615607
4069.19, 0.615334
4072.39, 0.615007
4075.59, 0.614844
4078.8, 0.614571
4082.01, 0.614244
4085.23, 0.613917
4088.45, 0.613699
4091.68, 0.613317
4094.91, 0.613045
4098.15, 0.612881
4101.39, 0.612663
4104.63, 0.612282
4107.89, 0.612009
4111.14, 0.611846
4114.41, 0.611355
4117.67, 0.610919
4120.95, 0.610756
4124.23, 0.610538
4127.51, 0.610102
4130.8, 0.609774
4134.09, 0.609502
4137.39, 0.609229
4140.7, 0.608957
4144.01, 0.608630
4147.32, 0.608412
4150.64, 0.608085
4153.97, 0.607921
4157.3, 0.607703
4160.64, 0.607376
4163.98, 0.607049
4167.33, 0.606831
4170.68, 0.606559
4174.04, 0.606231
4177.4, 0.605741
4180.77, 0.605359
4184.14, 0.604978
4187.52, 0.604814
4190.91, 0.604487
4194.3, 0.604160
4197.69, 0.603724
4201.1, 0.603070
4204.5, 0.602198
4207.92, 0.601271
4211.34, 0.600181
4214.76, 0.598982
4218.19, 0.597946
4221.62, 0.596911
4225.06, 0.595984
4228.51, 0.595221
4231.96, 0.594512
4235.42, 0.594076
4238.88, 0.593749
4242.35, 0.593913
4245.83, 0.594076
4249.31, 0.594076
4252.79, 0.593858
4256.28, 0.593150
4259.78, 0.592659
4263.29, 0.592768
4266.79, 0.592659
4270.31, 0.592332
4273.83, 0.591951
4277.35, 0.591733
4280.89, 0.591569
4284.42, 0.591405
4287.97, 0.591296
4291.52, 0.591460
4295.07, 0.591624
4298.63, 0.591733
4302.2, 0.591733
4305.78, 0.591896
4309.35, 0.591896
4312.94, 0.591951
4316.53, 0.592005
4320.13, 0.592114
4323.73, 0.592223
4327.34, 0.592223
4330.96, 0.592060
4334.58, 0.591951
4338.21, 0.591787
4341.84, 0.591678
4345.48, 0.591624
4349.12, 0.591460
4352.77, 0.591242
4356.43, 0.591078
4360.1, 0.590969
4363.76, 0.590697
4367.44, 0.590424
4371.12, 0.590206
4374.81, 0.589934
4378.51, 0.589661
4382.21, 0.589334
4385.92, 0.589116
4389.63, 0.588844
4393.35, 0.588735
4397.08, 0.588571
4400.81, 0.588353
4404.55, 0.588135
4408.29, 0.587972
4412.04, 0.587644
4415.8, 0.587426
4419.57, 0.587317
4423.34, 0.587154
4427.12, 0.586936
4430.9, 0.586772
4434.69, 0.586609
4438.49, 0.586554
4442.29, 0.586282
4446.1, 0.585900
4449.92, 0.585682
4453.74, 0.585519
4457.57, 0.585301
4461.41, 0.585083
4465.25, 0.584865
4469.1, 0.584756
4472.95, 0.584592
4476.82, 0.584265
4480.69, 0.584047
4484.56, 0.583883
4488.44, 0.583665
4492.33, 0.583502
4496.23, 0.583120
4500.13, 0.582739
4504.04, 0.582521
4507.96, 0.582303
4511.88, 0.581867
4515.81, 0.581431
4519.75, 0.580995
4523.69, 0.580613
4527.65, 0.580068
4531.6, 0.579577
4535.57, 0.578978
4539.54, 0.578324
4543.52, 0.577615
4547.5, 0.576852
4551.5, 0.576089
4555.5, 0.575326
4559.5, 0.574399
4563.52, 0.573527
4567.54, 0.572546
4571.56, 0.571510
4575.6, 0.570475
4579.64, 0.569330
4583.69, 0.568185
4587.75, 0.567041
4591.81, 0.565896
4595.88, 0.564806
4599.96, 0.563552
4604.04, 0.562408
4608.14, 0.561208
4612.24, 0.560064
4616.34, 0.558865
4620.46, 0.557556
4624.58, 0.556248
4628.71, 0.555104
4632.84, 0.553850
4636.99, 0.552651
4641.14, 0.551343
4645.3, 0.550143
4649.47, 0.548944
4653.64, 0.547854
4657.82, 0.546600
4662.01, 0.545347
4666.21, 0.544148
4670.41, 0.543112
4674.62, 0.541967
4678.84, 0.540877
4683.07, 0.539841
4687.3, 0.538751
4691.54, 0.537716
4695.79, 0.536680
4700.05, 0.535644
4704.31, 0.534663
4708.59, 0.533628
4712.87, 0.532646
4717.15, 0.531665
4721.45, 0.530575
4725.76, 0.529485
4730.07, 0.528340
4734.39, 0.527087
4738.72, 0.525833
4743.05, 0.524361
4747.39, 0.522944
4751.75, 0.521636
4756.1, 0.520382
4760.47, 0.519074
4764.85, 0.517766
4769.23, 0.516512
4773.62, 0.515313
4778.02, 0.514169
4782.43, 0.513024
4786.85, 0.511988
4791.27, 0.511116
4795.7, 0.510189
4800.14, 0.509317
4804.59, 0.508445
4809.05, 0.507682
4813.51, 0.506810
4817.99, 0.506101
4822.47, 0.505393
4826.96, 0.504793
4831.46, 0.504085
4835.96, 0.503321
4840.48, 0.502504
4845.0, 0.502013
4849.54, 0.501523
4854.08, 0.500978
4858.63, 0.500596
4863.18, 0.500106
4867.75, 0.499615
4872.33, 0.499288
4876.91, 0.498906
4881.5, 0.498634
4886.1, 0.498416
4890.71, 0.498361
4895.33, 0.498307
4899.96, 0.498416
4904.59, 0.498525
4909.24, 0.498688
4913.89, 0.499015
4918.55, 0.499397
4923.22, 0.499724
4927.9, 0.500160
4932.59, 0.500651
4937.29, 0.501032
4942.0, 0.501359
4946.71, 0.501741
4951.44, 0.502013
4956.17, 0.502068
4960.91, 0.502340
4965.67, 0.502667
4970.43, 0.502776
4975.2, 0.502776
4979.98, 0.502613
4984.76, 0.502558
4989.56, 0.502504
4994.37, 0.502340
4999.18, 0.502177
5004.01, 0.502068
5008.84, 0.502068
5013.69, 0.501850
5018.54, 0.501305
5023.4, 0.501523
5028.28, 0.501959
5033.16, 0.502340
5038.05, 0.502776
5042.95, 0.503103
5047.86, 0.503376
5052.78, 0.503758
5057.71, 0.504194
5062.65, 0.504575
5067.6, 0.504957
5072.56, 0.505447
5077.53, 0.505720
5082.5, 0.505992
5087.49, 0.506755
5092.49, 0.507682
5097.5, 0.508282
5102.51, 0.508827
5107.54, 0.509426
5112.58, 0.510080
5117.62, 0.510625
5122.68, 0.511280
5127.75, 0.511879
5132.82, 0.512370
5137.91, 0.512697
5143.01, 0.512588
5148.12, 0.512479
5153.23, 0.513678
5158.36, 0.514495
5163.5, 0.514768
5168.65, 0.514932
5173.81, 0.515041
5178.98, 0.515204
5184.15, 0.515422
5189.34, 0.515422
5194.54, 0.515095
5199.75, 0.514495
5204.98, 0.514714
5210.21, 0.513787
5215.45, 0.513405
5220.7, 0.514605
5225.96, 0.514768
5231.23, 0.514114
5236.52, 0.513460
5241.81, 0.513296
5247.12, 0.513024
5252.44, 0.512588
5257.76, 0.512043
5263.1, 0.511334
5268.45, 0.510353
5273.81, 0.508990
5279.18, 0.507955
5284.56, 0.506592
5289.95, 0.503921
5295.36, 0.502286
5300.77, 0.501087
5306.2, 0.498797
5311.63, 0.496454
5317.08, 0.493837
5322.54, 0.491112
5328.01, 0.488332
5333.49, 0.485443
5338.98, 0.482227
5344.49, 0.477812
5350.0, 0.473233
5355.53, 0.471435
5361.07, 0.469908
5366.62, 0.467401
5372.18, 0.464240
5377.75, 0.461187
5383.34, 0.458244
5388.93, 0.455464
5394.54, 0.452466
5400.16, 0.449632
5405.79, 0.446579
5411.44, 0.443309
5417.09, 0.438567
5422.76, 0.434424
5428.43, 0.434588
5434.12, 0.433825
5439.83, 0.431317
5445.54, 0.429191
5451.26, 0.427284
5457.0, 0.424667
5462.75, 0.420961
5468.52, 0.419816
5474.29, 0.418835
5480.08, 0.417091
5485.88, 0.417036
5491.69, 0.416164
5497.51, 0.414692
5503.35, 0.413330
5509.2, 0.412512
5515.06, 0.410986
5520.93, 0.409133
5526.82, 0.408261
5532.71, 0.407715
5538.63, 0.406680
5544.55, 0.405045
5550.49, 0.402864
5556.44, 0.401829
5562.4, 0.401393
5568.37, 0.400248
5574.36, 0.396759
5580.36, 0.394470
5586.37, 0.395669
5592.4, 0.395833
5598.44, 0.393871
5604.49, 0.392181
5610.56, 0.390927
5616.63, 0.389074
5622.73, 0.387929
5628.83, 0.385967
5634.95, 0.382097
5641.08, 0.377409
5647.23, 0.377300
5653.39, 0.377137
5659.56, 0.376592
5665.74, 0.375992
5671.94, 0.372613
5678.15, 0.370814
5684.38, 0.370650
5690.62, 0.368634
5696.87, 0.367871
5703.14, 0.365854
5709.42, 0.361711
5715.72, 0.360567
5722.03, 0.360403
5728.35, 0.359640
5734.69, 0.357732
5741.03, 0.355279
5747.4, 0.352445
5753.78, 0.351954
5760.17, 0.347212
5766.58, 0.341543
5773.0, 0.343996
5779.44, 0.345195
5785.88, 0.344541
5792.35, 0.343560
5798.83, 0.341816
5805.32, 0.340453
5811.83, 0.337728
5818.35, 0.332277
5824.89, 0.330696
5831.45, 0.333040
5838.01, 0.334512
5844.59, 0.334676
5851.19, 0.333476
5857.8, 0.331514
5864.43, 0.330042
5871.07, 0.329388
5877.73, 0.323011
5884.4, 0.322684
5891.09, 0.324319
5897.79, 0.323283
5904.5, 0.327263
5911.23, 0.327808
5917.98, 0.326172
5924.75, 0.324265
5931.53, 0.318378
5938.32, 0.314617
5945.13, 0.318596
5951.96, 0.319468
5958.8, 0.317942
5965.65, 0.313581
5972.53, 0.312273
5979.42, 0.311837
5986.32, 0.308239
5993.24, 0.307258
6000.18, 0.308457
6007.13, 0.306441
6014.1, 0.303552
6021.08, 0.303443
6028.09, 0.302898
6035.1, 0.300336
6042.14, 0.292868
6049.19, 0.286273
6056.25, 0.291887
6063.34, 0.293631
6070.44, 0.289870
6077.55, 0.290197
6084.69, 0.292432
6091.84, 0.292269
6099.0, 0.291015
6106.19, 0.287418
6113.39, 0.284093
6120.61, 0.287200
6127.84, 0.289870
6135.09, 0.289489
6142.36, 0.288944
6149.65, 0.289162
6156.95, 0.288399
6164.27, 0.289543
6171.61, 0.291560
6178.97, 0.289761
6186.34, 0.288835
6193.73, 0.293141
6201.14, 0.295539
6208.57, 0.296193
6216.01, 0.296956
6223.47, 0.298156
6230.95, 0.299191
6238.45, 0.300227
6245.97, 0.301262
6253.5, 0.302625
6261.06, 0.303988
6268.63, 0.305405
6276.21, 0.307040
6283.82, 0.308675
6291.45, 0.310147
6299.1, 0.312055
6306.76, 0.313581
6314.44, 0.315162
6322.14, 0.316743
6329.86, 0.318432
6337.6, 0.317015
6345.35, 0.317015
6353.13, 0.322902
6360.92, 0.325464
6368.74, 0.324919
6376.57, 0.328189
6384.43, 0.331514
6392.3, 0.333476
6400.19, 0.333694
6408.1, 0.327317
6416.03, 0.326499
6423.98, 0.335439
6431.95, 0.340344
6439.94, 0.344214
6447.95, 0.346831
6455.98, 0.349120
6464.03, 0.350646
6472.1, 0.349829
6480.19, 0.348520
6488.31, 0.345468
6496.44, 0.347539
6504.59, 0.356151
6512.76, 0.358931
6520.95, 0.358059
6529.16, 0.361493
6537.4, 0.363019
6545.65, 0.362202
6553.92, 0.361439
6562.22, 0.360785
6570.54, 0.357514
6578.88, 0.359476
6587.23, 0.361766
6595.61, 0.362474
6604.02, 0.364328
6612.44, 0.364110
6620.89, 0.362801
6629.35, 0.357296
6637.84, 0.353535
6646.35, 0.359749
6654.88, 0.364382
6663.44, 0.363183
6672.01, 0.360349
6680.61, 0.358223
6689.23, 0.359749
6697.88, 0.360294
6706.54, 0.356969
6715.23, 0.355552
6723.94, 0.356260
6732.67, 0.357078
6741.42, 0.356697
6750.2, 0.355170
6759.0, 0.353808
6767.82, 0.350973
6776.67, 0.347430
6785.54, 0.342906
6794.44, 0.341271
6803.35, 0.342852
6812.29, 0.341489
6821.26, 0.337619
6830.24, 0.335929
6839.25, 0.336256
6848.29, 0.332931
6857.35, 0.325900
6866.43, 0.323283
6875.54, 0.327317
6884.67, 0.327481
6893.82, 0.325573
6903.0, 0.322793
6912.2, 0.321539
6921.43, 0.320504
6930.69, 0.318378
6939.96, 0.315598
6949.27, 0.311564
6958.59, 0.306332
6967.95, 0.306223
6977.33, 0.306332
6986.73, 0.303988
6996.16, 0.301808
7005.61, 0.300281
7015.09, 0.297774
7024.6, 0.295430
7034.13, 0.292814
7043.69, 0.288617
7053.27, 0.288017
7062.88, 0.288726
7072.52, 0.287581
7082.18, 0.286218
7091.87, 0.284965
7101.58, 0.283766
7111.32, 0.281585
7121.09, 0.279678
7130.88, 0.278206
7140.71, 0.275317
7150.56, 0.272537
7160.43, 0.270248
7170.33, 0.267468
7180.27, 0.266269
7190.23, 0.264361
7200.21, 0.260873
7210.23, 0.257820
7220.27, 0.256348
7230.34, 0.253896
7240.44, 0.251170
7250.56, 0.248281
7260.72, 0.245556
7270.9, 0.242122
7281.12, 0.239342
7291.36, 0.237162
7301.63, 0.234872
7311.93, 0.232583
7322.25, 0.230566
7332.61, 0.228005
7343.0, 0.226478
7353.41, 0.225988
7363.86, 0.225388
7374.33, 0.224353
7384.83, 0.223262
7395.37, 0.222227
7405.93, 0.221028
7416.53, 0.219556
7427.15, 0.218193
7437.81, 0.216612
7448.5, 0.214923
7459.22, 0.212633
7469.96, 0.210562
7480.74, 0.208872
7491.55, 0.207237
7502.39, 0.205329
7513.27, 0.203422
7524.17, 0.201241
7535.11, 0.199116
7546.08, 0.196826
7557.08, 0.194700
7568.11, 0.192411
7579.17, 0.190176
7590.27, 0.187996
7601.4, 0.185761
7612.56, 0.183199
7623.76, 0.180583
7634.98, 0.177967
7646.24, 0.175677
7657.54, 0.173279
7668.87, 0.170935
7680.23, 0.168646
7691.62, 0.166411
7703.05, 0.164176
7714.51, 0.161942
7726.01, 0.159598
7737.54, 0.157254
7749.11, 0.154747
7760.71, 0.152403
7772.35, 0.150004
7784.02, 0.147661
7795.72, 0.145044
7807.46, 0.142482
7819.23, 0.139703
7831.04, 0.136814
7842.89, 0.133870
7854.77, 0.130981
7866.69, 0.127929
7878.65, 0.124986
7890.64, 0.121770
7902.67, 0.118772
7914.74, 0.115774
7926.84, 0.112885
7938.98, 0.109996
7951.16, 0.107162
7963.37, 0.104109
7975.62, 0.101111
7987.91, 0.0980040
8000.24, 0.0949520
8012.6, 0.0916810
8025.01, 0.0885750
8037.45, 0.0854130
8049.93, 0.0824700
8062.45, 0.0796350
8075.01, 0.0769100
8087.61, 0.0739670
8100.24, 0.0711870
8112.91, 0.0684610
8125.63, 0.0659540
8138.39, 0.0631740
8151.18, 0.0604490
8164.02, 0.0575050
8176.9, 0.0547250
8189.81, 0.0520550
8202.77, 0.0496020
8215.77, 0.0469310
8228.82, 0.0444240
8241.9, 0.0416440
8255.02, 0.0389730
8268.19, 0.0364650
8281.39, 0.0342850
8294.65, 0.0318320
8307.94, 0.0297070
8321.28, 0.0276900
8334.66, 0.0258910
8348.08, 0.0240920
8361.54, 0.0226750
8375.05, 0.0211490
8388.6, 0.0198950
8402.2, 0.0188050
8415.84, 0.0179330
8429.52, 0.0173880
8443.25, 0.0173330
8457.02, 0.0171700
8470.84, 0.0173880
8484.7, 0.0177690
8498.61, 0.0185870
8512.57, 0.0195680
8526.57, 0.0211490
8540.62, 0.0230020
8554.71, 0.0255640
8568.85, 0.0285070
8583.04, 0.0319410
8597.27, 0.0360290
8611.55, 0.0408260
8625.88, 0.0461130
8640.26, 0.0524360
8654.68, 0.0595770
8669.16, 0.0677530
8683.68, 0.0764190
8698.25, 0.0860670
8712.87, 0.0968050
8727.53, 0.108797
8742.25, 0.121770
8757.02, 0.135778
8771.83, 0.150713
8786.7, 0.166902
8801.62, 0.183963
8816.59, 0.202113
8831.61, 0.221137
8846.68, 0.240814
8861.8, 0.260709
8876.97, 0.281040
8892.2, 0.301317
8907.48, 0.321267
8922.81, 0.341271
8938.2, 0.361003
8953.63, 0.380298
8969.13, 0.399267
8984.67, 0.416927
9000.27, 0.432625
9015.92, 0.446198
9031.63, 0.457644
9047.39, 0.467129
9063.21, 0.475305
9079.08, 0.483699
9095.01, 0.492693
9111.0, 0.502558
9127.04, 0.512860
9143.13, 0.523162
9159.28, 0.533192
9175.49, 0.542349
9191.76, 0.549380
9208.09, 0.554558
9224.47, 0.557992
9240.92, 0.559355
9257.42, 0.558483
9273.98, 0.556630
9290.6, 0.553959
9307.28, 0.551179
9324.02, 0.548236
9340.82, 0.545074
9357.68, 0.542349
9374.6, 0.540169
9391.58, 0.538315
9408.62, 0.537171
9425.73, 0.536735
9442.9, 0.537007
9460.13, 0.537934
9477.42, 0.539405
9494.78, 0.541586
9512.2, 0.544148
9529.69, 0.547254
9547.24, 0.551833
9564.86, 0.558047
9582.54, 0.566223
9600.28, 0.576252
9618.1, 0.588626
9635.97, 0.602470
9653.92, 0.617460
9671.93, 0.633158
9690.01, 0.649020
9708.16, 0.664391
9726.37, 0.679380
9744.65, 0.693334
9763.0, 0.706089
9781.43, 0.715737
9799.92, 0.720479
9818.48, 0.718081
9837.1, 0.707779
9855.8, 0.690227
9874.58, 0.667443
9893.42, 0.641389
9912.34, 0.613699
9931.33, 0.585628
9950.39, 0.558483
9969.52, 0.532483
9988.74, 0.508118
10008.0, 0.485225
10027.4, 0.463858
10046.8, 0.443908
10066.3, 0.425703
10085.9, 0.409514
10105.6, 0.395070
10125.3, 0.382588
10145.1, 0.372340
10165.0, 0.365036
10185.0, 0.360403
10205.0, 0.357896
10225.2, 0.357351
10245.4, 0.357569
10265.7, 0.357623
10286.0, 0.357242
10306.5, 0.355770
10327.0, 0.352990
10347.6, 0.349174
10368.3, 0.344269
10389.1, 0.338109
10409.9, 0.331133
10430.9, 0.323665
10451.9, 0.315979
10473.0, 0.308512
10494.2, 0.301808
10515.5, 0.296357
10536.9, 0.292378
10558.4, 0.289162
10579.9, 0.286164
10601.5, 0.282784
10623.3, 0.278424
10645.1, 0.273355
10667.0, 0.267631
10689.0, 0.261309
10711.1, 0.255040
10733.2, 0.248990
10755.5, 0.243376
10777.9, 0.238197
10800.3, 0.233837
10822.9, 0.229803
10845.5, 0.226424
10868.2, 0.223862
10891.1, 0.221954
10914.0, 0.220482
10937.0, 0.219556
10960.2, 0.219065
10983.4, 0.219392
11006.7, 0.220319
11030.1, 0.222063
11053.6, 0.224353
11077.3, 0.227623
11101.0, 0.231766
11124.8, 0.237271
11148.7, 0.243921
11172.7, 0.251497
11196.9, 0.259782
11221.1, 0.268340
11245.4, 0.276898
11269.9, 0.285237
11294.4, 0.292814
11319.1, 0.299736
11343.9, 0.305569
11368.8, 0.310638
11393.7, 0.315053
11418.8, 0.318977
11444.0, 0.322357
11469.4, 0.325191
11494.8, 0.327426
11520.3, 0.328625
11546.0, 0.329007
11571.8, 0.328789
11597.7, 0.327481
11623.7, 0.325736
11649.8, 0.323829
11676.0, 0.321485
11702.4, 0.318977
11728.9, 0.316852
11755.5, 0.315107
11782.2, 0.313309
11809.0, 0.311074
11836.0, 0.308675
11863.0, 0.305569
11890.3, 0.301426
11917.6, 0.296302
11945.0, 0.289925
11972.6, 0.281912
12000.4, 0.272919
12028.2, 0.262889
12056.2, 0.251334
12084.3, 0.239015
12112.5, 0.226260
12140.9, 0.213560
12169.4, 0.202223
12198.0, 0.192466
12226.8, 0.184617
12255.7, 0.178348
12284.7, 0.173715
12313.9, 0.170009
12343.2, 0.167120
12372.7, 0.164285
12402.3, 0.162432
12432.0, 0.160960
12461.9, 0.159325
12491.9, 0.157853
12522.1, 0.157090
12552.4, 0.156436
12582.9, 0.156273
12613.5, 0.155728
12644.3, 0.154420
12675.2, 0.152512
12706.3, 0.149405
12737.5, 0.144935
12768.9, 0.139539
12800.4, 0.133325
12832.1, 0.126730
12863.9, 0.120625
12895.9, 0.115937
12928.1, 0.112285
12960.4, 0.109669
12992.9, 0.107271
13025.5, 0.105090
13058.3, 0.102528
13091.3, 0.100239
13124.4, 0.0982220
13157.8, 0.0961510
13191.2, 0.0933710
13224.9, 0.0907550
13258.7, 0.0882480
13292.7, 0.0864490
13326.9, 0.0843770
13361.2, 0.0820880
13395.7, 0.0798530
13430.4, 0.0779460
13465.3, 0.0763650
13500.4, 0.0756020
13535.7, 0.0756560
13571.1, 0.0763100
13606.7, 0.0776190
13642.5, 0.0795810
13678.5, 0.0816520
13714.7, 0.0835600
13751.1, 0.0850860
13787.6, 0.0865030
13824.4, 0.0874300
13861.4, 0.0883570
13898.5, 0.0886290
13935.9, 0.0884660
13973.5, 0.0885750
14011.2, 0.0891200
14049.2, 0.0897190
14087.4, 0.0904280
14125.8, 0.0909180
14164.3, 0.0910820
14203.2, 0.0908090
14242.2, 0.0903190
14281.4, 0.0890650
14320.9, 0.0876480
14360.5, 0.0856310
14400.4, 0.0838870
14440.5, 0.0821430
14480.9, 0.0809440
14521.4, 0.0802350
14562.2, 0.0798530
14603.3, 0.0791450
14644.5, 0.0786000
14686.0, 0.0778370
14727.7, 0.0770190
14769.7, 0.0763650
14811.9, 0.0763650
14854.3, 0.0755470
14897.0, 0.0744570
14939.9, 0.0733670
14983.1, 0.0732580
15026.5, 0.0744030
15070.2, 0.0756560
15114.2, 0.0761470
15158.3, 0.0766370
15202.8, 0.0772370
15247.5, 0.0777280
15292.5, 0.0778370
15337.7, 0.0778910
15383.2, 0.0779460
15429.0, 0.0779460
15475.1, 0.0773460
15521.4, 0.0768010
15568.0, 0.0756560
15614.9, 0.0746210
15662.1, 0.0741850
15709.6, 0.0741850
15757.3, 0.0739670
15805.4, 0.0736940
15853.7, 0.0729850
15902.3, 0.0732030
15951.2, 0.0739120
16000.5, 0.0748930
16050.0, 0.0757650
16099.8, 0.0766370
16150.0, 0.0773460
16200.5, 0.0781090
16251.3, 0.0792540
16302.4, 0.0805070
16353.8, 0.0811620
16405.5, 0.0821970
16457.6, 0.0835050
16510.0, 0.0846500
16562.8, 0.0850320
16615.9, 0.0856310
16669.3, 0.0856860
16723.1, 0.0861760
16777.2, 0.0867760
16831.7, 0.0872120
16886.5, 0.0874300
16941.7, 0.0884660
16997.2, 0.0907550
17053.1, 0.0950060
17109.4, 0.100839
17166.1, 0.110105
17223.1, 0.123241
17280.5, 0.141610
17338.3, 0.165539
17396.5, 0.194864
17455.1, 0.228604
17514.0, 0.267413
17573.4, 0.308512
17633.2, 0.351137
17693.4, 0.394198
17754.0, 0.437204
17815.0, 0.479556
17876.4, 0.521472
17938.3, 0.560663
18000.5, 0.596911
18063.3, 0.630651
18126.4, 0.660085
18190.0, 0.685649
18254.1, 0.707452
18318.6, 0.725058
18383.5, 0.738467
18449.0, 0.748496
18514.9, 0.755309
18581.2, 0.759016
18648.0, 0.759234
18715.4, 0.758416
18783.2, 0.756127
18851.5, 0.751984
18920.3, 0.746425
18989.6, 0.739938
19059.4, 0.736559
19129.7, 0.735687
19200.6, 0.735305
19272.0, 0.735632
19343.9, 0.736613
19416.3, 0.738957
19489.3, 0.740156
19562.8, 0.740211
19637.0, 0.739230
19711.6, 0.739066
19786.8, 0.742718
19862.6, 0.746479
19939.0, 0.749859
20016.0, 0.752420
20093.6, 0.746806
20171.8, 0.735905
20250.6, 0.721569
20330.0, 0.709196
20410.0, 0.702328
20490.7, 0.702055
20572.0, 0.708051
20654.0, 0.718517
20736.6, 0.732307
20819.9, 0.746588
20903.8, 0.759125
20988.5, 0.767846
21073.8, 0.770789
21159.8, 0.770844
21246.5, 0.768391
21334.0, 0.768737
21422.1, 0.755258
21511.0, 0.749992
21600.7, 0.740094
21691.0, 0.713135
21782.1, 0.694391
21874.0, 0.683018
21966.7, 0.660271
22060.2, 0.635630
22154.5, 0.621940
22249.6, 0.610777
22345.5, 0.603617
22442.2, 0.601300
22539.8, 0.598141
22638.2, 0.586557
22737.5, 0.570761
22837.7, 0.562126
22938.7, 0.554333
23040.7, 0.538958
23143.5, 0.528006
23247.3, 0.516423
23352.1, 0.498731
23457.7, 0.486095
23564.4, 0.477038
23672.0, 0.467139
23780.5, 0.453871
23890.1, 0.438707
24000.7, 0.433441
24112.3, 0.425017
24225.0, 0.424174
24338.7, 0.425649
24453.5, 0.420173
24569.4, 0.417645
24686.4, 0.424385
24804.5, 0.427334
24923.8, 0.419120
25044.2, 0.417645
25165.8, 0.422279
25288.6, 0.426281
25412.5, 0.423964
25537.7, 0.413223
25664.1, 0.407747
25791.8, 0.402060
25920.8, 0.396795
26051.1, 0.394899
26182.6, 0.397005
26315.5, 0.405430
26449.8, 0.398058
26585.4, 0.396584
26722.5, 0.407957
26860.9, 0.403956
27000.8, 0.396163
27142.1, 0.399111
27285.0, 0.400796
27429.4, 0.401428
27575.3, 0.407957
27722.7, 0.415750
27871.8, 0.420805
28022.4, 0.424806
28174.7, 0.428176
28328.7, 0.430282
28484.4, 0.433441
28641.7, 0.443340
28800.9, 0.449237
28961.8, 0.449869
29124.5, 0.455766
29289.0, 0.464401
29455.4, 0.470720
29623.8, 0.478302
29794.0, 0.489254
29966.3, 0.498942
30140.5, 0.504207
30316.7, 0.508630
30495.1, 0.509262
30675.5, 0.511789
30858.1, 0.518529
31042.8, 0.517476
31229.8, 0.519793
31419.1, 0.529481
31610.7, 0.531798
31804.6, 0.532851
32000.9, 0.541275
32199.7, 0.541696
32400.9, 0.551806
32604.8, 0.562126
32811.1, 0.567391
33020.1, 0.573920
33231.8, 0.583187
33446.2, 0.589084
33663.4, 0.595403
33883.4, 0.604880
34106.3, 0.614990
34332.1, 0.620676
34561.0, 0.626152
34792.9, 0.630996
35028.0, 0.633313
35266.3, 0.643001
35507.8, 0.651004
35752.7, 0.655638
36001.0, 0.669960
36252.8, 0.689547
36508.1, 0.701130
36767.0, 0.713557
37029.7, 0.719243
37296.1, 0.731880
37566.3, 0.744727
37840.5, 0.756522
38118.8, 0.766420
38401.2, 0.773581
38687.8, 0.785586
38978.6, 0.786429
39273.9, 0.780110
39573.7, 0.779478
39878.1, 0.774634
40187.3, 0.770422
40501.2, 0.780742
40820.0, 0.803909
41144.0, 0.831921
41473.2, 0.856984
41807.6, 0.878045
42147.5, 0.899107
42493.0, 0.913849
42844.2, 0.924801
43201.2, 0.936595
43564.3, 0.955972
43933.5, 0.962290
44309.0, 0.950917
44691.0, 0.947126
45079.6, 0.946705
45475.0, 0.939544
45877.5, 0.935753
46287.1, 0.949232
46704.2, 0.969241
47128.7, 0.996620
47561.1,0.0102505
48001.5,0.0103453
48450.1,0.0104274
48907.2,0.010499
49373.0,0.010617
49847.7,0.010796
50331.5,0.0109982
50825.0,0.0110593
51328.2,0.0112657
51841.5,0.0114152
52365.1,0.0112699
52899.4,0.0113963
53444.8,0.0114974
54001.5,0.0115479
54570.1,0.0115226
55150.6,0.0114152
55743.6,0.0113731
56349.5,0.0112404
56968.7,0.0110319
57601.7,0.0108023
58248.9,0.0103664
58910.9, 0.964396
59588.1, 0.870252
60281.0, 0.762629
60990.2, 0.646160
61716.3, 0.571393
62459.8, 0.546540
63221.6, 0.529691
64002.1, 0.493466
64802.1, 0.596245
65622.1, 0.716505
66463.4, 0.658376
67326.6, 0.667222
68212.4, 0.695654
69121.9, 0.711450
70056.0, 0.717979
71015.7, 0.731459
72002.0, 0.758628
73016.3, 0.793589
74059.4, 0.816757
75132.7, 0.829604
76237.6, 0.834027
77375.5, 0.855720
78547.9, 0.830657
79756.3, 0.803488
81002.5, 0.804963
82288.5, 0.815704
83615.7, 0.786639
84986.5, 0.738830
86402.9, 0.687651
87867.4, 0.660271
89382.4, 0.607197
90950.5, 0.524005
92574.6, 0.429650
94257.2, 0.357621
96002.7, 0.297807
97814.1, 0.249366
99695.1, 0.173966
101650.0, 0.160908
103683.0, 0.168069
105799.0, 0.212087
108003.0, 0.285170
110301.0, 0.358463
112699.0, 0.370257
115204.0, 0.382262
117822.0, 0.423332
120562.0, 0.488833
123433.0, 0.493255
126443.0, 0.504418
129604.0, 0.541065
132926.0, 0.628048
136424.0, 0.690600
140111.0, 0.630154
144003.0, 0.666379
148118.0, 0.791062
152474.0, 0.800118
157095.0, 0.853614
162004.0, 0.824549
167231.0, 0.823707
172805.0, 0.814019
178764.0, 0.890893
185148.0, 0.937859
192005.0, 0.130580
199390.0,0.040484
207366.0,0.0308969
216006.0, 0.808332
