Database of Origin, USGS Spectral Database
Sample Description, See USGS database for additional info
Date Added,2016-08-10 02:56:42.731167

Data ID,USGS_heu02          
Sample ID, heulandite_gds3.9800
Mineral Name, heulandite
Material Class,Tectosilicate

Wavelength
1602.52, 0.315984
1603.02, 0.316540
1603.51, 0.316754
1604.01, 0.317182
1604.5, 0.317438
1605.0, 0.318080
1605.5, 0.318508
1606.0, 0.318978
1606.49, 0.319150
1606.99, 0.319791
1607.49, 0.320305
1607.99, 0.320904
1608.49, 0.321075
1608.99, 0.321374
1609.49, 0.321588
1609.99, 0.322187
1610.49, 0.322529
1610.99, 0.323385
1611.49, 0.323727
1611.99, 0.324027
1612.49, 0.324155
1612.99, 0.324540
1613.49, 0.324540
1614.0, 0.324797
1614.5, 0.325182
1615.0, 0.325995
1615.51, 0.326337
1616.01, 0.326765
1616.51, 0.327107
1617.02, 0.327406
1617.52, 0.327749
1618.03, 0.328134
1618.53, 0.328134
1619.04, 0.328433
1619.54, 0.328604
1620.05, 0.328861
1620.55, 0.328904
1621.06, 0.329588
1621.57, 0.330230
1622.08, 0.330829
1622.58, 0.330957
1623.09, 0.331257
1623.6, 0.331385
1624.11, 0.332069
1624.62, 0.332369
1625.13, 0.332455
1625.64, 0.332754
1626.15, 0.333396
1626.66, 0.333738
1627.17, 0.334209
1627.68, 0.334166
1628.19, 0.334551
1628.7, 0.334679
1629.21, 0.335021
1629.72, 0.335321
1630.24, 0.335749
1630.75, 0.336005
1631.26, 0.336519
1631.78, 0.336647
1632.29, 0.336818
1632.8, 0.337075
1633.32, 0.337374
1633.83, 0.337460
1634.35, 0.337802
1634.86, 0.338102
1635.38, 0.338658
1635.9, 0.338957
1636.41, 0.339300
1636.93, 0.339257
1637.45, 0.339770
1637.96, 0.340241
1638.48, 0.340241
1639.0, 0.340241
1639.52, 0.340754
1640.04, 0.341182
1640.56, 0.341695
1641.08, 0.341824
1641.59, 0.341695
1642.11, 0.341781
1642.63, 0.342508
1643.16, 0.342679
1643.68, 0.342893
1644.2, 0.342765
1644.72, 0.343321
1645.24, 0.343663
1645.76, 0.344134
1646.29, 0.344519
1646.81, 0.344519
1647.33, 0.344562
1647.86, 0.345203
1648.38, 0.345546
1648.9, 0.345631
1649.43, 0.345588
1649.95, 0.345888
1650.48, 0.346316
1651.0, 0.347043
1651.53, 0.346957
1652.06, 0.346872
1652.58, 0.346915
1653.11, 0.347471
1653.64, 0.347856
1654.17, 0.348241
1654.69, 0.348369
1655.22, 0.348711
1655.75, 0.348754
1656.28, 0.349011
1656.81, 0.349096
1657.34, 0.349353
1657.87, 0.349653
1658.4, 0.350380
1658.93, 0.350508
1659.46, 0.350722
1659.99, 0.350851
1660.52, 0.351022
1661.05, 0.351364
1661.59, 0.351535
1662.12, 0.351407
1662.65, 0.351706
1663.19, 0.352048
1663.72, 0.352605
1664.26, 0.352733
1664.79, 0.353032
1665.32, 0.353332
1665.86, 0.353503
1666.39, 0.353332
1666.93, 0.353845
1667.47, 0.354016
1668.0, 0.354316
1668.54, 0.354744
1669.08, 0.355086
1669.61, 0.354786
1670.15, 0.355086
1670.69, 0.355428
1671.23, 0.356155
1671.77, 0.356070
1672.31, 0.356070
1672.85, 0.356412
1673.39, 0.357097
1673.93, 0.356840
1674.47, 0.356926
1675.01, 0.357097
1675.55, 0.357567
1676.09, 0.357610
1676.64, 0.357610
1677.18, 0.357653
1677.72, 0.358081
1678.26, 0.358209
1678.81, 0.358637
1679.35, 0.358680
1679.89, 0.358893
1680.44, 0.359150
1680.98, 0.359236
1681.53, 0.359107
1682.07, 0.359321
1682.62, 0.359535
1683.17, 0.359877
1683.71, 0.359920
1684.26, 0.360134
1684.81, 0.360434
1685.36, 0.360776
1685.9, 0.360904
1686.45, 0.361246
1687.0, 0.361375
1687.55, 0.361460
1688.1, 0.361460
1688.65, 0.361589
1689.2, 0.361503
1689.75, 0.361888
1690.3, 0.361974
1690.85, 0.362359
1691.41, 0.362444
1691.96, 0.362487
1692.51, 0.362359
1693.06, 0.362573
1693.61, 0.362744
1694.17, 0.363000
1694.72, 0.362915
1695.28, 0.363000
1695.83, 0.363043
1696.39, 0.363386
1696.94, 0.363514
1697.5, 0.363770
1698.05, 0.363685
1698.61, 0.363599
1699.17, 0.363685
1699.72, 0.364156
1700.28, 0.364327
1700.84, 0.364455
1701.4, 0.364327
1701.95, 0.364412
1702.51, 0.364412
1703.07, 0.364541
1703.63, 0.364626
1704.19, 0.364840
1704.75, 0.364797
1705.31, 0.364968
1705.88, 0.364926
1706.44, 0.364926
1707.0, 0.364883
1707.56, 0.365097
1708.12, 0.364968
1708.69, 0.364926
1709.25, 0.365011
1709.81, 0.365353
1710.38, 0.365140
1710.94, 0.365182
1711.51, 0.365268
1712.07, 0.365567
1712.64, 0.365396
1713.2, 0.365353
1713.77, 0.365182
1714.34, 0.365311
1714.9, 0.365525
1715.47, 0.365910
1716.04, 0.365738
1716.61, 0.365653
1717.18, 0.365696
1717.74, 0.365867
1718.31, 0.365738
1718.88, 0.365867
1719.45, 0.365995
1720.02, 0.366166
1720.59, 0.366166
1721.17, 0.366295
1721.74, 0.365995
1722.31, 0.366038
1722.88, 0.366209
1723.45, 0.366466
1724.03, 0.366509
1724.6, 0.366466
1725.18, 0.366166
1725.75, 0.366380
1726.33, 0.366337
1726.9, 0.366466
1727.48, 0.366295
1728.05, 0.366337
1728.63, 0.366337
1729.2, 0.366509
1729.78, 0.366252
1730.36, 0.366380
1730.94, 0.366209
1731.51, 0.366209
1732.09, 0.366337
1732.67, 0.366509
1733.25, 0.366337
1733.83, 0.366209
1734.41, 0.366380
1734.99, 0.366637
1735.57, 0.366551
1736.15, 0.366594
1736.73, 0.366637
1737.32, 0.366894
1737.9, 0.366680
1738.48, 0.366722
1739.07, 0.366594
1739.65, 0.366551
1740.23, 0.366551
1740.82, 0.366765
1741.4, 0.366637
1741.99, 0.366680
1742.57, 0.366551
1743.16, 0.366637
1743.74, 0.366680
1744.33, 0.366722
1744.92, 0.366594
1745.51, 0.366722
1746.09, 0.366594
1746.68, 0.366851
1747.27, 0.366936
1747.86, 0.366936
1748.45, 0.366851
1749.04, 0.366979
1749.63, 0.366851
1750.22, 0.366808
1750.81, 0.366551
1751.4, 0.366551
1751.99, 0.366637
1752.59, 0.366979
1753.18, 0.367065
1753.77, 0.366936
1754.37, 0.366594
1754.96, 0.366851
1755.56, 0.367022
1756.15, 0.366851
1756.74, 0.366680
1757.34, 0.366894
1757.94, 0.366894
1758.53, 0.367022
1759.13, 0.366808
1759.73, 0.366551
1760.32, 0.366594
1760.92, 0.366765
1761.52, 0.366423
1762.12, 0.366466
1762.72, 0.366680
1763.32, 0.366680
1763.92, 0.366466
1764.52, 0.366680
1765.12, 0.366637
1765.72, 0.366722
1766.32, 0.366509
1766.92, 0.366637
1767.53, 0.366722
1768.13, 0.366594
1768.73, 0.366295
1769.34, 0.366380
1769.94, 0.366209
1770.55, 0.366124
1771.15, 0.366252
1771.76, 0.366295
1772.36, 0.366295
1772.97, 0.366551
1773.57, 0.366380
1774.18, 0.366252
1774.79, 0.366209
1775.4, 0.366380
1776.0, 0.366252
1776.61, 0.366166
1777.22, 0.365910
1777.83, 0.365653
1778.44, 0.365525
1779.05, 0.365696
1779.66, 0.365781
1780.27, 0.365824
1780.88, 0.365525
1781.5, 0.365567
1782.11, 0.365738
1782.72, 0.365824
1783.33, 0.365610
1783.95, 0.365610
1784.56, 0.365439
1785.18, 0.365439
1785.79, 0.365225
1786.41, 0.365353
1787.02, 0.365225
1787.64, 0.365140
1788.26, 0.365097
1788.87, 0.365011
1789.49, 0.364883
1790.11, 0.364926
1790.73, 0.364840
1791.35, 0.364926
1791.96, 0.364669
1792.58, 0.364797
1793.21, 0.364883
1793.83, 0.364840
1794.45, 0.364797
1795.07, 0.364968
1795.69, 0.364797
1796.31, 0.364669
1796.93, 0.364583
1797.56, 0.364797
1798.18, 0.364968
1798.8, 0.364840
1799.43, 0.364669
1800.05, 0.364840
1800.68, 0.364883
1801.3, 0.365011
1801.93, 0.364840
1802.56, 0.364840
1803.18, 0.364755
1803.81, 0.364968
1804.44, 0.364840
1805.07, 0.364712
1805.7, 0.364626
1806.33, 0.364755
1806.95, 0.364626
1807.58, 0.364712
1808.22, 0.364669
1808.85, 0.364968
1809.48, 0.365140
1810.11, 0.365140
1810.74, 0.365011
1811.38, 0.364926
1812.01, 0.364755
1812.64, 0.364883
1813.28, 0.364926
1813.91, 0.365054
1814.55, 0.364926
1815.18, 0.364968
1815.82, 0.364926
1816.45, 0.365054
1817.09, 0.365268
1817.73, 0.365353
1818.36, 0.365268
1819.0, 0.365482
1819.64, 0.365311
1820.28, 0.365182
1820.92, 0.365225
1821.56, 0.365182
1822.2, 0.365268
1822.84, 0.365439
1823.48, 0.365439
1824.12, 0.365525
1824.76, 0.365482
1825.41, 0.365610
1826.05, 0.365311
1826.69, 0.365439
1827.34, 0.365482
1827.98, 0.365567
1828.63, 0.365567
1829.27, 0.365653
1829.92, 0.365482
1830.56, 0.365439
1831.21, 0.365482
1831.86, 0.365439
1832.5, 0.365182
1833.15, 0.365439
1833.8, 0.365353
1834.45, 0.365268
1835.1, 0.365353
1835.75, 0.365054
1836.4, 0.364755
1837.05, 0.364712
1837.7, 0.364669
1838.35, 0.365011
1839.01, 0.364669
1839.66, 0.364370
1840.31, 0.364455
1840.96, 0.364455
1841.62, 0.364113
1842.27, 0.364284
1842.93, 0.364070
1843.58, 0.363856
1844.24, 0.363599
1844.9, 0.363386
1845.55, 0.363172
1846.21, 0.362701
1846.87, 0.362059
1847.53, 0.362102
1848.18, 0.362016
1848.84, 0.362102
1849.5, 0.361760
1850.16, 0.361460
1850.82, 0.360990
1851.48, 0.360733
1852.14, 0.360177
1852.81, 0.359749
1853.47, 0.359236
1854.13, 0.359150
1854.8, 0.358808
1855.46, 0.358123
1856.12, 0.357268
1856.79, 0.357054
1857.45, 0.356583
1858.12, 0.356027
1858.79, 0.355171
1859.45, 0.354444
1860.12, 0.354059
1860.79, 0.353460
1861.46, 0.352776
1862.12, 0.352177
1862.79, 0.351278
1863.46, 0.350508
1864.13, 0.349567
1864.8, 0.348797
1865.48, 0.347899
1866.15, 0.347214
1866.82, 0.345931
1867.49, 0.344690
1868.16, 0.343706
1868.84, 0.342636
1869.51, 0.341310
1870.19, 0.340112
1870.86, 0.338829
1871.54, 0.337717
1872.21, 0.336048
1872.89, 0.334551
1873.56, 0.333182
1874.24, 0.331813
1874.92, 0.330102
1875.6, 0.328519
1876.28, 0.326551
1876.96, 0.324754
1877.64, 0.322743
1878.32, 0.320818
1879.0, 0.318850
1879.68, 0.316797
1880.36, 0.314486
1881.04, 0.312262
1881.73, 0.309695
1882.41, 0.307299
1883.09, 0.304689
1883.78, 0.301823
1884.46, 0.299042
1885.15, 0.296090
1885.83, 0.292839
1886.52, 0.289801
1887.21, 0.286678
1887.89, 0.283341
1888.58, 0.279791
1889.27, 0.276154
1889.96, 0.272218
1890.65, 0.268582
1891.34, 0.264603
1892.03, 0.260667
1892.72, 0.256817
1893.41, 0.253009
1894.1, 0.248902
1894.79, 0.244924
1895.49, 0.240859
1896.18, 0.236924
1896.87, 0.232688
1897.57, 0.228710
1898.26, 0.224645
1898.96, 0.220667
1899.65, 0.216859
1900.35, 0.213650
1901.05, 0.210271
1901.74, 0.206891
1902.44, 0.203682
1903.14, 0.201158
1903.84, 0.198591
1904.54, 0.196025
1905.24, 0.193672
1905.94, 0.191875
1906.64, 0.189950
1907.34, 0.188324
1908.04, 0.186570
1908.75, 0.184901
1909.45, 0.183361
1910.15, 0.182292
1910.86, 0.181222
1911.56, 0.180495
1912.27, 0.179639
1912.97, 0.178955
1913.68, 0.178484
1914.39, 0.178356
1915.09, 0.178099
1915.8, 0.178014
1916.51, 0.178099
1917.22, 0.178399
1917.93, 0.178741
1918.64, 0.179383
1919.35, 0.179725
1920.06, 0.180195
1920.77, 0.181051
1921.48, 0.182292
1922.19, 0.183276
1922.91, 0.184345
1923.62, 0.185115
1924.33, 0.186228
1925.05, 0.187297
1925.76, 0.188623
1926.48, 0.189778
1927.19, 0.191147
1927.91, 0.192345
1928.63, 0.193800
1929.35, 0.195083
1930.07, 0.196538
1930.78, 0.197821
1931.5, 0.199233
1932.22, 0.200559
1932.94, 0.202014
1933.66, 0.203255
1934.39, 0.204709
1935.11, 0.206207
1935.83, 0.207533
1936.55, 0.208773
1937.28, 0.210100
1938.0, 0.211169
1938.73, 0.212495
1939.45, 0.213736
1940.18, 0.215062
1940.9, 0.216175
1941.63, 0.217501
1942.36, 0.218570
1943.09, 0.219811
1943.81, 0.221009
1944.54, 0.222121
1945.27, 0.223020
1946.0, 0.224132
1946.73, 0.225159
1947.47, 0.226357
1948.2, 0.227341
1948.93, 0.228239
1949.66, 0.229137
1950.4, 0.230292
1951.13, 0.231148
1951.86, 0.232132
1952.6, 0.232859
1953.34, 0.233801
1954.07, 0.234613
1954.81, 0.235597
1955.55, 0.236282
1956.29, 0.237137
1957.02, 0.238036
1957.76, 0.238934
1958.5, 0.239533
1959.24, 0.240218
1959.98, 0.240902
1960.72, 0.241843
1961.47, 0.242528
1962.21, 0.243255
1962.95, 0.244068
1963.7, 0.244881
1964.44, 0.245352
1965.18, 0.245993
1965.93, 0.246678
1966.67, 0.247491
1967.42, 0.247961
1968.17, 0.248688
1968.92, 0.249245
1969.66, 0.250057
1970.41, 0.250699
1971.16, 0.251384
1971.91, 0.251897
1972.66, 0.252496
1973.41, 0.253138
1974.16, 0.253951
1974.92, 0.254421
1975.67, 0.255020
1976.42, 0.255576
1977.18, 0.256304
1977.93, 0.256945
1978.69, 0.257758
1979.44, 0.258314
1980.2, 0.259042
1980.95, 0.259769
1981.71, 0.260667
1982.47, 0.261138
1983.23, 0.261694
1983.99, 0.262336
1984.74, 0.263149
1985.51, 0.263790
1986.27, 0.264518
1987.03, 0.265202
1987.79, 0.265972
1988.55, 0.266785
1989.32, 0.267512
1990.08, 0.268026
1990.84, 0.268881
1991.61, 0.269609
1992.37, 0.270464
1993.14, 0.271063
1993.9, 0.271919
1994.67, 0.272774
1995.44, 0.273673
1996.21, 0.274315
1996.98, 0.274999
1997.75, 0.275726
1998.52, 0.276753
1999.29, 0.277480
2000.06, 0.278208
2000.83, 0.278807
2001.6, 0.279705
2002.38, 0.280518
2003.15, 0.281374
2003.93, 0.282229
2004.7, 0.283085
2005.48, 0.283684
2006.25, 0.284497
2007.03, 0.285181
2007.81, 0.286037
2008.58, 0.286764
2009.36, 0.287491
2010.14, 0.288133
2010.92, 0.288903
2011.7, 0.289716
2012.48, 0.290657
2013.26, 0.291427
2014.05, 0.292154
2014.83, 0.292796
2015.61, 0.293566
2016.4, 0.294165
2017.18, 0.295064
2017.97, 0.295705
2018.75, 0.296304
2019.54, 0.296903
2020.32, 0.297759
2021.11, 0.298572
2021.9, 0.299384
2022.69, 0.299898
2023.48, 0.300582
2024.27, 0.301267
2025.06, 0.301909
2025.85, 0.302294
2026.64, 0.302978
2027.44, 0.303663
2028.23, 0.304347
2029.02, 0.304946
2029.82, 0.305545
2030.61, 0.306230
2031.41, 0.306957
2032.2, 0.307427
2033.0, 0.308026
2033.8, 0.308582
2034.6, 0.309010
2035.4, 0.309524
2036.2, 0.310251
2037.0, 0.310722
2037.8, 0.311278
2038.6, 0.311748
2039.4, 0.312347
2040.2, 0.312689
2041.01, 0.313117
2041.81, 0.313545
2042.61, 0.314144
2043.42, 0.314572
2044.22, 0.315085
2045.03, 0.315556
2045.84, 0.316155
2046.65, 0.316411
2047.46, 0.316797
2048.26, 0.317096
2049.07, 0.317481
2049.88, 0.317823
2050.69, 0.318294
2051.51, 0.318679
2052.32, 0.319150
2053.13, 0.319663
2053.94, 0.320176
2054.76, 0.320219
2055.57, 0.320390
2056.39, 0.320690
2057.2, 0.321160
2058.02, 0.321502
2058.84, 0.321888
2059.66, 0.322230
2060.48, 0.322529
2061.29, 0.322615
2062.11, 0.322872
2062.94, 0.323128
2063.76, 0.323599
2064.58, 0.323855
2065.4, 0.324155
2066.22, 0.324326
2067.05, 0.324497
2067.87, 0.324754
2068.7, 0.325053
2069.52, 0.325096
2070.35, 0.325481
2071.18, 0.325652
2072.0, 0.325995
2072.83, 0.326166
2073.66, 0.326337
2074.49, 0.326422
2075.32, 0.326593
2076.15, 0.326765
2076.98, 0.327150
2077.82, 0.327321
2078.65, 0.327492
2079.48, 0.327791
2080.32, 0.328134
2081.15, 0.328219
2081.99, 0.328476
2082.83, 0.328561
2083.66, 0.328775
2084.5, 0.328861
2085.34, 0.329118
2086.18, 0.329417
2087.02, 0.329759
2087.86, 0.329717
2088.7, 0.329802
2089.54, 0.330059
2090.39, 0.330401
2091.23, 0.330529
2092.07, 0.330743
2092.92, 0.330914
2093.76, 0.331214
2094.61, 0.331342
2095.45, 0.331556
2096.3, 0.331770
2097.15, 0.332241
2098.0, 0.332497
2098.85, 0.332626
2099.7, 0.332797
2100.55, 0.333182
2101.4, 0.333438
2102.25, 0.333866
2103.1, 0.334037
2103.96, 0.334294
2104.81, 0.334465
2105.67, 0.334636
2106.52, 0.334893
2107.38, 0.335150
2108.24, 0.335406
2109.09, 0.335749
2109.95, 0.336005
2110.81, 0.336348
2111.67, 0.336390
2112.53, 0.336647
2113.39, 0.336947
2114.25, 0.337246
2115.12, 0.337503
2115.98, 0.337931
2116.84, 0.338102
2117.71, 0.338316
2118.58, 0.338615
2119.44, 0.338957
2120.31, 0.339214
2121.18, 0.339513
2122.04, 0.339642
2122.91, 0.339770
2123.78, 0.339770
2124.65, 0.340198
2125.52, 0.340669
2126.4, 0.341054
2127.27, 0.341182
2128.14, 0.341310
2129.02, 0.341481
2129.89, 0.341738
2130.77, 0.341781
2131.64, 0.342080
2132.52, 0.342380
2133.4, 0.342679
2134.27, 0.342765
2135.15, 0.343022
2136.03, 0.343235
2136.91, 0.343535
2137.79, 0.343749
2138.68, 0.343963
2139.56, 0.344048
2140.44, 0.344348
2141.33, 0.344562
2142.21, 0.344647
2143.1, 0.344690
2143.99, 0.345075
2144.87, 0.345203
2145.76, 0.345460
2146.65, 0.345503
2147.54, 0.345717
2148.43, 0.345888
2149.32, 0.346187
2150.21, 0.346273
2151.1, 0.346316
2151.99, 0.346359
2152.89, 0.346701
2153.78, 0.346744
2154.68, 0.346957
2155.57, 0.347214
2156.47, 0.347556
2157.37, 0.347556
2158.27, 0.347685
2159.16, 0.347770
2160.06, 0.347856
2160.96, 0.347899
2161.86, 0.348113
2162.77, 0.348198
2163.67, 0.348455
2164.57, 0.348455
2165.48, 0.348711
2166.38, 0.348840
2167.29, 0.348925
2168.2, 0.348883
2169.1, 0.349054
2170.01, 0.349225
2170.92, 0.349396
2171.83, 0.349482
2172.74, 0.349738
2173.65, 0.349738
2174.56, 0.349653
2175.47, 0.349610
2176.39, 0.349909
2177.3, 0.350080
2178.22, 0.350252
2179.13, 0.350294
2180.05, 0.350380
2180.96, 0.350380
2181.88, 0.350423
2182.8, 0.350466
2183.72, 0.350637
2184.64, 0.350679
2185.56, 0.350893
2186.48, 0.351022
2187.41, 0.351150
2188.33, 0.351107
2189.25, 0.351064
2190.18, 0.351022
2191.1, 0.351150
2192.03, 0.351150
2192.96, 0.351407
2193.89, 0.351535
2194.82, 0.351663
2195.74, 0.351621
2196.68, 0.351663
2197.61, 0.351578
2198.54, 0.351749
2199.47, 0.351877
2200.4, 0.352091
2201.34, 0.351877
2202.28, 0.351877
2203.21, 0.352006
2204.15, 0.352305
2205.08, 0.352348
2206.02, 0.352433
2206.96, 0.352391
2207.9, 0.352476
2208.84, 0.352476
2209.78, 0.352605
2210.73, 0.352605
2211.67, 0.352733
2212.61, 0.352605
2213.56, 0.352647
2214.5, 0.352776
2215.45, 0.352947
2216.4, 0.352861
2217.35, 0.352990
2218.3, 0.353075
2219.24, 0.353203
2220.2, 0.353246
2221.15, 0.353332
2222.1, 0.353246
2223.05, 0.353332
2224.0, 0.353332
2224.96, 0.353332
2225.91, 0.353203
2226.87, 0.353375
2227.83, 0.353417
2228.79, 0.353503
2229.74, 0.353375
2230.7, 0.353417
2231.66, 0.353460
2232.63, 0.353631
2233.59, 0.353546
2234.55, 0.353503
2235.51, 0.353460
2236.48, 0.353417
2237.44, 0.353289
2238.41, 0.353289
2239.38, 0.353161
2240.34, 0.353118
2241.31, 0.353032
2242.28, 0.353075
2243.25, 0.353032
2244.22, 0.353118
2245.19, 0.353075
2246.17, 0.353032
2247.14, 0.352776
2248.12, 0.352690
2249.09, 0.352608
2250.07, 0.352525
2251.04, 0.352277
2252.02, 0.351906
2253.0, 0.351535
2253.98, 0.351369
2254.96, 0.351287
2255.94, 0.351039
2256.92, 0.350503
2257.91, 0.350296
2258.89, 0.350049
2259.88, 0.350255
2260.86, 0.349966
2261.85, 0.349429
2262.83, 0.349017
2263.82, 0.348769
2264.81, 0.348439
2265.8, 0.348274
2266.79, 0.348067
2267.78, 0.347861
2268.78, 0.347531
2269.77, 0.347283
2270.76, 0.346747
2271.76, 0.346334
2272.75, 0.345962
2273.75, 0.345839
2274.75, 0.345674
2275.75, 0.345591
2276.75, 0.345137
2277.75, 0.344518
2278.75, 0.343981
2279.75, 0.343569
2280.75, 0.343280
2281.76, 0.343032
2282.76, 0.342660
2283.77, 0.342495
2284.77, 0.341752
2285.78, 0.341464
2286.79, 0.341216
2287.8, 0.340349
2288.81, 0.339606
2289.82, 0.339606
2290.83, 0.339317
2291.84, 0.338863
2292.86, 0.338327
2293.87, 0.337831
2294.89, 0.337088
2295.91, 0.336469
2296.92, 0.336057
2297.94, 0.335561
2298.96, 0.335149
2299.98, 0.334612
2301.0, 0.333993
2302.02, 0.333374
2303.04, 0.332713
2304.07, 0.332218
2305.09, 0.331558
2306.12, 0.331021
2307.15, 0.330485
2308.17, 0.329824
2309.2, 0.329164
2310.23, 0.328503
2311.26, 0.327843
2312.29, 0.327306
2313.32, 0.326563
2314.35, 0.325903
2315.39, 0.325284
2316.42, 0.324624
2317.46, 0.323798
2318.5, 0.323055
2319.53, 0.322353
2320.57, 0.321611
2321.61, 0.320785
2322.65, 0.320207
2323.69, 0.319506
2324.73, 0.318763
2325.78, 0.317896
2326.82, 0.317070
2327.86, 0.316121
2328.91, 0.315213
2329.96, 0.314346
2331.01, 0.313479
2332.05, 0.312613
2333.1, 0.311828
2334.15, 0.310797
2335.21, 0.309847
2336.26, 0.309022
2337.31, 0.308196
2338.36, 0.307206
2339.42, 0.306463
2340.48, 0.305472
2341.53, 0.304234
2342.59, 0.303037
2343.65, 0.301799
2344.71, 0.300891
2345.77, 0.300107
2346.83, 0.298910
2347.9, 0.297589
2348.96, 0.296474
2350.02, 0.295484
2351.09, 0.294369
2352.16, 0.293461
2353.23, 0.292264
2354.29, 0.290944
2355.36, 0.289705
2356.43, 0.288632
2357.51, 0.287477
2358.58, 0.286486
2359.65, 0.285124
2360.73, 0.283762
2361.8, 0.282689
2362.88, 0.281616
2363.96, 0.280212
2365.03, 0.278891
2366.11, 0.277571
2367.19, 0.276415
2368.27, 0.275383
2369.36, 0.274351
2370.44, 0.273113
2371.53, 0.271751
2372.61, 0.270265
2373.7, 0.269068
2374.78, 0.267995
2375.87, 0.266839
2376.96, 0.265353
2378.05, 0.264033
2379.14, 0.262918
2380.24, 0.261845
2381.33, 0.260607
2382.42, 0.259451
2383.52, 0.258172
2384.61, 0.257057
2385.71, 0.255819
2386.81, 0.254622
2387.91, 0.253260
2389.01, 0.252311
2390.11, 0.251196
2391.22, 0.249917
2392.32, 0.248720
2393.42, 0.247647
2394.53, 0.246615
2395.64, 0.245418
2396.74, 0.244056
2397.85, 0.242983
2398.96, 0.241868
2400.07, 0.240630
2401.18, 0.239392
2402.3, 0.238319
2403.41, 0.237328
2404.52, 0.236379
2405.64, 0.235141
2406.76, 0.233985
2407.88, 0.232912
2408.99, 0.231839
2410.11, 0.230765
2411.23, 0.229899
2412.36, 0.228908
2413.48, 0.227794
2414.6, 0.226721
2415.73, 0.225895
2416.85, 0.224946
2417.98, 0.223790
2419.11, 0.222758
2420.24, 0.222057
2421.37, 0.221231
2422.5, 0.220323
2423.64, 0.219374
2424.77, 0.218259
2425.9, 0.217145
2427.04, 0.216361
2428.18, 0.215659
2429.31, 0.215122
2430.45, 0.214256
2431.59, 0.213430
2432.73, 0.212605
2433.88, 0.211820
2435.02, 0.211243
2436.16, 0.210541
2437.31, 0.209757
2438.45, 0.209179
2439.6, 0.208477
2440.75, 0.207899
2441.9, 0.207322
2443.05, 0.206414
2444.2, 0.205629
2445.35, 0.204928
2446.51, 0.204309
2447.67, 0.203813
2448.82, 0.203400
2449.98, 0.202905
2451.14, 0.202245
2452.3, 0.201750
2453.46, 0.201172
2454.62, 0.200635
2455.78, 0.200057
2456.94, 0.199562
2458.11, 0.199108
2459.28, 0.198613
2460.44, 0.198035
2461.61, 0.197498
2462.78, 0.197127
2463.95, 0.196838
2465.12, 0.196384
2466.3, 0.195930
2467.47, 0.195517
2468.65, 0.195146
2469.82, 0.194692
2471.0, 0.194403
2472.18, 0.193949
2473.36, 0.193371
2474.54, 0.192834
2475.72, 0.192380
2476.9, 0.191844
2478.08, 0.191431
2479.27, 0.191101
2480.46, 0.190853
2481.64, 0.190440
2482.83, 0.189986
2484.02, 0.189285
2485.21, 0.188666
2486.4, 0.188211
2487.6, 0.187881
2488.79, 0.187386
2489.99, 0.187015
2491.18, 0.186560
2492.38, 0.186065
2493.58, 0.185570
2494.78, 0.185198
2495.98, 0.184456
2497.18, 0.183919
2498.39, 0.183547
2499.59, 0.183217
2500.8, 0.182763
2502.01, 0.182227
2503.21, 0.181525
2504.42, 0.180782
2505.63, 0.180452
2506.84, 0.180122
2508.06, 0.179709
2509.27, 0.179420
2510.49, 0.178966
2511.7, 0.178553
2512.92, 0.177934
2514.14, 0.177356
2515.36, 0.176902
2516.58, 0.176696
2517.8, 0.176324
2519.03, 0.175747
2520.25, 0.175293
2521.48, 0.174921
2522.7, 0.174467
2523.93, 0.174054
2525.16, 0.173683
2526.39, 0.173435
2527.62, 0.173146
2528.86, 0.172857
2530.09, 0.172238
2531.33, 0.171949
2532.56, 0.171619
2533.8, 0.171289
2535.04, 0.171000
2536.28, 0.170670
2537.52, 0.170257
2538.76, 0.169886
2540.01, 0.169432
2541.25, 0.169267
2542.5, 0.169308
2543.75, 0.169101
2544.99, 0.168647
2546.24, 0.168193
2547.49, 0.167781
2548.75, 0.167492
2550.0, 0.167409
2551.26, 0.167409
2552.51, 0.167203
2553.77, 0.166914
2555.03, 0.166542
2556.29, 0.166295
2557.55, 0.166088
2558.81, 0.166047
2560.08, 0.166047
2561.34, 0.166130
2562.61, 0.165882
2563.88, 0.165676
2565.14, 0.165139
2566.41, 0.164644
2567.68, 0.164644
2568.96, 0.164933
2570.23, 0.164768
2571.51, 0.164355
2572.78, 0.164561
2574.06, 0.164396
2575.34, 0.163983
2576.62, 0.164148
2577.9, 0.163818
2579.18, 0.163447
2580.47, 0.163488
2581.75, 0.163199
2583.04, 0.163034
2584.32, 0.162952
2585.61, 0.162663
2586.9, 0.162745
2588.2, 0.162456
2589.49, 0.162167
2590.78, 0.161672
2592.08, 0.161383
2593.37, 0.161920
2594.67, 0.162869
2595.97, 0.161961
2597.27, 0.160764
2598.57, 0.160021
2599.88, 0.159815
2601.18, 0.159815
2602.49, 0.159732
2603.79, 0.159443
2605.1, 0.159484
2606.41, 0.159030
2607.72, 0.158329
2609.03, 0.158040
2610.35, 0.157668
2611.66, 0.157091
2612.98, 0.156843
2614.3, 0.156348
2615.62, 0.156265
2616.94, 0.156306
2618.26, 0.155398
2619.58, 0.154820
2620.91, 0.154532
2622.23, 0.153624
2623.56, 0.152839
2624.89, 0.152220
2626.22, 0.152261
2627.55, 0.151684
2628.88, 0.151106
2630.21, 0.150899
2631.55, 0.149991
2632.89, 0.149001
2634.22, 0.148340
2635.56, 0.147308
2636.9, 0.146524
2638.25, 0.145823
2639.59, 0.145204
2640.93, 0.144502
2642.28, 0.143718
2643.63, 0.142727
2644.98, 0.142190
2646.33, 0.141324
2647.68, 0.140333
2649.03, 0.139466
2650.39, 0.138723
2651.74, 0.137980
2653.1, 0.136907
2654.46, 0.135752
2655.82, 0.134802
2657.18, 0.133647
2658.54, 0.132904
2659.9, 0.131789
2661.27, 0.130551
2662.64, 0.129519
2664.01, 0.128941
2665.38, 0.128033
2666.74, 0.126836
2668.12, 0.125062
2669.49, 0.124030
2670.87, 0.122791
2672.24, 0.120604
2673.62, 0.119036
2675.0, 0.117962
2676.38, 0.116931
2677.76, 0.115445
2679.15, 0.113917
2680.54, 0.112143
2681.92, 0.110450
2683.31, 0.108923
2684.7, 0.107107
2686.09, 0.105374
2687.48, 0.103640
2688.88, 0.101865
2690.27, 0.100008
2691.67, 0.0983980
2693.07, 0.0967890
2694.47, 0.0947660
2695.87, 0.0925370
2697.27, 0.0903500
2698.67, 0.0883270
2700.08, 0.0864290
2701.49, 0.0844060
2702.9, 0.0823840
2704.31, 0.0801960
2705.72, 0.0780910
2707.13, 0.0759040
2708.54, 0.0737990
2709.96, 0.0716520
2711.38, 0.0692590
2712.8, 0.0665340
2714.22, 0.0643060
2715.64, 0.0620770
2717.06, 0.0599720
2718.49, 0.0579910
2719.91, 0.0559680
2721.34, 0.0535740
2722.77, 0.0513870
2724.2, 0.0492400
2725.63, 0.0470120
2727.07, 0.0449480
2728.5, 0.0430910
2729.94, 0.0412330
2731.38, 0.0395820
2732.82, 0.0381790
2734.26, 0.0369410
2735.7, 0.0356610
2737.15, 0.0343820
2738.59, 0.0333500
2740.04, 0.0323180
2741.49, 0.0311620
2742.94, 0.0304190
2744.39, 0.0297180
2745.84, 0.0290980
2747.3, 0.0283970
2748.76, 0.0278600
2750.21, 0.0275710
2751.67, 0.0273240
2753.14, 0.0269930
2754.6, 0.0269110
2756.06, 0.0264980
2757.53, 0.0260030
2759.0, 0.0257550
2760.46, 0.0257970
2761.94, 0.0258380
2763.41, 0.0258790
2764.88, 0.0257140
2766.36, 0.0255900
2767.83, 0.0256310
2769.31, 0.0255900
2770.79, 0.0255080
2772.27, 0.0256310
2773.76, 0.0256730
2775.24, 0.0256730
2776.73, 0.0257140
2778.22, 0.0256310
2779.71, 0.0255490
2781.2, 0.0255080
2782.69, 0.0255490
2784.18, 0.0255490
2785.68, 0.0255080
2787.18, 0.0256310
2788.68, 0.0257140
2790.18, 0.0257970
2791.68, 0.0259200
2793.19, 0.0259620
2794.69, 0.0258380
2796.2, 0.0258790
2797.71, 0.0259620
2799.22, 0.0260030
2800.73, 0.0259200
2802.24, 0.0259200
2803.76, 0.0259200
2805.28, 0.0257970
2806.8, 0.0257140
2808.32, 0.0257970
2809.84, 0.0257140
2811.36, 0.0257140
2812.89, 0.0257550
2814.42, 0.0257140
2815.94, 0.0256310
2817.48, 0.0257140
2819.01, 0.0257550
2820.54, 0.0256730
2822.08, 0.0255900
2823.61, 0.0256730
2825.15, 0.0256730
2826.69, 0.0255900
2828.23, 0.0255080
2829.78, 0.0256730
2831.32, 0.0256730
2832.87, 0.0255490
2834.42, 0.0255900
2835.97, 0.0257970
2837.52, 0.0257970
2839.08, 0.0257550
2840.63, 0.0257550
2842.19, 0.0257550
2843.75, 0.0257550
2845.31, 0.0257970
2846.87, 0.0257970
2848.44, 0.0257140
2850.0, 0.0257970
2851.57, 0.0258790
2853.14, 0.0257550
2854.71, 0.0257970
2856.28, 0.0258380
2857.86, 0.0258790
2859.43, 0.0258790
2861.01, 0.0259200
2862.59, 0.0260030
2864.17, 0.0259200
2865.76, 0.0259200
2867.34, 0.0259620
2868.93, 0.0260030
2870.52, 0.0261680
2872.11, 0.0260850
2873.7, 0.0259620
2875.29, 0.0259620
2876.89, 0.0261270
2878.49, 0.0262090
2880.08, 0.0261680
2881.69, 0.0261270
2883.29, 0.0261270
2884.89, 0.0262090
2886.5, 0.0262510
2888.11, 0.0261270
2889.72, 0.0261680
2891.33, 0.0262510
2892.94, 0.0262920
2894.56, 0.0262510
2896.17, 0.0261680
2897.79, 0.0262090
2899.42, 0.0263740
2901.04, 0.0264570
2902.66, 0.0264160
2904.29, 0.0264160
2905.92, 0.0264160
2907.55, 0.0264160
2909.18, 0.0263330
2910.81, 0.0263740
2912.45, 0.0265390
2914.08, 0.0265810
2915.72, 0.0265390
2917.36, 0.0264980
2919.01, 0.0265810
2920.65, 0.0266220
2922.3, 0.0265810
2923.94, 0.0265390
2925.59, 0.0265810
2927.25, 0.0267050
2928.9, 0.0268280
2930.56, 0.0268700
2932.21, 0.0268280
2933.87, 0.0269110
2935.53, 0.0269930
2937.2, 0.0269930
2938.86, 0.0269930
2940.53, 0.0270760
2942.2, 0.0271590
2943.87, 0.0272410
2945.54, 0.0272820
2947.22, 0.0272820
2948.89, 0.0272820
2950.57, 0.0273650
2952.25, 0.0274060
2953.93, 0.0274480
2955.62, 0.0275300
2957.3, 0.0276540
2958.99, 0.0277360
2960.68, 0.0277360
2962.37, 0.0278190
2964.07, 0.0279430
2965.76, 0.0280250
2967.46, 0.0281080
2969.16, 0.0281900
2970.86, 0.0281900
2972.56, 0.0282730
2974.27, 0.0284380
2975.98, 0.0285210
2977.69, 0.0285620
2979.4, 0.0286860
2981.11, 0.0287680
2982.83, 0.0288920
2984.54, 0.0290160
2986.26, 0.0291810
2987.98, 0.0292220
2989.71, 0.0293050
2991.43, 0.0294290
2993.16, 0.0294700
2994.89, 0.0295530
2996.62, 0.0297180
2998.35, 0.0297180
3000.09, 0.0297590
3001.83, 0.0298830
3003.57, 0.0299650
3005.31, 0.0300890
3007.05, 0.0302130
3008.79, 0.0304190
3010.54, 0.0306260
3012.29, 0.0306260
3014.04, 0.0306260
3015.8, 0.0306670
3017.55, 0.0307490
3019.31, 0.0309560
3021.07, 0.0311210
3022.83, 0.0311210
3024.59, 0.0311210
3026.36, 0.0312860
3028.13, 0.0314100
3029.9, 0.0314920
3031.67, 0.0314920
3033.44, 0.0315340
3035.22, 0.0317400
3037.0, 0.0319050
3038.78, 0.0320290
3040.56, 0.0320700
3042.34, 0.0321120
3044.13, 0.0321940
3045.92, 0.0323180
3047.71, 0.0324830
3049.5, 0.0325660
3051.3, 0.0326070
3053.09, 0.0326480
3054.89, 0.0326890
3056.69, 0.0327720
3058.5, 0.0328960
3060.3, 0.0329780
3062.11, 0.0330200
3063.92, 0.0331020
3065.73, 0.0331430
3067.55, 0.0332260
3069.36, 0.0333500
3071.18, 0.0333910
3073.0, 0.0334320
3074.82, 0.0335150
3076.65, 0.0336390
3078.48, 0.0338040
3080.31, 0.0337620
3082.14, 0.0337210
3083.97, 0.0339280
3085.8, 0.0340100
3087.64, 0.0340100
3089.48, 0.0340510
3091.33, 0.0341340
3093.17, 0.0342990
3095.02, 0.0343820
3096.87, 0.0344640
3098.72, 0.0345050
3100.57, 0.0346710
3102.43, 0.0348770
3104.28, 0.0348770
3106.14, 0.0350010
3108.01, 0.0351250
3109.87, 0.0352480
3111.74, 0.0352900
3113.61, 0.0354960
3115.48, 0.0356610
3117.35, 0.0357850
3119.23, 0.0360330
3121.1, 0.0361980
3122.98, 0.0363630
3124.87, 0.0366100
3126.75, 0.0368580
3128.64, 0.0370230
3130.53, 0.0372710
3132.42, 0.0374770
3134.31, 0.0377250
3136.21, 0.0379720
3138.11, 0.0382610
3140.01, 0.0384680
3141.91, 0.0386330
3143.82, 0.0389220
3145.73, 0.0392110
3147.64, 0.0393760
3149.55, 0.0396230
3151.46, 0.0400770
3153.38, 0.0404900
3155.3, 0.0407380
3157.22, 0.0409440
3159.14, 0.0411510
3161.07, 0.0414400
3163.0, 0.0417700
3164.93, 0.0421820
3166.86, 0.0424300
3168.8, 0.0427600
3170.74, 0.0430910
3172.68, 0.0433380
3174.62, 0.0437100
3176.56, 0.0441220
3178.51, 0.0444530
3180.46, 0.0447000
3182.42, 0.0450300
3184.37, 0.0455260
3186.33, 0.0459800
3188.29, 0.0462690
3190.25, 0.0464750
3192.21, 0.0468050
3194.18, 0.0472590
3196.15, 0.0476720
3198.12, 0.0480850
3200.09, 0.0484970
3202.07, 0.0488280
3204.05, 0.0493640
3206.03, 0.0497360
3208.02, 0.0499420
3210.0, 0.0503140
3211.99, 0.0508090
3213.98, 0.0511800
3215.98, 0.0514690
3217.97, 0.0518820
3219.97, 0.0523770
3221.97, 0.0527070
3223.98, 0.0531610
3225.98, 0.0536570
3227.99, 0.0541110
3230.0, 0.0545650
3232.02, 0.0549780
3234.03, 0.0553490
3236.05, 0.0558440
3238.07, 0.0562160
3240.1, 0.0567110
3242.12, 0.0571240
3244.15, 0.0576600
3246.18, 0.0582380
3248.22, 0.0588160
3250.25, 0.0592700
3252.29, 0.0596830
3254.33, 0.0601370
3256.38, 0.0605910
3258.43, 0.0610450
3260.47, 0.0614990
3262.53, 0.0620350
3264.58, 0.0626130
3266.64, 0.0631090
3268.7, 0.0636040
3270.76, 0.0641400
3272.82, 0.0646770
3274.89, 0.0652140
3276.96, 0.0657910
3279.04, 0.0663690
3281.11, 0.0669060
3283.19, 0.0673600
3285.27, 0.0678550
3287.35, 0.0685570
3289.44, 0.0692170
3291.53, 0.0696710
3293.62, 0.0702490
3295.71, 0.0709100
3297.81, 0.0715290
3299.91, 0.0721890
3302.01, 0.0727670
3304.11, 0.0732620
3306.22, 0.0738810
3308.33, 0.0745420
3310.44, 0.0752020
3312.56, 0.0758210
3314.68, 0.0764820
3316.8, 0.0771010
3318.92, 0.0777610
3321.05, 0.0783800
3323.18, 0.0789580
3325.31, 0.0796600
3327.44, 0.0803610
3329.58, 0.0810220
3331.72, 0.0816410
3333.86, 0.0822190
3336.01, 0.0829200
3338.16, 0.0836220
3340.31, 0.0843650
3342.46, 0.0850250
3344.61, 0.0857270
3346.77, 0.0864290
3348.94, 0.0870890
3351.1, 0.0877910
3353.27, 0.0884920
3355.44, 0.0891940
3357.61, 0.0898960
3359.79, 0.0905970
3361.97, 0.0914230
3364.15, 0.0921660
3366.33, 0.0928260
3368.52, 0.0936100
3370.71, 0.0943120
3372.9, 0.0950550
3375.1, 0.0958390
3377.3, 0.0966230
3379.5, 0.0973660
3381.71, 0.0981510
3383.91, 0.0990590
3386.12, 0.0997600
3388.34, 0.100545
3390.55, 0.101370
3392.77, 0.102237
3394.99, 0.102980
3397.22, 0.103723
3399.45, 0.104507
3401.68, 0.105291
3403.91, 0.106034
3406.15, 0.106901
3408.39, 0.107809
3410.63, 0.108634
3412.87, 0.109253
3415.12, 0.110079
3417.37, 0.111070
3419.63, 0.111978
3421.88, 0.112844
3424.14, 0.113794
3426.41, 0.114702
3428.67, 0.115568
3430.94, 0.116435
3433.21, 0.117343
3435.49, 0.118293
3437.77, 0.119077
3440.05, 0.119861
3442.33, 0.120728
3444.62, 0.121677
3446.91, 0.122626
3449.2, 0.123617
3451.5, 0.124525
3453.8, 0.125392
3456.1, 0.126300
3458.41, 0.127125
3460.72, 0.128033
3463.03, 0.128983
3465.34, 0.129808
3467.66, 0.130675
3469.98, 0.131624
3472.31, 0.132532
3474.63, 0.133440
3476.96, 0.134266
3479.3, 0.135091
3481.64, 0.135958
3483.97, 0.136949
3486.32, 0.137857
3488.66, 0.138641
3491.01, 0.139343
3493.36, 0.140333
3495.72, 0.141241
3498.08, 0.142067
3500.44, 0.142892
3502.81, 0.143759
3505.18, 0.144791
3507.55, 0.145823
3509.92, 0.146813
3512.3, 0.147804
3514.68, 0.148753
3517.06, 0.149744
3519.45, 0.150652
3521.84, 0.151519
3524.24, 0.152468
3526.64, 0.153376
3529.04, 0.154366
3531.44, 0.155316
3533.85, 0.156224
3536.26, 0.157091
3538.67, 0.158040
3541.09, 0.158989
3543.51, 0.159897
3545.93, 0.160805
3548.36, 0.161713
3550.79, 0.162580
3553.22, 0.163529
3555.66, 0.164479
3558.1, 0.165304
3560.54, 0.166212
3562.99, 0.167079
3565.44, 0.168028
3567.9, 0.168978
3570.35, 0.169844
3572.81, 0.170711
3575.28, 0.171578
3577.75, 0.172445
3580.22, 0.173353
3582.69, 0.174343
3585.17, 0.175169
3587.65, 0.175994
3590.14, 0.176944
3592.62, 0.177769
3595.11, 0.178718
3597.61, 0.179585
3600.11, 0.180452
3602.61, 0.181360
3605.11, 0.182268
3607.62, 0.183135
3610.14, 0.184001
3612.65, 0.184827
3615.17, 0.185735
3617.69, 0.186602
3620.22, 0.187510
3622.75, 0.188377
3625.28, 0.189243
3627.82, 0.190069
3630.36, 0.190936
3632.9, 0.191679
3635.45, 0.192504
3638.0, 0.193453
3640.56, 0.194320
3643.12, 0.195104
3645.68, 0.195971
3648.24, 0.196797
3650.81, 0.197622
3653.39, 0.198406
3655.96, 0.199232
3658.54, 0.200140
3661.13, 0.200965
3663.71, 0.201708
3666.3, 0.202534
3668.9, 0.203318
3671.5, 0.204061
3674.1, 0.204845
3676.7, 0.205671
3679.31, 0.206414
3681.93, 0.207198
3684.54, 0.207899
3687.17, 0.208725
3689.79, 0.209468
3692.42, 0.210170
3695.05, 0.210912
3697.69, 0.211697
3700.32, 0.212398
3702.97, 0.213100
3705.61, 0.213760
3708.27, 0.214545
3710.92, 0.215246
3713.58, 0.215907
3716.24, 0.216526
3718.91, 0.217269
3721.58, 0.217970
3724.25, 0.218589
3726.93, 0.219209
3729.61, 0.219828
3732.29, 0.220447
3734.98, 0.221107
3737.67, 0.221644
3740.37, 0.222180
3743.07, 0.222799
3745.78, 0.223377
3748.49, 0.223914
3751.2, 0.224492
3753.91, 0.225028
3756.63, 0.225565
3759.36, 0.226101
3762.09, 0.226638
3764.82, 0.227133
3767.55, 0.227752
3770.29, 0.228289
3773.04, 0.228743
3775.78, 0.229156
3778.54, 0.229610
3781.29, 0.230105
3784.05, 0.230683
3786.82, 0.231096
3789.59, 0.231591
3792.36, 0.232086
3795.13, 0.232499
3797.92, 0.232829
3800.7, 0.233201
3803.49, 0.233531
3806.28, 0.233944
3809.08, 0.234315
3811.88, 0.234769
3814.68, 0.235223
3817.49, 0.235553
3820.31, 0.235842
3823.12, 0.236214
3825.94, 0.236544
3828.77, 0.236915
3831.6, 0.237246
3834.43, 0.237617
3837.27, 0.237906
3840.11, 0.238195
3842.96, 0.238525
3845.81, 0.238773
3848.67, 0.239020
3851.53, 0.239392
3854.39, 0.239557
3857.26, 0.239722
3860.13, 0.239887
3863.01, 0.240217
3865.89, 0.240424
3868.77, 0.240589
3871.66, 0.240795
3874.55, 0.241084
3877.45, 0.241249
3880.35, 0.241373
3883.26, 0.241538
3886.17, 0.241703
3889.09, 0.241827
3892.01, 0.241951
3894.93, 0.242075
3897.86, 0.242198
3900.79, 0.242240
3903.73, 0.242364
3906.67, 0.242487
3909.62, 0.242570
3912.57, 0.242652
3915.52, 0.242694
3918.48, 0.242611
3921.45, 0.242776
3924.42, 0.242776
3927.39, 0.242694
3930.37, 0.242694
3933.35, 0.242735
3936.34, 0.242694
3939.33, 0.242611
3942.32, 0.242529
3945.32, 0.242611
3948.33, 0.242529
3951.34, 0.242364
3954.35, 0.242240
3957.37, 0.242157
3960.39, 0.242033
3963.42, 0.241951
3966.45, 0.241786
3969.49, 0.241621
3972.53, 0.241414
3975.58, 0.241208
3978.63, 0.241002
3981.68, 0.240836
3984.75, 0.240630
3987.81, 0.240465
3990.88, 0.240217
3993.95, 0.239928
3997.03, 0.239639
4000.12, 0.239351
4003.21, 0.238979
4006.3, 0.238649
4009.4, 0.238360
4012.5, 0.238030
4015.61, 0.237658
4018.72, 0.237246
4021.84, 0.236792
4024.96, 0.236337
4028.09, 0.235925
4031.22, 0.235512
4034.36, 0.235058
4037.5, 0.234645
4040.65, 0.234109
4043.8, 0.233613
4046.96, 0.233036
4050.12, 0.232458
4053.29, 0.231921
4056.46, 0.231343
4059.64, 0.230765
4062.82, 0.230188
4066.0, 0.229568
4069.19, 0.229073
4072.39, 0.228413
4075.59, 0.227835
4078.8, 0.227216
4082.01, 0.226555
4085.23, 0.225895
4088.45, 0.225276
4091.68, 0.224616
4094.91, 0.223955
4098.15, 0.223253
4101.39, 0.222593
4104.63, 0.221933
4107.89, 0.221272
4111.14, 0.220653
4114.41, 0.219952
4117.67, 0.219167
4120.95, 0.218507
4124.23, 0.217805
4127.51, 0.217186
4130.8, 0.216443
4134.09, 0.215700
4137.39, 0.214999
4140.7, 0.214297
4144.01, 0.213513
4147.32, 0.212811
4150.64, 0.212068
4153.97, 0.211325
4157.3, 0.210541
4160.64, 0.209798
4163.98, 0.208973
4167.33, 0.208230
4170.68, 0.207528
4174.04, 0.206702
4177.4, 0.205836
4180.77, 0.205134
4184.14, 0.204350
4187.52, 0.203524
4190.91, 0.202658
4194.3, 0.201873
4197.69, 0.201130
4201.1, 0.200511
4204.5, 0.199851
4207.92, 0.199314
4211.34, 0.198778
4214.76, 0.198406
4218.19, 0.198117
4221.62, 0.197705
4225.06, 0.197251
4228.51, 0.196673
4231.96, 0.195971
4235.42, 0.195063
4238.88, 0.193949
4242.35, 0.192752
4245.83, 0.191390
4249.31, 0.189821
4252.79, 0.188129
4256.28, 0.186808
4259.78, 0.186189
4263.29, 0.185818
4266.79, 0.185322
4270.31, 0.184662
4273.83, 0.183919
4277.35, 0.183093
4280.89, 0.182103
4284.42, 0.181112
4287.97, 0.180080
4291.52, 0.179007
4295.07, 0.177975
4298.63, 0.176861
4302.2, 0.175705
4305.78, 0.174550
4309.35, 0.173435
4312.94, 0.172445
4316.53, 0.171372
4320.13, 0.170340
4323.73, 0.169308
4327.34, 0.168276
4330.96, 0.167327
4334.58, 0.166419
4338.21, 0.165469
4341.84, 0.164561
4345.48, 0.163694
4349.12, 0.162786
4352.77, 0.161920
4356.43, 0.161135
4360.1, 0.160351
4363.76, 0.159526
4367.44, 0.158618
4371.12, 0.157792
4374.81, 0.156967
4378.51, 0.156183
4382.21, 0.155316
4385.92, 0.154573
4389.63, 0.153789
4393.35, 0.153087
4397.08, 0.152344
4400.81, 0.151642
4404.55, 0.150858
4408.29, 0.150156
4412.04, 0.149413
4415.8, 0.148753
4419.57, 0.148010
4423.34, 0.147350
4427.12, 0.146607
4430.9, 0.145905
4434.69, 0.145286
4438.49, 0.144708
4442.29, 0.144048
4446.1, 0.143387
4449.92, 0.142727
4453.74, 0.142190
4457.57, 0.141613
4461.41, 0.141076
4465.25, 0.140498
4469.1, 0.139879
4472.95, 0.139301
4476.82, 0.138889
4480.69, 0.138352
4484.56, 0.137815
4488.44, 0.137403
4492.33, 0.136990
4496.23, 0.136495
4500.13, 0.136041
4504.04, 0.135628
4507.96, 0.135215
4511.88, 0.134802
4515.81, 0.134431
4519.75, 0.134018
4523.69, 0.133647
4527.65, 0.133234
4531.6, 0.132904
4535.57, 0.132574
4539.54, 0.132285
4543.52, 0.132037
4547.5, 0.131748
4551.5, 0.131418
4555.5, 0.131129
4559.5, 0.130881
4563.52, 0.130716
4567.54, 0.130469
4571.56, 0.130221
4575.6, 0.130015
4579.64, 0.129808
4583.69, 0.129602
4587.75, 0.129395
4591.81, 0.129189
4595.88, 0.129024
4599.96, 0.128818
4604.04, 0.128652
4608.14, 0.128487
4612.24, 0.128322
4616.34, 0.128240
4620.46, 0.128157
4624.58, 0.127992
4628.71, 0.127868
4632.84, 0.127786
4636.99, 0.127662
4641.14, 0.127538
4645.3, 0.127414
4649.47, 0.127249
4653.64, 0.127167
4657.82, 0.127001
4662.01, 0.126960
4666.21, 0.126919
4670.41, 0.126836
4674.62, 0.126795
4678.84, 0.126754
4683.07, 0.126754
4687.3, 0.126713
4691.54, 0.126713
4695.79, 0.126713
4700.05, 0.126671
4704.31, 0.126589
4708.59, 0.126589
4712.87, 0.126506
4717.15, 0.126465
4721.45, 0.126382
4725.76, 0.126424
4730.07, 0.126341
4734.39, 0.126300
4738.72, 0.126217
4743.05, 0.126176
4747.39, 0.126135
4751.75, 0.126052
4756.1, 0.126093
4760.47, 0.126011
4764.85, 0.126011
4769.23, 0.125928
4773.62, 0.125887
4778.02, 0.125763
4782.43, 0.125805
4786.85, 0.125681
4791.27, 0.125681
4795.7, 0.125598
4800.14, 0.125557
4804.59, 0.125516
4809.05, 0.125516
4813.51, 0.125516
4817.99, 0.125474
4822.47, 0.125433
4826.96, 0.125433
4831.46, 0.125433
4835.96, 0.125433
4840.48, 0.125309
4845.0, 0.125351
4849.54, 0.125392
4854.08, 0.125392
4858.63, 0.125309
4863.18, 0.125309
4867.75, 0.125227
4872.33, 0.125268
4876.91, 0.125268
4881.5, 0.125227
4886.1, 0.125185
4890.71, 0.125185
4895.33, 0.125144
4899.96, 0.125103
4904.59, 0.125020
4909.24, 0.124979
4913.89, 0.124855
4918.55, 0.124773
4923.22, 0.124649
4927.9, 0.124649
4932.59, 0.124525
4937.29, 0.124401
4942.0, 0.124236
4946.71, 0.124071
4951.44, 0.123947
4956.17, 0.123865
4960.91, 0.123617
4965.67, 0.123411
4970.43, 0.123163
4975.2, 0.122915
4979.98, 0.122626
4984.76, 0.122379
4989.56, 0.122007
4994.37, 0.121595
4999.18, 0.121264
5004.01, 0.120975
5008.84, 0.120604
5013.69, 0.120150
5018.54, 0.119696
5023.4, 0.119242
5028.28, 0.118747
5033.16, 0.118293
5038.05, 0.117797
5042.95, 0.117261
5047.86, 0.116683
5052.78, 0.116105
5057.71, 0.115568
5062.65, 0.115073
5067.6, 0.114537
5072.56, 0.113959
5077.53, 0.113340
5082.5, 0.112762
5087.49, 0.112184
5092.49, 0.111606
5097.5, 0.111028
5102.51, 0.110492
5107.54, 0.109955
5112.58, 0.109501
5117.62, 0.109047
5122.68, 0.108511
5127.75, 0.108015
5132.82, 0.107561
5137.91, 0.107107
5143.01, 0.106694
5148.12, 0.106282
5153.23, 0.105828
5158.36, 0.105374
5163.5, 0.105043
5168.65, 0.104755
5173.81, 0.104424
5178.98, 0.104053
5184.15, 0.103764
5189.34, 0.103475
5194.54, 0.103227
5199.75, 0.102938
5204.98, 0.102650
5210.21, 0.102484
5215.45, 0.102319
5220.7, 0.102072
5225.96, 0.101907
5231.23, 0.101618
5236.52, 0.101411
5241.81, 0.101246
5247.12, 0.101081
5252.44, 0.100875
5257.76, 0.100710
5263.1, 0.100545
5268.45, 0.100338
5273.81, 0.100173
5279.18, 0.100049
5284.56, 0.0998430
5289.95, 0.0996780
5295.36, 0.0994710
5300.77, 0.0991830
5306.2, 0.0989350
5311.63, 0.0986460
5317.08, 0.0983160
5322.54, 0.0981510
5328.01, 0.0978620
5333.49, 0.0975730
5338.98, 0.0972430
5344.49, 0.0970360
5350.0, 0.0967890
5355.53, 0.0962930
5361.07, 0.0957150
5366.62, 0.0952200
5372.18, 0.0947660
5377.75, 0.0942710
5383.34, 0.0936930
5388.93, 0.0931560
5394.54, 0.0926200
5400.16, 0.0921250
5405.79, 0.0915050
5411.44, 0.0908860
5417.09, 0.0903910
5422.76, 0.0899370
5428.43, 0.0891530
5434.12, 0.0884100
5439.83, 0.0877490
5445.54, 0.0871300
5451.26, 0.0864700
5457.0, 0.0859330
5462.75, 0.0854380
5468.52, 0.0849020
5474.29, 0.0842000
5480.08, 0.0836220
5485.88, 0.0829620
5491.69, 0.0824250
5497.51, 0.0818470
5503.35, 0.0813520
5509.2, 0.0808150
5515.06, 0.0804440
5520.93, 0.0799900
5526.82, 0.0795770
5532.71, 0.0791230
5538.63, 0.0787520
5544.55, 0.0783800
5550.49, 0.0780500
5556.44, 0.0776370
5562.4, 0.0772660
5568.37, 0.0768530
5574.36, 0.0766880
5580.36, 0.0763990
5586.37, 0.0759040
5592.4, 0.0754500
5598.44, 0.0751610
5604.49, 0.0747890
5610.56, 0.0745000
5616.63, 0.0740880
5622.73, 0.0737160
5628.83, 0.0734270
5634.95, 0.0732620
5641.08, 0.0730970
5647.23, 0.0726020
5653.39, 0.0719410
5659.56, 0.0714460
5665.74, 0.0710750
5671.94, 0.0708270
5678.15, 0.0703320
5684.38, 0.0698360
5690.62, 0.0694240
5696.87, 0.0689280
5703.14, 0.0684330
5709.42, 0.0680620
5715.72, 0.0674840
5722.03, 0.0668650
5728.35, 0.0662450
5734.69, 0.0656680
5741.03, 0.0650900
5747.4, 0.0645120
5753.78, 0.0636860
5760.17, 0.0631500
5766.58, 0.0624900
5773.0, 0.0614160
5779.44, 0.0604260
5785.88, 0.0595180
5792.35, 0.0584860
5798.83, 0.0574950
5805.32, 0.0563810
5811.83, 0.0554320
5818.35, 0.0546060
5824.89, 0.0534920
5831.45, 0.0520470
5838.01, 0.0506850
5844.59, 0.0494060
5851.19, 0.0482500
5857.8, 0.0470120
5864.43, 0.0456500
5871.07, 0.0442460
5877.73, 0.0431320
5884.4, 0.0415630
5891.09, 0.0401190
5897.79, 0.0387150
5904.5, 0.0371470
5911.23, 0.0357850
5917.98, 0.0344640
5924.75, 0.0331430
5931.53, 0.0320700
5938.32, 0.0308320
5945.13, 0.0294700
5951.96, 0.0282730
5958.8, 0.0272000
5965.65, 0.0262920
5972.53, 0.0253010
5979.42, 0.0243110
5986.32, 0.0234850
5993.24, 0.0225360
6000.18, 0.0216280
6007.13, 0.0208440
6014.1, 0.0201010
6021.08, 0.0193580
6028.09, 0.0187390
6035.1, 0.0182430
6042.14, 0.0178720
6049.19, 0.0174180
6056.25, 0.0168400
6063.34, 0.0165510
6070.44, 0.0163030
6077.55, 0.0160140
6084.69, 0.0158080
6091.84, 0.0157670
6099.0, 0.0158910
6106.19, 0.0161380
6113.39, 0.0164270
6120.61, 0.0165920
6127.84, 0.0169230
6135.09, 0.0173770
6142.36, 0.0178310
6149.65, 0.0182430
6156.95, 0.0187800
6164.27, 0.0193580
6171.61, 0.0199360
6178.97, 0.0206370
6186.34, 0.0213800
6193.73, 0.0220410
6201.14, 0.0227830
6208.57, 0.0236090
6216.01, 0.0245170
6223.47, 0.0255080
6230.95, 0.0264980
6238.45, 0.0275710
6245.97, 0.0286440
6253.5, 0.0297180
6261.06, 0.0308730
6268.63, 0.0319880
6276.21, 0.0330610
6283.82, 0.0340930
6291.45, 0.0350830
6299.1, 0.0359500
6306.76, 0.0367760
6314.44, 0.0375600
6322.14, 0.0382610
6329.86, 0.0388810
6337.6, 0.0397060
6345.35, 0.0404900
6353.13, 0.0407380
6360.92, 0.0410680
6368.74, 0.0415630
6376.57, 0.0419350
6384.43, 0.0421410
6392.3, 0.0423890
6400.19, 0.0427190
6408.1, 0.0433790
6416.03, 0.0437100
6423.98, 0.0435860
6431.95, 0.0436270
6439.94, 0.0435860
6447.95, 0.0436270
6455.98, 0.0437920
6464.03, 0.0439160
6472.1, 0.0440810
6480.19, 0.0443290
6488.31, 0.0446180
6496.44, 0.0445760
6504.59, 0.0442460
6512.76, 0.0442050
6520.95, 0.0442460
6529.16, 0.0440810
6537.4, 0.0440400
6545.65, 0.0440400
6553.92, 0.0440810
6562.22, 0.0441220
6570.54, 0.0441640
6578.88, 0.0439570
6587.23, 0.0438330
6595.61, 0.0437100
6604.02, 0.0435030
6612.44, 0.0434210
6620.89, 0.0433380
6629.35, 0.0434210
6637.84, 0.0434620
6646.35, 0.0430080
6654.88, 0.0426780
6663.44, 0.0425540
6672.01, 0.0425130
6680.61, 0.0423890
6689.23, 0.0421410
6697.88, 0.0419350
6706.54, 0.0417700
6715.23, 0.0415630
6723.94, 0.0413570
6732.67, 0.0411510
6741.42, 0.0409030
6750.2, 0.0406140
6759.0, 0.0404080
6767.82, 0.0402430
6776.67, 0.0400770
6785.54, 0.0398710
6794.44, 0.0395410
6803.35, 0.0390870
6812.29, 0.0387570
6821.26, 0.0386330
6830.24, 0.0383440
6839.25, 0.0379720
6848.29, 0.0376840
6857.35, 0.0376010
6866.43, 0.0372710
6875.54, 0.0367760
6884.67, 0.0364450
6893.82, 0.0360740
6903.0, 0.0357440
6912.2, 0.0354130
6921.43, 0.0351660
6930.69, 0.0348770
6939.96, 0.0345470
6949.27, 0.0342990
6958.59, 0.0340930
6967.95, 0.0336800
6977.33, 0.0333080
6986.73, 0.0329780
6996.16, 0.0327310
7005.61, 0.0323590
7015.09, 0.0320700
7024.6, 0.0316990
7034.13, 0.0314100
7043.69, 0.0312030
7053.27, 0.0308730
7062.88, 0.0305430
7072.52, 0.0302130
7082.18, 0.0299650
7091.87, 0.0295530
7101.58, 0.0291400
7111.32, 0.0288100
7121.09, 0.0285210
7130.88, 0.0281490
7140.71, 0.0278600
7150.56, 0.0274890
7160.43, 0.0271170
7170.33, 0.0267460
7180.27, 0.0263330
7190.23, 0.0259620
7200.21, 0.0256310
7210.23, 0.0252600
7220.27, 0.0248060
7230.34, 0.0243930
7240.44, 0.0240630
7250.56, 0.0236500
7260.72, 0.0231960
7270.9, 0.0227420
7281.12, 0.0223290
7291.36, 0.0218340
7301.63, 0.0213800
7311.93, 0.0209260
7322.25, 0.0204720
7332.61, 0.0201010
7343.0, 0.0196050
7353.41, 0.0190690
7363.86, 0.0186150
7374.33, 0.0181610
7384.83, 0.0177480
7395.37, 0.0172530
7405.93, 0.0167990
7416.53, 0.0163860
7427.15, 0.0159730
7437.81, 0.0154780
7448.5, 0.0150240
7459.22, 0.0145700
7469.96, 0.0141160
7480.74, 0.0136620
7491.55, 0.0131670
7502.39, 0.0126710
7513.27, 0.0121760
7524.17, 0.0117630
7535.11, 0.0113500
7546.08, 0.0109380
7557.08, 0.0104840
7568.11, 0.00994700
7579.17, 0.00949300
7590.27, 0.00908000
7601.4, 0.00866800
7612.56, 0.00825500
7623.76, 0.00784200
7634.98, 0.00742900
7646.24, 0.00709900
7657.54, 0.00668600
7668.87, 0.00631500
7680.23, 0.00594400
7691.62, 0.00557200
7703.05, 0.00515900
7714.51, 0.00478800
7726.01, 0.00449900
7737.54, 0.00412700
7749.11, 0.00379700
7760.71, 0.00355000
7772.35, 0.00326100
7784.02, 0.00301300
7795.72, 0.00276500
7807.46, 0.00260000
7819.23, 0.00235300
7831.04, 0.00210500
7842.89, 0.00198100
7854.77, 0.00189900
7866.69, 0.00185700
7878.65, 0.00181600
7890.64, 0.00173400
7902.67, 0.00169200
7914.74, 0.00177500
7926.84, 0.00189900
7938.98, 0.00210500
7951.16, 0.00239400
7963.37, 0.00272400
7975.62, 0.00317800
7987.91, 0.00367300
8000.24, 0.00433400
8012.6, 0.00520100
8025.01, 0.00619100
8037.45, 0.00747100
8049.93, 0.00895700
8062.45, 0.0105250
8075.01, 0.0123410
8087.61, 0.0144870
8100.24, 0.0167990
8112.91, 0.0193160
8125.63, 0.0219170
8138.39, 0.0246000
8151.18, 0.0273650
8164.02, 0.0302540
8176.9, 0.0330200
8189.81, 0.0355790
8202.77, 0.0379720
8215.77, 0.0402430
8228.82, 0.0424300
8241.9, 0.0444530
8255.02, 0.0465160
8268.19, 0.0485390
8281.39, 0.0505200
8294.65, 0.0525840
8307.94, 0.0547710
8321.28, 0.0568760
8334.66, 0.0588570
8348.08, 0.0608390
8361.54, 0.0626960
8375.05, 0.0642640
8388.6, 0.0655850
8402.2, 0.0667820
8415.84, 0.0678140
8429.52, 0.0686390
8443.25, 0.0692590
8457.02, 0.0697950
8470.84, 0.0702490
8484.7, 0.0705790
8498.61, 0.0709510
8512.57, 0.0714050
8526.57, 0.0718180
8540.62, 0.0723540
8554.71, 0.0730970
8568.85, 0.0739230
8583.04, 0.0747070
8597.27, 0.0756150
8611.55, 0.0767700
8625.88, 0.0780910
8640.26, 0.0793710
8654.68, 0.0807740
8669.16, 0.0821770
8683.68, 0.0835810
8698.25, 0.0849840
8712.87, 0.0864700
8727.53, 0.0878320
8742.25, 0.0890700
8757.02, 0.0902670
8771.83, 0.0915050
8786.7, 0.0927440
8801.62, 0.0939820
8816.59, 0.0952200
8831.61, 0.0964170
8846.68, 0.0977380
8861.8, 0.0990590
8876.97, 0.100379
8892.2, 0.101742
8907.48, 0.103062
8922.81, 0.104548
8938.2, 0.106075
8953.63, 0.107685
8969.13, 0.109336
8984.67, 0.110987
9000.27, 0.112597
9015.92, 0.114372
9031.63, 0.116105
9047.39, 0.117839
9063.21, 0.119737
9079.08, 0.121553
9095.01, 0.123328
9111.0, 0.125185
9127.04, 0.126960
9143.13, 0.128652
9159.28, 0.130221
9175.49, 0.131831
9191.76, 0.133234
9208.09, 0.134431
9224.47, 0.135710
9240.92, 0.136866
9257.42, 0.137692
9273.98, 0.138352
9290.6, 0.138682
9307.28, 0.138517
9324.02, 0.137857
9340.82, 0.136825
9357.68, 0.135421
9374.6, 0.133729
9391.58, 0.131789
9408.62, 0.129891
9425.73, 0.127868
9442.9, 0.125805
9460.13, 0.123700
9477.42, 0.121760
9494.78, 0.119944
9512.2, 0.118293
9529.69, 0.116848
9547.24, 0.115568
9564.86, 0.114413
9582.54, 0.113340
9600.28, 0.112390
9618.1, 0.111647
9635.97, 0.110904
9653.92, 0.110285
9671.93, 0.109749
9690.01, 0.109295
9708.16, 0.109006
9726.37, 0.108882
9744.65, 0.108676
9763.0, 0.108428
9781.43, 0.108098
9799.92, 0.107809
9818.48, 0.107479
9837.1, 0.107066
9855.8, 0.106488
9874.58, 0.105745
9893.42, 0.104837
9912.34, 0.104094
9931.33, 0.103227
9950.39, 0.102278
9969.52, 0.101205
9988.74, 0.0999670
10008.0, 0.0986460
10027.4, 0.0974490
10046.8, 0.0962930
10066.3, 0.0949730
10085.9, 0.0935690
10105.6, 0.0922070
10125.3, 0.0908450
10145.1, 0.0896070
10165.0, 0.0884100
10185.0, 0.0873780
10205.0, 0.0863870
10225.2, 0.0853970
10245.4, 0.0842820
10265.7, 0.0831680
10286.0, 0.0822190
10306.5, 0.0813520
10327.0, 0.0806090
10347.6, 0.0799070
10368.3, 0.0792060
10389.1, 0.0786280
10409.9, 0.0781330
10430.9, 0.0778440
10451.9, 0.0776790
10473.0, 0.0777200
10494.2, 0.0778850
10515.5, 0.0781330
10536.9, 0.0783800
10558.4, 0.0787930
10579.9, 0.0793710
10601.5, 0.0799490
10623.3, 0.0804850
10645.1, 0.0811870
10667.0, 0.0819710
10689.0, 0.0826310
10711.1, 0.0832510
10733.2, 0.0838280
10755.5, 0.0842820
10777.9, 0.0846130
10800.3, 0.0849430
10822.9, 0.0851490
10845.5, 0.0853140
10868.2, 0.0855210
10891.1, 0.0855620
10914.0, 0.0855620
10937.0, 0.0856030
10960.2, 0.0856440
10983.4, 0.0856030
11006.7, 0.0854790
11030.1, 0.0852730
11053.6, 0.0851080
11077.3, 0.0849020
11101.0, 0.0846130
11124.8, 0.0842410
11148.7, 0.0839940
11172.7, 0.0837460
11196.9, 0.0833330
11221.1, 0.0829620
11245.4, 0.0826310
11269.9, 0.0821770
11294.4, 0.0816410
11319.1, 0.0810630
11343.9, 0.0806090
11368.8, 0.0802380
11393.7, 0.0797010
11418.8, 0.0789580
11444.0, 0.0781740
11469.4, 0.0774310
11494.8, 0.0767290
11520.3, 0.0761930
11546.0, 0.0756560
11571.8, 0.0749540
11597.7, 0.0741700
11623.7, 0.0733450
11649.8, 0.0725600
11676.0, 0.0718180
11702.4, 0.0709510
11728.9, 0.0700840
11755.5, 0.0693410
11782.2, 0.0684740
11809.0, 0.0674420
11836.0, 0.0663690
11863.0, 0.0652550
11890.3, 0.0643060
11917.6, 0.0632740
11945.0, 0.0619120
11972.6, 0.0607970
12000.4, 0.0596420
12028.2, 0.0583620
12056.2, 0.0570830
12084.3, 0.0557210
12112.5, 0.0541110
12140.9, 0.0523360
12169.4, 0.0506020
12198.0, 0.0490750
12226.8, 0.0474240
12255.7, 0.0455670
12284.7, 0.0436270
12313.9, 0.0418940
12343.2, 0.0402840
12372.7, 0.0386330
12402.3, 0.0371060
12432.0, 0.0358260
12461.9, 0.0343820
12491.9, 0.0333910
12522.1, 0.0326480
12552.4, 0.0320290
12582.9, 0.0315340
12613.5, 0.0311620
12644.3, 0.0309150
12675.2, 0.0308320
12706.3, 0.0308730
12737.5, 0.0309150
12768.9, 0.0309150
12800.4, 0.0309150
12832.1, 0.0310380
12863.9, 0.0310380
12895.9, 0.0310380
12928.1, 0.0310800
12960.4, 0.0309560
12992.9, 0.0308320
13025.5, 0.0307080
13058.3, 0.0304190
13091.3, 0.0301300
13124.4, 0.0298410
13157.8, 0.0294290
13191.2, 0.0291400
13224.9, 0.0288920
13258.7, 0.0287270
13292.7, 0.0283970
13326.9, 0.0280670
13361.2, 0.0278190
13395.7, 0.0278600
13430.4, 0.0280250
13465.3, 0.0279840
13500.4, 0.0280250
13535.7, 0.0282730
13571.1, 0.0284790
13606.7, 0.0286860
13642.5, 0.0288100
13678.5, 0.0290980
13714.7, 0.0295110
13751.1, 0.0297180
13787.6, 0.0300480
13824.4, 0.0302950
13861.4, 0.0305020
13898.5, 0.0307910
13935.9, 0.0311210
13973.5, 0.0313690
14011.2, 0.0314100
14049.2, 0.0313690
14087.4, 0.0315340
14125.8, 0.0315750
14164.3, 0.0316160
14203.2, 0.0317810
14242.2, 0.0316990
14281.4, 0.0316160
14320.9, 0.0314920
14360.5, 0.0312450
14400.4, 0.0310380
14440.5, 0.0308320
14480.9, 0.0304610
14521.4, 0.0302540
14562.2, 0.0300070
14603.3, 0.0296350
14644.5, 0.0292220
14686.0, 0.0288920
14727.7, 0.0285210
14769.7, 0.0280670
14811.9, 0.0276130
14854.3, 0.0271590
14897.0, 0.0268280
14939.9, 0.0265390
14983.1, 0.0263330
15026.5, 0.0257140
15070.2, 0.0251360
15114.2, 0.0247650
15158.3, 0.0245170
15202.8, 0.0241870
15247.5, 0.0237330
15292.5, 0.0234850
15337.7, 0.0231550
15383.2, 0.0229490
15429.0, 0.0229900
15475.1, 0.0229070
15521.4, 0.0227830
15568.0, 0.0227830
15614.9, 0.0229070
15662.1, 0.0230310
15709.6, 0.0231960
15757.3, 0.0234440
15805.4, 0.0239800
15853.7, 0.0244340
15902.3, 0.0249300
15951.2, 0.0253430
16000.5, 0.0258790
16050.0, 0.0262920
16099.8, 0.0267050
16150.0, 0.0270760
16200.5, 0.0273240
16251.3, 0.0274480
16302.4, 0.0276130
16353.8, 0.0274480
16405.5, 0.0270760
16457.6, 0.0268700
16510.0, 0.0268700
16562.8, 0.0267460
16615.9, 0.0265390
16669.3, 0.0263330
16723.1, 0.0262920
16777.2, 0.0262090
16831.7, 0.0260440
16886.5, 0.0257140
16941.7, 0.0254250
16997.2, 0.0253010
17053.1, 0.0251360
17109.4, 0.0248470
17166.1, 0.0246820
17223.1, 0.0245580
17280.5, 0.0243520
17338.3, 0.0241460
17396.5, 0.0241870
17455.1, 0.0241460
17514.0, 0.0237740
17573.4, 0.0231960
17633.2, 0.0231140
17693.4, 0.0229900
17754.0, 0.0224950
17815.0, 0.0222880
17876.4, 0.0222060
17938.3, 0.0217100
18000.5, 0.0215870
18063.3, 0.0217100
18126.4, 0.0216280
18190.0, 0.0215040
18254.1, 0.0218340
18318.6, 0.0219990
18383.5, 0.0225360
18449.0, 0.0240220
18514.9, 0.0255490
18581.2, 0.0270350
18648.0, 0.0294290
18715.4, 0.0327310
18783.2, 0.0360740
18851.5, 0.0386330
18920.3, 0.0405320
18989.6, 0.0424300
19059.4, 0.0433380
19129.7, 0.0434210
19200.6, 0.0431730
19272.0, 0.0437920
19343.9, 0.0446180
19416.3, 0.0454430
19489.3, 0.0467230
19562.8, 0.0488690
19637.0, 0.0517580
19711.6, 0.0557620
19786.8, 0.0604260
19862.6, 0.0654610
19939.0, 0.0714050
20016.0, 0.0778440
20093.6, 0.0849430
20171.8, 0.0921250
20250.6, 0.0985630
20330.0, 0.105374
20410.0, 0.112143
20490.7, 0.118623
20572.0, 0.124731
20654.0, 0.130097
20736.6, 0.135009
20819.9, 0.139177
20903.8, 0.143305
20988.5, 0.146318
21073.8, 0.147226
21159.8, 0.147928
21246.5, 0.147185
21334.0, 0.144213
21422.1, 0.140663
21511.0, 0.138146
21600.7, 0.135050
21691.0, 0.131046
21782.1, 0.127621
21874.0, 0.124525
21966.7, 0.122255
22060.2, 0.120315
22154.5, 0.116889
22249.6, 0.112721
22345.5, 0.108676
22442.2, 0.105539
22539.8, 0.102938
22638.2, 0.0995950
22737.5, 0.0965820
22837.7, 0.0941470
22938.7, 0.0916290
23040.7, 0.0889050
23143.5, 0.0868410
23247.3, 0.0845710
23352.1, 0.0838700
23457.7, 0.0837870
23564.4, 0.0824660
23672.0, 0.0815580
23780.5, 0.0830030
23890.1, 0.0839110
24000.7, 0.0831680
24112.3, 0.0831270
24225.0, 0.0838700
24338.7, 0.0839520
24453.5, 0.0830030
24569.4, 0.0842410
24686.4, 0.0859330
24804.5, 0.0852730
