Database of Origin,USGS Spectral Database
Sample Description,See USGS database for additional info
Date Added,2017-02-22 02:48:43.677482

Data ID,USGS_ves02          
Sample ID,vesuvianite_hs446.23540
Mineral Name,vesuvianite

Wavelength
1523.85, 0.384027
1524.3, 0.385074
1524.75, 0.384865
1525.2, 0.384969
1525.65, 0.385598
1526.1, 0.385702
1526.55, 0.386016
1527.0, 0.386226
1527.45, 0.387273
1527.9, 0.387796
1528.35, 0.388215
1528.8, 0.388424
1529.25, 0.388215
1529.7, 0.388634
1530.15, 0.389890
1530.6, 0.390204
1531.05, 0.390937
1531.51, 0.391461
1531.96, 0.392822
1532.41, 0.393345
1532.87, 0.392612
1533.32, 0.392822
1533.77, 0.393345
1534.23, 0.393031
1534.68, 0.394811
1535.14, 0.395544
1535.59, 0.396695
1536.05, 0.398894
1536.5, 0.399208
1536.96, 0.398161
1537.41, 0.398057
1537.87, 0.399104
1538.32, 0.400360
1538.78, 0.399418
1539.24, 0.400360
1539.7, 0.402559
1540.15, 0.402873
1540.61, 0.402768
1541.07, 0.404234
1541.53, 0.404024
1541.98, 0.404652
1542.44, 0.405176
1542.9, 0.405699
1543.36, 0.406537
1543.82, 0.407584
1544.28, 0.407793
1544.74, 0.408422
1545.2, 0.408317
1545.66, 0.408736
1546.12, 0.409887
1546.59, 0.411458
1547.05, 0.411667
1547.51, 0.411981
1547.97, 0.411876
1548.43, 0.412400
1548.9, 0.412923
1549.36, 0.413866
1549.82, 0.415227
1550.29, 0.415960
1550.75, 0.416169
1551.21, 0.417007
1551.68, 0.417321
1552.14, 0.418263
1552.61, 0.418472
1553.07, 0.419415
1553.54, 0.420985
1554.0, 0.421613
1554.47, 0.421090
1554.93, 0.421509
1555.4, 0.421509
1555.87, 0.423603
1556.34, 0.425382
1556.8, 0.425173
1557.27, 0.424754
1557.74, 0.425382
1558.21, 0.425382
1558.68, 0.426953
1559.14, 0.427476
1559.61, 0.427686
1560.08, 0.428733
1560.55, 0.429466
1561.02, 0.429151
1561.49, 0.430094
1561.96, 0.431036
1562.43, 0.431559
1562.9, 0.431455
1563.38, 0.432188
1563.85, 0.433130
1564.32, 0.433758
1564.79, 0.434491
1565.26, 0.435224
1565.74, 0.435329
1566.21, 0.436166
1566.68, 0.437004
1567.16, 0.437318
1567.63, 0.436480
1568.1, 0.437632
1568.58, 0.438469
1569.05, 0.439307
1569.53, 0.439935
1570.0, 0.440773
1570.48, 0.441087
1570.96, 0.441610
1571.43, 0.441924
1571.91, 0.442343
1572.39, 0.442762
1572.86, 0.443600
1573.34, 0.444437
1573.82, 0.445589
1574.3, 0.446950
1574.77, 0.446950
1575.25, 0.446531
1575.73, 0.447473
1576.21, 0.448416
1576.69, 0.448625
1577.17, 0.448834
1577.65, 0.449777
1578.13, 0.449672
1578.61, 0.449149
1579.09, 0.448939
1579.57, 0.450195
1580.05, 0.451452
1580.54, 0.452394
1581.02, 0.452918
1581.5, 0.452813
1581.98, 0.452813
1582.47, 0.454069
1582.95, 0.454697
1583.43, 0.455012
1583.92, 0.454174
1584.4, 0.454488
1584.88, 0.455954
1585.37, 0.456896
1585.85, 0.456687
1586.34, 0.457210
1586.82, 0.458048
1587.31, 0.458571
1587.8, 0.458466
1588.28, 0.458676
1588.77, 0.459199
1589.26, 0.460142
1589.74, 0.460456
1590.23, 0.460979
1590.72, 0.461607
1591.21, 0.461712
1591.7, 0.461398
1592.19, 0.462340
1592.67, 0.462759
1593.16, 0.463387
1593.65, 0.464120
1594.14, 0.464644
1594.63, 0.464958
1595.12, 0.465376
1595.61, 0.466109
1596.11, 0.466528
1596.6, 0.466319
1597.09, 0.467052
1597.58, 0.467680
1598.08, 0.468308
1598.57, 0.468831
1599.06, 0.469355
1599.55, 0.469564
1600.05, 0.469983
1600.54, 0.470193
1601.04, 0.471030
1601.53, 0.471344
1602.03, 0.471239
1602.52, 0.471763
1603.02, 0.472286
1603.51, 0.471972
1604.01, 0.472182
1604.5, 0.473124
1605.0, 0.474171
1605.5, 0.474171
1606.0, 0.474590
1606.49, 0.475218
1606.99, 0.475427
1607.49, 0.474799
1607.99, 0.475323
1608.49, 0.476265
1608.99, 0.476684
1609.49, 0.476893
1609.99, 0.476474
1610.49, 0.476579
1610.99, 0.477940
1611.49, 0.479196
1611.99, 0.479929
1612.49, 0.479511
1612.99, 0.479825
1613.49, 0.480034
1614.0, 0.480034
1614.5, 0.479825
1615.0, 0.480034
1615.51, 0.480453
1616.01, 0.481081
1616.51, 0.480557
1617.02, 0.481709
1617.52, 0.482861
1618.03, 0.483070
1618.53, 0.483175
1619.04, 0.483594
1619.54, 0.482965
1620.05, 0.483594
1620.55, 0.484327
1621.06, 0.484641
1621.57, 0.484850
1622.08, 0.485373
1622.58, 0.484955
1623.09, 0.485059
1623.6, 0.485583
1624.11, 0.486106
1624.62, 0.486211
1625.13, 0.486316
1625.64, 0.486211
1626.15, 0.486735
1626.66, 0.487153
1627.17, 0.487991
1627.68, 0.487991
1628.19, 0.488514
1628.7, 0.488829
1629.21, 0.488933
1629.72, 0.488829
1630.24, 0.489666
1630.75, 0.489980
1631.26, 0.489352
1631.78, 0.489561
1632.29, 0.490713
1632.8, 0.491341
1633.32, 0.491237
1633.83, 0.490922
1634.35, 0.490922
1634.86, 0.491341
1635.38, 0.492074
1635.9, 0.491865
1636.41, 0.491446
1636.93, 0.491969
1637.45, 0.493016
1637.96, 0.493226
1638.48, 0.493435
1639.0, 0.493645
1639.52, 0.493854
1640.04, 0.494063
1640.56, 0.494377
1641.08, 0.495110
1641.59, 0.495948
1642.11, 0.495634
1642.63, 0.495529
1643.16, 0.495634
1643.68, 0.495529
1644.2, 0.495424
1644.72, 0.495424
1645.24, 0.496053
1645.76, 0.495948
1646.29, 0.495843
1646.81, 0.496890
1647.33, 0.497204
1647.86, 0.497100
1648.38, 0.497100
1648.9, 0.497623
1649.43, 0.498356
1649.95, 0.498984
1650.48, 0.498879
1651.0, 0.499193
1651.53, 0.498984
1652.06, 0.498879
1652.58, 0.498879
1653.11, 0.499717
1653.64, 0.500136
1654.17, 0.500240
1654.69, 0.499926
1655.22, 0.500240
1655.75, 0.500659
1656.28, 0.502125
1656.81, 0.501601
1657.34, 0.500869
1657.87, 0.501287
1658.4, 0.501392
1658.93, 0.501392
1659.46, 0.502230
1659.99, 0.502334
1660.52, 0.502544
1661.05, 0.502648
1661.59, 0.503172
1662.12, 0.503277
1662.65, 0.503067
1663.19, 0.503067
1663.72, 0.503277
1664.26, 0.504010
1664.79, 0.504742
1665.32, 0.504952
1665.86, 0.505266
1666.39, 0.505371
1666.93, 0.505266
1667.47, 0.504742
1668.0, 0.504638
1668.54, 0.505266
1669.08, 0.505475
1669.61, 0.505371
1670.15, 0.505371
1670.69, 0.505789
1671.23, 0.506732
1671.77, 0.507046
1672.31, 0.507255
1672.85, 0.507150
1673.39, 0.507465
1673.93, 0.507883
1674.47, 0.508197
1675.01, 0.508197
1675.55, 0.508407
1676.09, 0.508197
1676.64, 0.508721
1677.18, 0.509140
1677.72, 0.509140
1678.26, 0.509035
1678.81, 0.509244
1679.35, 0.509140
1679.89, 0.509349
1680.44, 0.509558
1680.98, 0.510291
1681.53, 0.510396
1682.07, 0.510291
1682.62, 0.510710
1683.17, 0.510815
1683.71, 0.510396
1684.26, 0.510710
1684.81, 0.510920
1685.36, 0.511862
1685.9, 0.512176
1686.45, 0.511548
1687.0, 0.511757
1687.55, 0.511862
1688.1, 0.511966
1688.65, 0.512281
1689.2, 0.512385
1689.75, 0.512385
1690.3, 0.512071
1690.85, 0.512804
1691.41, 0.512804
1691.96, 0.513223
1692.51, 0.513223
1693.06, 0.513327
1693.61, 0.513013
1694.17, 0.513851
1694.72, 0.514165
1695.28, 0.513851
1695.83, 0.513642
1696.39, 0.513956
1696.94, 0.514270
1697.5, 0.514270
1698.05, 0.514374
1698.61, 0.514898
1699.17, 0.514898
1699.72, 0.515003
1700.28, 0.514898
1700.84, 0.515107
1701.4, 0.515003
1701.95, 0.515212
1702.51, 0.515421
1703.07, 0.515526
1703.63, 0.515526
1704.19, 0.515736
1704.75, 0.515526
1705.31, 0.515526
1705.88, 0.515421
1706.44, 0.515526
1707.0, 0.515736
1707.56, 0.516050
1708.12, 0.516154
1708.69, 0.516573
1709.25, 0.516783
1709.81, 0.516783
1710.38, 0.516887
1710.94, 0.517411
1711.51, 0.517201
1712.07, 0.517620
1712.64, 0.517934
1713.2, 0.517620
1713.77, 0.517411
1714.34, 0.517934
1714.9, 0.517620
1715.47, 0.518039
1716.04, 0.518248
1716.61, 0.518562
1717.18, 0.518667
1717.74, 0.518981
1718.31, 0.518876
1718.88, 0.519190
1719.45, 0.518772
1720.02, 0.518876
1720.59, 0.518667
1721.17, 0.519295
1721.74, 0.519714
1722.31, 0.519819
1722.88, 0.519819
1723.45, 0.519819
1724.03, 0.519295
1724.6, 0.519086
1725.18, 0.519714
1725.75, 0.520342
1726.33, 0.520656
1726.9, 0.520970
1727.48, 0.520866
1728.05, 0.520552
1728.63, 0.520133
1729.2, 0.520866
1729.78, 0.521599
1730.36, 0.521913
1730.94, 0.522017
1731.51, 0.521913
1732.09, 0.521599
1732.67, 0.521284
1733.25, 0.521075
1733.83, 0.521808
1734.41, 0.522331
1734.99, 0.522017
1735.57, 0.521913
1736.15, 0.522331
1736.73, 0.522646
1737.32, 0.522750
1737.9, 0.522331
1738.48, 0.522646
1739.07, 0.522855
1739.65, 0.522855
1740.23, 0.522750
1740.82, 0.523064
1741.4, 0.523483
1741.99, 0.523692
1742.57, 0.523797
1743.16, 0.523692
1743.74, 0.523692
1744.33, 0.524007
1744.92, 0.523902
1745.51, 0.524111
1746.09, 0.524111
1746.68, 0.524635
1747.27, 0.524739
1747.86, 0.524635
1748.45, 0.524844
1749.04, 0.525368
1749.63, 0.525368
1750.22, 0.524739
1750.81, 0.524739
1751.4, 0.525368
1751.99, 0.525368
1752.59, 0.525263
1753.18, 0.525158
1753.77, 0.525368
1754.37, 0.525577
1754.96, 0.526310
1755.56, 0.526310
1756.15, 0.526729
1756.74, 0.526729
1757.34, 0.526310
1757.94, 0.526101
1758.53, 0.526415
1759.13, 0.526729
1759.73, 0.526415
1760.32, 0.526101
1760.92, 0.526624
1761.52, 0.527147
1762.12, 0.527357
1762.72, 0.527043
1763.32, 0.526729
1763.92, 0.526205
1764.52, 0.526624
1765.12, 0.527566
1765.72, 0.527880
1766.32, 0.527880
1766.92, 0.527776
1767.53, 0.527357
1768.13, 0.527147
1768.73, 0.527671
1769.34, 0.528194
1769.94, 0.528194
1770.55, 0.528508
1771.15, 0.528613
1771.76, 0.528718
1772.36, 0.528404
1772.97, 0.528194
1773.57, 0.528090
1774.18, 0.528090
1774.79, 0.528299
1775.4, 0.528613
1776.0, 0.528194
1776.61, 0.528299
1777.22, 0.528613
1777.83, 0.528613
1778.44, 0.528927
1779.05, 0.529137
1779.66, 0.529032
1780.27, 0.529241
1780.88, 0.529451
1781.5, 0.529451
1782.11, 0.529032
1782.72, 0.528823
1783.33, 0.529137
1783.95, 0.528823
1784.56, 0.528613
1785.18, 0.529032
1785.79, 0.529137
1786.41, 0.529032
1787.02, 0.529137
1787.64, 0.529660
1788.26, 0.529346
1788.87, 0.529241
1789.49, 0.528927
1790.11, 0.528927
1790.73, 0.529137
1791.35, 0.529241
1791.96, 0.529032
1792.58, 0.529555
1793.21, 0.529974
1793.83, 0.530079
1794.45, 0.530079
1795.07, 0.529974
1795.69, 0.529765
1796.31, 0.530079
1796.93, 0.530079
1797.56, 0.529974
1798.18, 0.529870
1798.8, 0.530079
1799.43, 0.530393
1800.05, 0.530393
1800.68, 0.530184
1801.3, 0.529974
1801.93, 0.530288
1802.56, 0.530498
1803.18, 0.530393
1803.81, 0.530498
1804.44, 0.530602
1805.07, 0.530288
1805.7, 0.530184
1806.33, 0.530288
1806.95, 0.530079
1807.58, 0.530393
1808.22, 0.530602
1808.85, 0.530498
1809.48, 0.530079
1810.11, 0.530079
1810.74, 0.529974
1811.38, 0.530288
1812.01, 0.530707
1812.64, 0.530917
1813.28, 0.530707
1813.91, 0.530602
1814.55, 0.530393
1815.18, 0.530602
1815.82, 0.530288
1816.45, 0.530184
1817.09, 0.529974
1817.73, 0.530288
1818.36, 0.530079
1819.0, 0.530393
1819.64, 0.530498
1820.28, 0.530184
1820.92, 0.530288
1821.56, 0.530812
1822.2, 0.530288
1822.84, 0.530288
1823.48, 0.530707
1824.12, 0.530602
1824.76, 0.530079
1825.41, 0.530288
1826.05, 0.530288
1826.69, 0.529555
1827.34, 0.529346
1827.98, 0.529660
1828.63, 0.529241
1829.27, 0.529346
1829.92, 0.529974
1830.56, 0.530184
1831.21, 0.529346
1831.86, 0.529241
1832.5, 0.529660
1833.15, 0.529346
1833.8, 0.528823
1834.45, 0.529241
1835.1, 0.529660
1835.75, 0.529765
1836.4, 0.529555
1837.05, 0.529241
1837.7, 0.528718
1838.35, 0.528718
1839.01, 0.528927
1839.66, 0.528613
1840.31, 0.528299
1840.96, 0.529032
1841.62, 0.529555
1842.27, 0.529346
1842.93, 0.528823
1843.58, 0.528927
1844.24, 0.529346
1844.9, 0.529451
1845.55, 0.529346
1846.21, 0.529974
1846.87, 0.530288
1847.53, 0.529765
1848.18, 0.529241
1848.84, 0.529137
1849.5, 0.529451
1850.16, 0.529765
1850.82, 0.529974
1851.48, 0.529974
1852.14, 0.529765
1852.81, 0.530184
1853.47, 0.530498
1854.13, 0.529660
1854.8, 0.529451
1855.46, 0.530079
1856.12, 0.530288
1856.79, 0.530079
1857.45, 0.530288
1858.12, 0.530288
1858.79, 0.529870
1859.45, 0.529765
1860.12, 0.529555
1860.79, 0.529660
1861.46, 0.529765
1862.12, 0.529870
1862.79, 0.529870
1863.46, 0.529765
1864.13, 0.529241
1864.8, 0.528927
1865.48, 0.528823
1866.15, 0.528927
1866.82, 0.529137
1867.49, 0.529032
1868.16, 0.528718
1868.84, 0.528613
1869.51, 0.528613
1870.19, 0.528927
1870.86, 0.528613
1871.54, 0.528090
1872.21, 0.528299
1872.89, 0.528508
1873.56, 0.527671
1874.24, 0.527462
1874.92, 0.528090
1875.6, 0.527880
1876.28, 0.527566
1876.96, 0.527357
1877.64, 0.526938
1878.32, 0.526415
1879.0, 0.526101
1879.68, 0.526415
1880.36, 0.526729
1881.04, 0.525996
1881.73, 0.525472
1882.41, 0.525368
1883.09, 0.525054
1883.78, 0.525368
1884.46, 0.525472
1885.15, 0.524949
1885.83, 0.524635
1886.52, 0.524111
1887.21, 0.523692
1887.89, 0.523378
1888.58, 0.523169
1889.27, 0.523274
1889.96, 0.522855
1890.65, 0.522227
1891.34, 0.522017
1892.03, 0.521494
1892.72, 0.520656
1893.41, 0.520552
1894.1, 0.520447
1894.79, 0.520238
1895.49, 0.519714
1896.18, 0.519505
1896.87, 0.519086
1897.57, 0.518667
1898.26, 0.518039
1898.96, 0.517620
1899.65, 0.517201
1900.35, 0.516573
1901.05, 0.516468
1901.74, 0.516468
1902.44, 0.516468
1903.14, 0.516154
1903.84, 0.515421
1904.54, 0.515107
1905.24, 0.515003
1905.94, 0.514689
1906.64, 0.514374
1907.34, 0.514165
1908.04, 0.513851
1908.75, 0.513118
1909.45, 0.512909
1910.15, 0.513327
1910.86, 0.513537
1911.56, 0.513118
1912.27, 0.512699
1912.97, 0.513013
1913.68, 0.513013
1914.39, 0.513327
1915.09, 0.513432
1915.8, 0.513223
1916.51, 0.513223
1917.22, 0.513118
1917.93, 0.513013
1918.64, 0.513118
1919.35, 0.513013
1920.06, 0.512909
1920.77, 0.512385
1921.48, 0.512176
1922.19, 0.512385
1922.91, 0.512804
1923.62, 0.512909
1924.33, 0.513118
1925.05, 0.513013
1925.76, 0.513013
1926.48, 0.512595
1927.19, 0.512595
1927.91, 0.513118
1928.63, 0.513642
1929.35, 0.513642
1930.07, 0.513013
1930.78, 0.512804
1931.5, 0.513013
1932.22, 0.512909
1932.94, 0.513118
1933.66, 0.513223
1934.39, 0.513013
1935.11, 0.512699
1935.83, 0.513118
1936.55, 0.512909
1937.28, 0.512804
1938.0, 0.512909
1938.73, 0.513432
1939.45, 0.513432
1940.18, 0.513223
1940.9, 0.512909
1941.63, 0.513118
1942.36, 0.513118
1943.09, 0.513223
1943.81, 0.513118
1944.54, 0.513223
1945.27, 0.513223
1946.0, 0.513327
1946.73, 0.513327
1947.47, 0.513327
1948.2, 0.513223
1948.93, 0.513432
1949.66, 0.513537
1950.4, 0.513537
1951.13, 0.513642
1951.86, 0.514060
1952.6, 0.513642
1953.34, 0.513327
1954.07, 0.513223
1954.81, 0.513013
1955.55, 0.513013
1956.29, 0.513327
1957.02, 0.512909
1957.76, 0.512804
1958.5, 0.512699
1959.24, 0.512176
1959.98, 0.511443
1960.72, 0.511234
1961.47, 0.510920
1962.21, 0.510396
1962.95, 0.509768
1963.7, 0.509558
1964.44, 0.509454
1965.18, 0.509454
1965.93, 0.508721
1966.67, 0.508197
1967.42, 0.508197
1968.17, 0.508302
1968.92, 0.508302
1969.66, 0.508302
1970.41, 0.508093
1971.16, 0.508093
1971.91, 0.508511
1972.66, 0.508826
1973.41, 0.508721
1974.16, 0.508721
1974.92, 0.508721
1975.67, 0.508511
1976.42, 0.508093
1977.18, 0.508511
1977.93, 0.508511
1978.69, 0.508407
1979.44, 0.508197
1980.2, 0.508197
1980.95, 0.507883
1981.71, 0.507360
1982.47, 0.506627
1983.23, 0.506418
1983.99, 0.506103
1984.74, 0.505999
1985.51, 0.505999
1986.27, 0.505580
1987.03, 0.505161
1987.79, 0.505371
1988.55, 0.505580
1989.32, 0.505685
1990.08, 0.505161
1990.84, 0.505161
1991.61, 0.505371
1992.37, 0.505371
1993.14, 0.505371
1993.9, 0.505475
1994.67, 0.505371
1995.44, 0.505685
1996.21, 0.506208
1996.98, 0.506522
1997.75, 0.506941
1998.52, 0.507569
1999.29, 0.507779
2000.06, 0.508302
2000.83, 0.508826
2001.6, 0.509558
2002.38, 0.510396
2003.15, 0.510920
2003.93, 0.511024
2004.7, 0.511652
2005.48, 0.511652
2006.25, 0.511862
2007.03, 0.511966
2007.81, 0.511652
2008.58, 0.511757
2009.36, 0.511757
2010.14, 0.511757
2010.92, 0.511757
2011.7, 0.511757
2012.48, 0.511757
2013.26, 0.511234
2014.05, 0.511234
2014.83, 0.510920
2015.61, 0.510396
2016.4, 0.509768
2017.18, 0.509454
2017.97, 0.509454
2018.75, 0.509454
2019.54, 0.509035
2020.32, 0.508721
2021.11, 0.508511
2021.9, 0.508616
2022.69, 0.508407
2023.48, 0.508616
2024.27, 0.508930
2025.06, 0.508826
2025.85, 0.508826
2026.64, 0.509035
2027.44, 0.509035
2028.23, 0.508930
2029.02, 0.508930
2029.82, 0.508826
2030.61, 0.508407
2031.41, 0.508197
2032.2, 0.508197
2033.0, 0.508197
2033.8, 0.507883
2034.6, 0.508197
2035.4, 0.508302
2036.2, 0.508197
2037.0, 0.508093
2037.8, 0.508407
2038.6, 0.508302
2039.4, 0.508093
2040.2, 0.508302
2041.01, 0.508511
2041.81, 0.508407
2042.61, 0.508302
2043.42, 0.508197
2044.22, 0.508511
2045.03, 0.508511
2045.84, 0.508616
2046.65, 0.509035
2047.46, 0.509454
2048.26, 0.509349
2049.07, 0.509244
2049.88, 0.509663
2050.69, 0.510082
2051.51, 0.509977
2052.32, 0.510291
2053.13, 0.510291
2053.94, 0.510187
2054.76, 0.510291
2055.57, 0.510291
2056.39, 0.510291
2057.2, 0.510396
2058.02, 0.510605
2058.84, 0.511024
2059.66, 0.511234
2060.48, 0.511338
2061.29, 0.511129
2062.11, 0.511338
2062.94, 0.510920
2063.76, 0.510815
2064.58, 0.511338
2065.4, 0.511548
2066.22, 0.511129
2067.05, 0.511338
2067.87, 0.511548
2068.7, 0.511338
2069.52, 0.511338
2070.35, 0.511757
2071.18, 0.511966
2072.0, 0.511757
2072.83, 0.511757
2073.66, 0.511548
2074.49, 0.511338
2075.32, 0.511548
2076.15, 0.511548
2076.98, 0.511443
2077.82, 0.511234
2078.65, 0.511024
2079.48, 0.510710
2080.32, 0.511129
2081.15, 0.511024
2081.99, 0.511129
2082.83, 0.511129
2083.66, 0.510605
2084.5, 0.510291
2085.34, 0.510605
2086.18, 0.510605
2087.02, 0.510396
2087.86, 0.509872
2088.7, 0.509663
2089.54, 0.509663
2090.39, 0.509663
2091.23, 0.509768
2092.07, 0.509454
2092.92, 0.508930
2093.76, 0.508616
2094.61, 0.508616
2095.45, 0.508511
2096.3, 0.508093
2097.15, 0.507883
2098.0, 0.507569
2098.85, 0.507465
2099.7, 0.507465
2100.55, 0.507255
2101.4, 0.506522
2102.25, 0.506313
2103.1, 0.506313
2103.96, 0.506103
2104.81, 0.505475
2105.67, 0.504847
2106.52, 0.504324
2107.38, 0.504428
2108.24, 0.504010
2109.09, 0.503591
2109.95, 0.503067
2110.81, 0.502648
2111.67, 0.502439
2112.53, 0.502439
2113.39, 0.502020
2114.25, 0.501601
2115.12, 0.501183
2115.98, 0.500869
2116.84, 0.500345
2117.71, 0.499717
2118.58, 0.499612
2119.44, 0.499508
2120.31, 0.498984
2121.18, 0.498356
2122.04, 0.497728
2122.91, 0.497414
2123.78, 0.497414
2124.65, 0.497100
2125.52, 0.496262
2126.4, 0.495948
2127.27, 0.495634
2128.14, 0.495006
2129.02, 0.494377
2129.89, 0.494273
2130.77, 0.493645
2131.64, 0.493121
2132.52, 0.492598
2133.4, 0.491865
2134.27, 0.491132
2135.15, 0.490608
2136.03, 0.490085
2136.91, 0.489561
2137.79, 0.489038
2138.68, 0.488619
2139.56, 0.487991
2140.44, 0.487886
2141.33, 0.487153
2142.21, 0.486316
2143.1, 0.486002
2143.99, 0.485897
2144.87, 0.485373
2145.76, 0.484955
2146.65, 0.484327
2147.54, 0.484012
2148.43, 0.484012
2149.32, 0.483698
2150.21, 0.483175
2151.1, 0.483070
2151.99, 0.483070
2152.89, 0.482965
2153.78, 0.482756
2154.68, 0.482442
2155.57, 0.481919
2156.47, 0.481814
2157.37, 0.481814
2158.27, 0.481500
2159.16, 0.480872
2160.06, 0.480662
2160.96, 0.480034
2161.86, 0.479615
2162.77, 0.479511
2163.67, 0.479196
2164.57, 0.478673
2165.48, 0.478568
2166.38, 0.477835
2167.29, 0.476893
2168.2, 0.476265
2169.1, 0.475741
2170.01, 0.475218
2170.92, 0.474799
2171.83, 0.474171
2172.74, 0.473438
2173.65, 0.472601
2174.56, 0.471972
2175.47, 0.471239
2176.39, 0.470507
2177.3, 0.469774
2178.22, 0.469146
2179.13, 0.468308
2180.05, 0.467680
2180.96, 0.466842
2181.88, 0.465900
2182.8, 0.464853
2183.72, 0.464015
2184.64, 0.462968
2185.56, 0.461712
2186.48, 0.460246
2187.41, 0.458990
2188.33, 0.457524
2189.25, 0.455744
2190.18, 0.454174
2191.1, 0.452813
2192.03, 0.450824
2192.96, 0.448416
2193.89, 0.445903
2194.82, 0.443495
2195.74, 0.440668
2196.68, 0.437422
2197.61, 0.433968
2198.54, 0.430303
2199.47, 0.426429
2200.4, 0.422451
2201.34, 0.418682
2202.28, 0.414494
2203.21, 0.409992
2204.15, 0.405595
2205.08, 0.400988
2206.02, 0.396591
2206.96, 0.391670
2207.9, 0.387377
2208.84, 0.383922
2209.78, 0.380782
2210.73, 0.377850
2211.67, 0.375651
2212.61, 0.373872
2213.56, 0.372196
2214.5, 0.370835
2215.45, 0.370312
2216.4, 0.370103
2217.35, 0.370626
2218.3, 0.371254
2219.24, 0.372196
2220.2, 0.373453
2221.15, 0.375128
2222.1, 0.376803
2223.05, 0.378478
2224.0, 0.380049
2224.96, 0.381933
2225.91, 0.383713
2226.87, 0.385388
2227.83, 0.386749
2228.79, 0.388110
2229.74, 0.389262
2230.7, 0.390518
2231.66, 0.391670
2232.63, 0.392717
2233.59, 0.393240
2234.55, 0.393869
2235.51, 0.394706
2236.48, 0.395753
2237.44, 0.396486
2238.41, 0.397533
2239.38, 0.398685
2240.34, 0.399522
2241.31, 0.400046
2242.28, 0.400988
2243.25, 0.401930
2244.22, 0.402873
2245.19, 0.403605
2246.17, 0.404338
2247.14, 0.405071
2248.12, 0.405699
2249.09, 0.406223
2250.07, 0.406851
2251.04, 0.407270
2252.02, 0.407479
2253.0, 0.407584
2253.98, 0.407793
2254.96, 0.407689
2255.94, 0.407793
2256.92, 0.407584
2257.91, 0.407479
2258.89, 0.407479
2259.88, 0.407584
2260.86, 0.407197
2261.85, 0.407100
2262.83, 0.407391
2263.82, 0.407874
2264.81, 0.407874
2265.8, 0.407681
2266.79, 0.407391
2267.78, 0.407391
2268.78, 0.407100
2269.77, 0.407197
2270.76, 0.407487
2271.76, 0.407391
2272.75, 0.407391
2273.75, 0.407294
2274.75, 0.407487
2275.75, 0.407874
2276.75, 0.407681
2277.75, 0.407681
2278.75, 0.407197
2279.75, 0.407294
2280.75, 0.407874
2281.76, 0.407874
2282.76, 0.407777
2283.77, 0.407294
2284.77, 0.406714
2285.78, 0.406617
2286.79, 0.406714
2287.8, 0.405747
2288.81, 0.404780
2289.82, 0.404683
2290.83, 0.404103
2291.84, 0.403039
2292.86, 0.401879
2293.87, 0.401879
2294.89, 0.401202
2295.91, 0.399461
2296.92, 0.398107
2297.94, 0.397527
2298.96, 0.396754
2299.98, 0.395787
2301.0, 0.395303
2302.02, 0.395207
2303.04, 0.394530
2304.07, 0.393659
2305.09, 0.393176
2306.12, 0.392886
2307.15, 0.392982
2308.17, 0.392886
2309.2, 0.392015
2310.23, 0.391532
2311.26, 0.391339
2312.29, 0.391048
2313.32, 0.390662
2314.35, 0.390468
2315.39, 0.390081
2316.42, 0.389695
2317.46, 0.389018
2318.5, 0.388534
2319.53, 0.388534
2320.57, 0.388051
2321.61, 0.386504
2322.65, 0.385247
2323.69, 0.384183
2324.73, 0.382249
2325.78, 0.380025
2326.82, 0.378478
2327.86, 0.376544
2328.91, 0.373449
2329.96, 0.370452
2331.01, 0.367841
2332.05, 0.364553
2333.1, 0.360782
2334.15, 0.357397
2335.21, 0.354690
2336.26, 0.351499
2337.31, 0.348308
2338.36, 0.344827
2339.42, 0.341539
2340.48, 0.338154
2341.53, 0.335447
2342.59, 0.332739
2343.65, 0.329548
2344.71, 0.326744
2345.77, 0.324133
2346.83, 0.321232
2347.9, 0.318525
2348.96, 0.316204
2350.02, 0.313593
2351.09, 0.310982
2352.16, 0.309242
2353.23, 0.307211
2354.29, 0.305180
2355.36, 0.304020
2356.43, 0.302859
2357.51, 0.301892
2358.58, 0.301699
2359.65, 0.301796
2360.73, 0.302666
2361.8, 0.303633
2362.88, 0.304890
2363.96, 0.306534
2365.03, 0.308951
2366.11, 0.310982
2367.19, 0.312529
2368.27, 0.314560
2369.36, 0.316784
2370.44, 0.319008
2371.53, 0.320942
2372.61, 0.322683
2373.7, 0.324230
2374.78, 0.325390
2375.87, 0.326744
2376.96, 0.327421
2378.05, 0.328291
2379.14, 0.329258
2380.24, 0.329548
2381.33, 0.329742
2382.42, 0.330999
2383.52, 0.331482
2384.61, 0.331966
2385.71, 0.333029
2386.81, 0.333996
2387.91, 0.334383
2389.01, 0.335060
2390.11, 0.336220
2391.22, 0.337284
2392.32, 0.337671
2393.42, 0.337961
2394.53, 0.338638
2395.64, 0.339798
2396.74, 0.340669
2397.85, 0.341636
2398.96, 0.342022
2400.07, 0.342603
2401.18, 0.343183
2402.3, 0.343666
2403.41, 0.344440
2404.52, 0.345407
2405.64, 0.345600
2406.76, 0.345987
2407.88, 0.346374
2408.99, 0.346664
2410.11, 0.346954
2411.23, 0.347437
2412.36, 0.347341
2413.48, 0.347244
2414.6, 0.347147
2415.73, 0.346857
2416.85, 0.346471
2417.98, 0.346277
2419.11, 0.345504
2420.24, 0.344827
2421.37, 0.344246
2422.5, 0.344246
2423.64, 0.343763
2424.77, 0.343183
2425.9, 0.342506
2427.04, 0.341732
2428.18, 0.340572
2429.31, 0.339992
2430.45, 0.339798
2431.59, 0.339025
2432.73, 0.338445
2433.88, 0.338638
2435.02, 0.338154
2436.16, 0.337864
2437.31, 0.337574
2438.45, 0.337478
2439.6, 0.337381
2440.75, 0.337768
2441.9, 0.338251
2443.05, 0.338348
2444.2, 0.338154
2445.35, 0.338831
2446.51, 0.339702
2447.67, 0.339992
2448.82, 0.339798
2449.98, 0.339992
2451.14, 0.340185
2452.3, 0.340862
2453.46, 0.341442
2454.62, 0.341539
2455.78, 0.341539
2456.94, 0.341829
2458.11, 0.341926
2459.28, 0.342119
2460.44, 0.342603
2461.61, 0.343376
2462.78, 0.343763
2463.95, 0.344246
2465.12, 0.344343
2466.3, 0.344053
2467.47, 0.343860
2468.65, 0.343956
2469.82, 0.343763
2471.0, 0.343956
2472.18, 0.343956
2473.36, 0.343763
2474.54, 0.343860
2475.72, 0.344343
2476.9, 0.344150
2478.08, 0.343860
2479.27, 0.343666
2480.46, 0.343860
2481.64, 0.343956
2482.83, 0.343473
2484.02, 0.343473
2485.21, 0.343666
2486.4, 0.343086
2487.6, 0.342699
2488.79, 0.342506
2489.99, 0.342022
2491.18, 0.341442
2492.38, 0.341539
2493.58, 0.341152
2494.78, 0.340959
2495.98, 0.340765
2497.18, 0.340572
2498.39, 0.340378
2499.59, 0.340282
2500.8, 0.340475
2502.01, 0.341152
2503.21, 0.341152
2504.42, 0.340669
2505.63, 0.340475
2506.84, 0.341055
2508.06, 0.341442
2509.27, 0.341539
2510.49, 0.341442
2511.7, 0.341539
2512.92, 0.341732
2514.14, 0.342119
2515.36, 0.342409
2516.58, 0.342796
2517.8, 0.342893
2519.03, 0.342699
2520.25, 0.342699
2521.48, 0.342796
2522.7, 0.342796
2523.93, 0.342989
2525.16, 0.342796
2526.39, 0.342699
2527.62, 0.342312
2528.86, 0.342216
2530.09, 0.342312
2531.33, 0.342506
2532.56, 0.342506
2533.8, 0.341829
2535.04, 0.341539
2536.28, 0.341345
2537.52, 0.339895
2538.76, 0.339315
2540.01, 0.338638
2541.25, 0.338251
2542.5, 0.338445
2543.75, 0.338058
2544.99, 0.336511
2546.24, 0.335834
2547.49, 0.335834
2548.75, 0.334963
2550.0, 0.334190
2551.26, 0.333900
2552.51, 0.333223
2553.77, 0.331772
2555.03, 0.329935
2556.29, 0.328775
2557.55, 0.328001
2558.81, 0.327711
2560.08, 0.328291
2561.34, 0.328775
2562.61, 0.328194
2563.88, 0.327034
2565.14, 0.324423
2566.41, 0.322393
2567.68, 0.321909
2568.96, 0.322489
2570.23, 0.321039
2571.51, 0.319298
2572.78, 0.320362
2574.06, 0.319105
2575.34, 0.317751
2576.62, 0.317944
2577.9, 0.315720
2579.18, 0.314270
2580.47, 0.314463
2581.75, 0.313400
2583.04, 0.314463
2584.32, 0.313400
2585.61, 0.310885
2586.9, 0.311272
2588.2, 0.310112
2589.49, 0.308371
2590.78, 0.306534
2592.08, 0.306437
2593.37, 0.310112
2594.67, 0.312819
2595.97, 0.306921
2597.27, 0.302183
2598.57, 0.300345
2599.88, 0.299862
2601.18, 0.299668
2602.49, 0.299185
2603.79, 0.299475
2605.1, 0.300249
2606.41, 0.297928
2607.72, 0.295317
2609.03, 0.293867
2610.35, 0.292223
2611.66, 0.290869
2612.98, 0.290579
2614.3, 0.289418
2615.62, 0.290385
2616.94, 0.289805
2618.26, 0.286517
2619.58, 0.286421
2620.91, 0.284003
2622.23, 0.280135
2623.56, 0.278878
2624.89, 0.278491
2626.22, 0.278685
2627.55, 0.275591
2628.88, 0.275204
2630.21, 0.275494
2631.55, 0.271723
2632.89, 0.269305
2634.22, 0.267951
2635.56, 0.265341
2636.9, 0.263310
2638.25, 0.261956
2639.59, 0.260699
2640.93, 0.259442
2642.28, 0.258475
2643.63, 0.257121
2644.98, 0.256638
2646.33, 0.255284
2647.68, 0.253156
2649.03, 0.251319
2650.39, 0.250932
2651.74, 0.250739
2653.1, 0.248902
2654.46, 0.246968
2655.82, 0.245711
2657.18, 0.243487
2658.54, 0.242810
2659.9, 0.241746
2661.27, 0.239812
2662.64, 0.237781
2664.01, 0.238265
2665.38, 0.238072
2666.74, 0.235461
2668.12, 0.231303
2669.49, 0.231593
2670.87, 0.228208
2672.24, 0.221826
2673.62, 0.218732
2675.0, 0.217185
2676.38, 0.215444
2677.76, 0.211963
2679.15, 0.208482
2680.54, 0.204034
2681.92, 0.200746
2683.31, 0.198232
2684.7, 0.195137
2686.09, 0.191753
2687.48, 0.187498
2688.88, 0.183340
2690.27, 0.179086
2691.67, 0.175314
2693.07, 0.171543
2694.47, 0.166805
2695.87, 0.160713
2697.27, 0.154137
2698.67, 0.148045
2700.08, 0.142630
2701.49, 0.136345
2702.9, 0.128996
2704.31, 0.121550
2705.72, 0.113717
2707.13, 0.106078
2708.54, 0.0988260
2709.96, 0.0913800
2711.38, 0.0834510
2712.8, 0.0753280
2714.22, 0.0691390
2715.64, 0.0643040
2717.06, 0.0605330
2718.49, 0.0577290
2719.91, 0.0556980
2721.34, 0.0528940
2722.77, 0.0509600
2724.2, 0.0496060
2725.63, 0.0477690
2727.07, 0.0459320
2728.5, 0.0448680
2729.94, 0.0440940
2731.38, 0.0436110
2732.82, 0.0430310
2734.26, 0.0425470
2735.7, 0.0419670
2737.15, 0.0417740
2738.59, 0.0418700
2740.04, 0.0416770
2741.49, 0.0410970
2742.94, 0.0408070
2744.39, 0.0406130
2745.84, 0.0400330
2747.3, 0.0397430
2748.76, 0.0399360
2750.21, 0.0398400
2751.67, 0.0397430
2753.14, 0.0399360
2754.6, 0.0402270
2756.06, 0.0403230
2757.53, 0.0402270
2759.0, 0.0406130
2760.46, 0.0413870
2761.94, 0.0420640
2763.41, 0.0422570
2764.88, 0.0423540
2766.36, 0.0425470
2767.83, 0.0427410
2769.31, 0.0428370
2770.79, 0.0427410
2772.27, 0.0425470
2773.76, 0.0422570
2775.24, 0.0419670
2776.73, 0.0410970
2778.22, 0.0400330
2779.71, 0.0394530
2781.2, 0.0391630
2782.69, 0.0386790
2784.18, 0.0380020
2785.68, 0.0378090
2787.18, 0.0373260
2788.68, 0.0365520
2790.18, 0.0361650
2791.68, 0.0358750
2793.19, 0.0356820
2794.69, 0.0355850
2796.2, 0.0358750
2797.71, 0.0360690
2799.22, 0.0359720
2800.73, 0.0359720
2802.24, 0.0359720
2803.76, 0.0360690
2805.28, 0.0362620
2806.8, 0.0364550
2808.32, 0.0366490
2809.84, 0.0368420
2811.36, 0.0368420
2812.89, 0.0367450
2814.42, 0.0372290
2815.94, 0.0379060
2817.48, 0.0383890
2819.01, 0.0385830
2820.54, 0.0387760
2822.08, 0.0390660
2823.61, 0.0393560
2825.15, 0.0394530
2826.69, 0.0398400
2828.23, 0.0402270
2829.78, 0.0407100
2831.32, 0.0408070
2832.87, 0.0406130
2834.42, 0.0409030
2835.97, 0.0411940
2837.52, 0.0415800
2839.08, 0.0417740
2840.63, 0.0418700
2842.19, 0.0417740
2843.75, 0.0414840
2845.31, 0.0414840
2846.87, 0.0415800
2848.44, 0.0415800
2850.0, 0.0414840
2851.57, 0.0415800
2853.14, 0.0412900
2854.71, 0.0410970
2856.28, 0.0410000
2857.86, 0.0409030
2859.43, 0.0405170
2861.01, 0.0404200
2862.59, 0.0404200
2864.17, 0.0405170
2865.76, 0.0404200
2867.34, 0.0400330
2868.93, 0.0396460
2870.52, 0.0397430
2872.11, 0.0396460
2873.7, 0.0394530
2875.29, 0.0397430
2876.89, 0.0401300
2878.49, 0.0400330
2880.08, 0.0400330
2881.69, 0.0402270
2883.29, 0.0400330
2884.89, 0.0399360
2886.5, 0.0402270
2888.11, 0.0404200
2889.72, 0.0407100
2891.33, 0.0408070
2892.94, 0.0410000
2894.56, 0.0410970
2896.17, 0.0412900
2897.79, 0.0413870
2899.42, 0.0412900
2901.04, 0.0411940
2902.66, 0.0415800
2904.29, 0.0416770
2905.92, 0.0416770
2907.55, 0.0419670
2909.18, 0.0423540
2910.81, 0.0424510
2912.45, 0.0425470
2914.08, 0.0426440
2915.72, 0.0427410
2917.36, 0.0429340
2919.01, 0.0430310
2920.65, 0.0432240
2922.3, 0.0433210
2923.94, 0.0433210
2925.59, 0.0432240
2927.25, 0.0434180
2928.9, 0.0435140
2930.56, 0.0438040
2932.21, 0.0438040
2933.87, 0.0437080
2935.53, 0.0439980
2937.2, 0.0439980
2938.86, 0.0442880
2940.53, 0.0445780
2942.2, 0.0447710
2943.87, 0.0447710
2945.54, 0.0449650
2947.22, 0.0450610
2948.89, 0.0449650
2950.57, 0.0447710
2952.25, 0.0446750
2953.93, 0.0446750
2955.62, 0.0451580
2957.3, 0.0454480
2958.99, 0.0456420
2960.68, 0.0457380
2962.37, 0.0457380
2964.07, 0.0455450
2965.76, 0.0454480
2967.46, 0.0456420
2969.16, 0.0456420
2970.86, 0.0455450
2972.56, 0.0457380
2974.27, 0.0459320
2975.98, 0.0460280
2977.69, 0.0463190
2979.4, 0.0464150
2981.11, 0.0462220
2982.83, 0.0459320
2984.54, 0.0459320
2986.26, 0.0463190
2987.98, 0.0465120
2989.71, 0.0464150
2991.43, 0.0464150
2993.16, 0.0462220
2994.89, 0.0462220
2996.62, 0.0464150
2998.35, 0.0466090
3000.09, 0.0466090
3001.83, 0.0464150
3003.57, 0.0463190
3005.31, 0.0462220
3007.05, 0.0462220
3008.79, 0.0461250
3010.54, 0.0460280
3012.29, 0.0461250
3014.04, 0.0463190
3015.8, 0.0460280
3017.55, 0.0459320
3019.31, 0.0459320
3021.07, 0.0458350
3022.83, 0.0456420
3024.59, 0.0458350
3026.36, 0.0460280
3028.13, 0.0459320
3029.9, 0.0458350
3031.67, 0.0459320
3033.44, 0.0457380
3035.22, 0.0455450
3037.0, 0.0454480
3038.78, 0.0456420
3040.56, 0.0456420
3042.34, 0.0456420
3044.13, 0.0454480
3045.92, 0.0453520
3047.71, 0.0453520
3049.5, 0.0451580
3051.3, 0.0448680
3053.09, 0.0448680
3054.89, 0.0447710
3056.69, 0.0446750
3058.5, 0.0445780
3060.3, 0.0446750
3062.11, 0.0444810
3063.92, 0.0443850
3065.73, 0.0442880
3067.55, 0.0441910
3069.36, 0.0440940
3071.18, 0.0440940
3073.0, 0.0440940
3074.82, 0.0441910
3076.65, 0.0440940
3078.48, 0.0439010
3080.31, 0.0436110
3082.14, 0.0439010
3083.97, 0.0439010
3085.8, 0.0438040
3087.64, 0.0437080
3089.48, 0.0438040
3091.33, 0.0438040
3093.17, 0.0436110
3095.02, 0.0437080
3096.87, 0.0440940
3098.72, 0.0439010
3100.57, 0.0439010
3102.43, 0.0437080
3104.28, 0.0436110
3106.14, 0.0436110
3108.01, 0.0439980
3109.87, 0.0440940
3111.74, 0.0439980
3113.61, 0.0439010
3115.48, 0.0438040
3117.35, 0.0440940
3119.23, 0.0442880
3121.1, 0.0442880
3122.98, 0.0445780
3124.87, 0.0446750
3126.75, 0.0447710
3128.64, 0.0448680
3130.53, 0.0450610
3132.42, 0.0450610
3134.31, 0.0451580
3136.21, 0.0452550
3138.11, 0.0454480
3140.01, 0.0455450
3141.91, 0.0455450
3143.82, 0.0454480
3145.73, 0.0455450
3147.64, 0.0457380
3149.55, 0.0460280
3151.46, 0.0464150
3153.38, 0.0466090
3155.3, 0.0465120
3157.22, 0.0463190
3159.14, 0.0465120
3161.07, 0.0467050
3163.0, 0.0468020
3164.93, 0.0470920
3166.86, 0.0469950
3168.8, 0.0471890
3170.74, 0.0476720
3172.68, 0.0478660
3174.62, 0.0479620
3176.56, 0.0481560
3178.51, 0.0482530
3180.46, 0.0486390
3182.42, 0.0488330
3184.37, 0.0488330
3186.33, 0.0492200
3188.29, 0.0494130
3190.25, 0.0493160
3192.21, 0.0496060
3194.18, 0.0497030
3196.15, 0.0498000
3198.12, 0.0499930
3200.09, 0.0502830
3202.07, 0.0502830
3204.05, 0.0506700
3206.03, 0.0510570
3208.02, 0.0512500
3210.0, 0.0516370
3211.99, 0.0518300
3213.98, 0.0519270
3215.98, 0.0521200
3217.97, 0.0524110
3219.97, 0.0527970
3221.97, 0.0530870
3223.98, 0.0531840
3225.98, 0.0532810
3227.99, 0.0537640
3230.0, 0.0540540
3232.02, 0.0542480
3234.03, 0.0545380
3236.05, 0.0549250
3238.07, 0.0554080
3240.1, 0.0556980
3242.12, 0.0560850
3244.15, 0.0564720
3246.18, 0.0565690
3248.22, 0.0567620
3250.25, 0.0574390
3252.29, 0.0579220
3254.33, 0.0582120
3256.38, 0.0585990
3258.43, 0.0587930
3260.47, 0.0590830
3262.53, 0.0594700
3264.58, 0.0598560
3266.64, 0.0602430
3268.7, 0.0606300
3270.76, 0.0610170
3272.82, 0.0614040
3274.89, 0.0615000
3276.96, 0.0618870
3279.04, 0.0625640
3281.11, 0.0628540
3283.19, 0.0632410
3285.27, 0.0638210
3287.35, 0.0641110
3289.44, 0.0645950
3291.53, 0.0649810
3293.62, 0.0653680
3295.71, 0.0655620
3297.81, 0.0659480
3299.91, 0.0663350
3302.01, 0.0666250
3304.11, 0.0670120
3306.22, 0.0675920
3308.33, 0.0678820
3310.44, 0.0683660
3312.56, 0.0689460
3314.68, 0.0694290
3316.8, 0.0699130
3318.92, 0.0707830
3321.05, 0.0713630
3323.18, 0.0719440
3325.31, 0.0725240
3327.44, 0.0732010
3329.58, 0.0739740
3331.72, 0.0749410
3333.86, 0.0756180
3336.01, 0.0762950
3338.16, 0.0769720
3340.31, 0.0776490
3342.46, 0.0783260
3344.61, 0.0790030
3346.77, 0.0796800
3348.94, 0.0804530
3351.1, 0.0809370
3353.27, 0.0818070
3355.44, 0.0825800
3357.61, 0.0831610
3359.79, 0.0835470
3361.97, 0.0842240
3364.15, 0.0849010
3366.33, 0.0855780
3368.52, 0.0863520
3370.71, 0.0869320
3372.9, 0.0874150
3375.1, 0.0880920
3377.3, 0.0886720
3379.5, 0.0891560
3381.71, 0.0897360
3383.91, 0.0904130
3386.12, 0.0911870
3388.34, 0.0919600
3390.55, 0.0926370
3392.77, 0.0929270
3394.99, 0.0934110
3397.22, 0.0942810
3399.45, 0.0949580
3401.68, 0.0955380
3403.91, 0.0960220
3406.15, 0.0964080
3408.39, 0.0968920
3410.63, 0.0975690
3412.87, 0.0983420
3415.12, 0.0991160
3417.37, 0.0996960
3419.63, 0.100276
3421.88, 0.101147
3424.14, 0.102017
3426.41, 0.102790
3428.67, 0.103467
3430.94, 0.103951
3433.21, 0.104724
3435.49, 0.105691
3437.77, 0.106658
3440.05, 0.107529
3442.33, 0.108302
3444.62, 0.109076
3446.91, 0.109946
3449.2, 0.110720
3451.5, 0.111687
3453.8, 0.112460
3456.1, 0.113040
3458.41, 0.113621
3460.72, 0.114588
3463.03, 0.115361
3465.34, 0.116135
3467.66, 0.116908
3469.98, 0.117875
3472.31, 0.118552
3474.63, 0.119326
3476.96, 0.119809
3479.3, 0.120680
3481.64, 0.121647
3483.97, 0.122324
3486.32, 0.123000
3488.66, 0.123871
3491.01, 0.124644
3493.36, 0.125224
3495.72, 0.125998
3498.08, 0.126772
3500.44, 0.127449
3502.81, 0.128222
3505.18, 0.128996
3507.55, 0.129866
3509.92, 0.130736
3512.3, 0.131607
3514.68, 0.132477
3517.06, 0.133444
3519.45, 0.134217
3521.84, 0.134991
3524.24, 0.135861
3526.64, 0.136732
3529.04, 0.137602
3531.44, 0.138569
3533.85, 0.139149
3536.26, 0.139826
3538.67, 0.140503
3541.09, 0.141276
3543.51, 0.142147
3545.93, 0.143017
3548.36, 0.143597
3550.79, 0.144467
3553.22, 0.145241
3555.66, 0.145918
3558.1, 0.146595
3560.54, 0.147272
3562.99, 0.148045
3565.44, 0.148819
3567.9, 0.149496
3570.35, 0.149979
3572.81, 0.150656
3575.28, 0.151430
3577.75, 0.152203
3580.22, 0.152880
3582.69, 0.153557
3585.17, 0.154137
3587.65, 0.154621
3590.14, 0.155298
3592.62, 0.156071
3595.11, 0.156748
3597.61, 0.157328
3600.11, 0.158005
3602.61, 0.158489
3605.11, 0.158876
3607.62, 0.159456
3610.14, 0.160133
3612.65, 0.160713
3615.17, 0.161196
3617.69, 0.161680
3620.22, 0.162550
3622.75, 0.163130
3625.28, 0.163614
3627.82, 0.164194
3630.36, 0.164871
3632.9, 0.165354
3635.45, 0.165741
3638.0, 0.166321
3640.56, 0.166902
3643.12, 0.167675
3645.68, 0.168159
3648.24, 0.168545
3650.81, 0.168932
3653.39, 0.169609
3655.96, 0.170383
3658.54, 0.170673
3661.13, 0.170866
3663.71, 0.171543
3666.3, 0.172123
3668.9, 0.172413
3671.5, 0.172800
3674.1, 0.173284
3676.7, 0.173767
3679.31, 0.174347
3681.93, 0.174831
3684.54, 0.175314
3687.17, 0.175701
3689.79, 0.176088
3692.42, 0.176765
3695.05, 0.177345
3697.69, 0.177635
3700.32, 0.177925
3702.97, 0.178409
3705.61, 0.178989
3708.27, 0.179376
3710.92, 0.179472
3713.58, 0.179666
3716.24, 0.179956
3718.91, 0.180343
3721.58, 0.180439
3724.25, 0.180536
3726.93, 0.180536
3729.61, 0.180826
3732.29, 0.180923
3734.98, 0.180923
3737.67, 0.180536
3740.37, 0.179859
3743.07, 0.179182
3745.78, 0.178795
3748.49, 0.178312
3751.2, 0.177925
3753.91, 0.177635
3756.63, 0.177635
3759.36, 0.177925
3762.09, 0.178505
3764.82, 0.179279
3767.55, 0.180343
3770.29, 0.181213
3773.04, 0.182083
3775.78, 0.183244
3778.54, 0.184404
3781.29, 0.185564
3784.05, 0.186628
3786.82, 0.187595
3789.59, 0.188659
3792.36, 0.189916
3795.13, 0.191269
3797.92, 0.192720
3800.7, 0.194074
3803.49, 0.195331
3806.28, 0.196781
3809.08, 0.198135
3811.88, 0.199586
3814.68, 0.201036
3817.49, 0.202293
3820.31, 0.203357
3823.12, 0.204517
3825.94, 0.205678
3828.77, 0.206548
3831.6, 0.207225
3834.43, 0.207805
3837.27, 0.208288
3840.11, 0.208772
3842.96, 0.208772
3845.81, 0.208675
3848.67, 0.208385
3851.53, 0.207902
3854.39, 0.207128
3857.26, 0.206354
3860.13, 0.205291
3863.01, 0.204130
3865.89, 0.202777
3868.77, 0.201616
3871.66, 0.200262
3874.55, 0.198812
3877.45, 0.197748
3880.35, 0.196588
3883.26, 0.195234
3886.17, 0.194364
3889.09, 0.193977
3892.01, 0.193590
3894.93, 0.193784
3897.86, 0.194654
3900.79, 0.195814
3903.73, 0.197458
3906.67, 0.199392
3909.62, 0.201810
3912.57, 0.204420
3915.52, 0.207321
3918.48, 0.210222
3921.45, 0.212737
3924.42, 0.215154
3927.39, 0.217668
3930.37, 0.219699
3933.35, 0.221439
3936.34, 0.222890
3939.33, 0.224147
3942.32, 0.225114
3945.32, 0.226081
3948.33, 0.227048
3951.34, 0.227725
3954.35, 0.228208
3957.37, 0.228788
3960.39, 0.229175
3963.42, 0.229562
3966.45, 0.229949
3969.49, 0.230336
3972.53, 0.230819
3975.58, 0.231399
3978.63, 0.231593
3981.68, 0.231786
3984.75, 0.232076
3987.81, 0.232656
3990.88, 0.233043
3993.95, 0.233237
3997.03, 0.233333
4000.12, 0.233623
4003.21, 0.234107
4006.3, 0.234397
4009.4, 0.234687
4012.5, 0.235074
4015.61, 0.235364
4018.72, 0.235654
4021.84, 0.236041
4024.96, 0.236331
4028.09, 0.236718
4031.22, 0.237201
4034.36, 0.237491
4037.5, 0.237878
4040.65, 0.238072
4043.8, 0.238362
4046.96, 0.238942
4050.12, 0.239522
4053.29, 0.240006
4056.46, 0.240392
4059.64, 0.240876
4062.82, 0.241456
4066.0, 0.242036
4069.19, 0.242616
4072.39, 0.243003
4075.59, 0.243487
4078.8, 0.243873
4082.01, 0.244164
4085.23, 0.244647
4088.45, 0.245131
4091.68, 0.245517
4094.91, 0.245904
4098.15, 0.246194
4101.39, 0.246484
4104.63, 0.246774
4107.89, 0.247161
4111.14, 0.247258
4114.41, 0.247355
4117.67, 0.247645
4120.95, 0.247935
4124.23, 0.248128
4127.51, 0.248418
4130.8, 0.248515
4134.09, 0.248612
4137.39, 0.248708
4140.7, 0.248805
4144.01, 0.248805
4147.32, 0.248902
4150.64, 0.249095
4153.97, 0.249289
4157.3, 0.249482
4160.64, 0.249675
4163.98, 0.249579
4167.33, 0.249675
4170.68, 0.249675
4174.04, 0.249869
4177.4, 0.249965
4180.77, 0.249965
4184.14, 0.249965
4187.52, 0.250159
4190.91, 0.250256
4194.3, 0.250352
4197.69, 0.250449
4201.1, 0.250836
4204.5, 0.250932
4207.92, 0.251416
4211.34, 0.252093
4214.76, 0.252963
4218.19, 0.253543
4221.62, 0.254027
4225.06, 0.254704
4228.51, 0.255187
4231.96, 0.255284
4235.42, 0.255284
4238.88, 0.254800
4242.35, 0.254414
4245.83, 0.253543
4249.31, 0.252673
4252.79, 0.251609
4256.28, 0.250836
4259.78, 0.251029
4263.29, 0.251803
4266.79, 0.252190
4270.31, 0.252480
4273.83, 0.252383
4277.35, 0.252190
4280.89, 0.251996
4284.42, 0.251706
4287.97, 0.251319
4291.52, 0.250932
4295.07, 0.250449
4298.63, 0.249869
4302.2, 0.249289
4305.78, 0.248805
4309.35, 0.248225
4312.94, 0.247548
4316.53, 0.247161
4320.13, 0.246774
4323.73, 0.246194
4327.34, 0.245711
4330.96, 0.245131
4334.58, 0.244840
4338.21, 0.244357
4341.84, 0.243873
4345.48, 0.243583
4349.12, 0.243390
4352.77, 0.243003
4356.43, 0.242616
4360.1, 0.242326
4363.76, 0.242036
4367.44, 0.241746
4371.12, 0.241359
4374.81, 0.240973
4378.51, 0.240682
4382.21, 0.240199
4385.92, 0.239909
4389.63, 0.239522
4393.35, 0.239039
4397.08, 0.238652
4400.81, 0.238458
4404.55, 0.238072
4408.29, 0.237781
4412.04, 0.237298
4415.8, 0.237008
4419.57, 0.236814
4423.34, 0.236428
4427.12, 0.236138
4430.9, 0.235654
4434.69, 0.235074
4438.49, 0.234880
4442.29, 0.234494
4446.1, 0.234010
4449.92, 0.233623
4453.74, 0.233430
4457.57, 0.233043
4461.41, 0.232656
4465.25, 0.232173
4469.1, 0.231883
4472.95, 0.231593
4476.82, 0.231013
4480.69, 0.230432
4484.56, 0.230142
4488.44, 0.229659
4492.33, 0.229272
4496.23, 0.228788
4500.13, 0.228498
4504.04, 0.228015
4507.96, 0.227628
4511.88, 0.227145
4515.81, 0.226855
4519.75, 0.226661
4523.69, 0.226661
4527.65, 0.226758
4531.6, 0.226758
4535.57, 0.226855
4539.54, 0.227241
4543.52, 0.227435
4547.5, 0.227531
4551.5, 0.227628
4555.5, 0.227725
4559.5, 0.227531
4563.52, 0.227338
4567.54, 0.227241
4571.56, 0.227338
4575.6, 0.227241
4579.64, 0.226855
4583.69, 0.226468
4587.75, 0.226274
4591.81, 0.225984
4595.88, 0.225597
4599.96, 0.225114
4604.04, 0.224727
4608.14, 0.224147
4612.24, 0.223663
4616.34, 0.223083
4620.46, 0.222600
4624.58, 0.221923
4628.71, 0.221439
4632.84, 0.220956
4636.99, 0.220569
4641.14, 0.220086
4645.3, 0.219602
4649.47, 0.219022
4653.64, 0.218538
4657.82, 0.217958
4662.01, 0.217475
4666.21, 0.216798
4670.41, 0.216121
4674.62, 0.215541
4678.84, 0.214864
4683.07, 0.214284
4687.3, 0.213994
4691.54, 0.213413
4695.79, 0.213123
4700.05, 0.212737
4704.31, 0.212156
4708.59, 0.211673
4712.87, 0.211189
4717.15, 0.210512
4721.45, 0.210029
4725.76, 0.209352
4730.07, 0.208772
4734.39, 0.208095
4738.72, 0.207418
4743.05, 0.206451
4747.39, 0.205581
4751.75, 0.204807
4756.1, 0.203937
4760.47, 0.202970
4764.85, 0.202003
4769.23, 0.201036
4773.62, 0.200069
4778.02, 0.198715
4782.43, 0.197652
4786.85, 0.196685
4791.27, 0.195621
4795.7, 0.194170
4800.14, 0.192720
4804.59, 0.191269
4809.05, 0.190012
4813.51, 0.188659
4817.99, 0.187208
4822.47, 0.185661
4826.96, 0.184017
4831.46, 0.182180
4835.96, 0.180633
4840.48, 0.178989
4845.0, 0.177248
4849.54, 0.175411
4854.08, 0.173670
4858.63, 0.171736
4863.18, 0.169802
4867.75, 0.167868
4872.33, 0.166031
4876.91, 0.163904
4881.5, 0.161970
4886.1, 0.160036
4890.71, 0.157909
4895.33, 0.155878
4899.96, 0.153944
4904.59, 0.151913
4909.24, 0.149786
4913.89, 0.147659
4918.55, 0.145628
4923.22, 0.143597
4927.9, 0.141663
4932.59, 0.139633
4937.29, 0.137602
4942.0, 0.135571
4946.71, 0.133637
4951.44, 0.131607
4956.17, 0.129769
4960.91, 0.127932
4965.67, 0.126095
4970.43, 0.124354
4975.2, 0.122420
4979.98, 0.120583
4984.76, 0.119036
4989.56, 0.117295
4994.37, 0.115651
4999.18, 0.114104
5004.01, 0.112460
5008.84, 0.110913
5013.69, 0.109463
5018.54, 0.108012
5023.4, 0.106368
5028.28, 0.104821
5033.16, 0.103467
5038.05, 0.102017
5042.95, 0.100663
5047.86, 0.0993090
5052.78, 0.0979560
5057.71, 0.0966020
5062.65, 0.0953450
5067.6, 0.0940880
5072.56, 0.0928300
5077.53, 0.0916700
5082.5, 0.0906060
5087.49, 0.0894460
5092.49, 0.0882860
5097.5, 0.0871250
5102.51, 0.0860620
5107.54, 0.0849980
5112.58, 0.0837410
5117.62, 0.0825800
5122.68, 0.0816130
5127.75, 0.0805500
5132.82, 0.0792930
5137.91, 0.0783260
5143.01, 0.0774550
5148.12, 0.0764880
5153.23, 0.0752310
5158.36, 0.0739740
5163.5, 0.0728140
5168.65, 0.0718470
5173.81, 0.0709770
5178.98, 0.0701060
5184.15, 0.0691390
5189.34, 0.0680760
5194.54, 0.0671090
5199.75, 0.0661420
5204.98, 0.0651750
5210.21, 0.0644010
5215.45, 0.0634340
5220.7, 0.0623700
5225.96, 0.0615000
5231.23, 0.0606300
5236.52, 0.0598560
5241.81, 0.0588890
5247.12, 0.0581160
5252.44, 0.0574390
5257.76, 0.0567620
5263.1, 0.0560850
5268.45, 0.0555050
5273.81, 0.0548280
5279.18, 0.0542480
5284.56, 0.0536680
5289.95, 0.0532810
5295.36, 0.0527010
5300.77, 0.0522170
5306.2, 0.0517340
5311.63, 0.0512500
5317.08, 0.0508630
5322.54, 0.0504770
5328.01, 0.0501860
5333.49, 0.0499930
5338.98, 0.0498000
5344.49, 0.0497030
5350.0, 0.0495100
5355.53, 0.0492200
5361.07, 0.0488330
5366.62, 0.0486390
5372.18, 0.0486390
5377.75, 0.0485430
5383.34, 0.0484460
5388.93, 0.0484460
5394.54, 0.0483490
5400.16, 0.0483490
5405.79, 0.0483490
5411.44, 0.0483490
5417.09, 0.0485430
5422.76, 0.0486390
5428.43, 0.0483490
5434.12, 0.0482530
5439.83, 0.0481560
5445.54, 0.0480590
5451.26, 0.0480590
5457.0, 0.0480590
5462.75, 0.0482530
5468.52, 0.0482530
5474.29, 0.0482530
5480.08, 0.0483490
5485.88, 0.0482530
5491.69, 0.0482530
5497.51, 0.0483490
5503.35, 0.0481560
5509.2, 0.0481560
5515.06, 0.0482530
5520.93, 0.0482530
5526.82, 0.0481560
5532.71, 0.0480590
5538.63, 0.0480590
5544.55, 0.0482530
5550.49, 0.0485430
5556.44, 0.0486390
5562.4, 0.0487360
5568.37, 0.0490260
5574.36, 0.0493160
5580.36, 0.0495100
5586.37, 0.0494130
5592.4, 0.0494130
5598.44, 0.0497030
5604.49, 0.0499930
5610.56, 0.0500900
5616.63, 0.0501860
5622.73, 0.0502830
5628.83, 0.0503800
5634.95, 0.0507670
5641.08, 0.0510570
5647.23, 0.0509600
5653.39, 0.0509600
5659.56, 0.0508630
5665.74, 0.0508630
5671.94, 0.0511530
5678.15, 0.0511530
5684.38, 0.0510570
5690.62, 0.0511530
5696.87, 0.0510570
5703.14, 0.0511530
5709.42, 0.0514440
5715.72, 0.0514440
5722.03, 0.0513470
5728.35, 0.0512500
5734.69, 0.0513470
5741.03, 0.0515400
5747.4, 0.0516370
5753.78, 0.0514440
5760.17, 0.0519270
5766.58, 0.0524110
5773.0, 0.0519270
5779.44, 0.0517340
5785.88, 0.0517340
5792.35, 0.0517340
5798.83, 0.0517340
5805.32, 0.0517340
5811.83, 0.0519270
5818.35, 0.0525070
5824.89, 0.0526040
5831.45, 0.0520240
5838.01, 0.0518300
5844.59, 0.0518300
5851.19, 0.0518300
5857.8, 0.0519270
5864.43, 0.0518300
5871.07, 0.0517340
5877.73, 0.0525070
5884.4, 0.0523140
5891.09, 0.0520240
5897.79, 0.0518300
5904.5, 0.0508630
5911.23, 0.0505730
5917.98, 0.0504770
5924.75, 0.0504770
5931.53, 0.0508630
5938.32, 0.0507670
5945.13, 0.0497030
5951.96, 0.0493160
5958.8, 0.0493160
5965.65, 0.0493160
5972.53, 0.0489290
5979.42, 0.0486390
5986.32, 0.0488330
5993.24, 0.0484460
6000.18, 0.0477690
6007.13, 0.0476720
6014.1, 0.0477690
6021.08, 0.0473820
6028.09, 0.0471890
6035.1, 0.0471890
6042.14, 0.0479620
6049.19, 0.0486390
6056.25, 0.0475760
6063.34, 0.0471890
6070.44, 0.0476720
6077.55, 0.0474790
6084.69, 0.0470920
6091.84, 0.0470920
6099.0, 0.0471890
6106.19, 0.0476720
6113.39, 0.0481560
6120.61, 0.0475760
6127.84, 0.0473820
6135.09, 0.0475760
6142.36, 0.0477690
6149.65, 0.0476720
6156.95, 0.0478660
6164.27, 0.0477690
6171.61, 0.0475760
6178.97, 0.0479620
6186.34, 0.0479620
6193.73, 0.0469950
6201.14, 0.0464150
6208.57, 0.0457380
6216.01, 0.0448680
6223.47, 0.0439010
6230.95, 0.0430310
6238.45, 0.0419670
6245.97, 0.0410000
6253.5, 0.0399360
6261.06, 0.0390660
6268.63, 0.0384860
6276.21, 0.0378090
6283.82, 0.0367450
6291.45, 0.0357780
6299.1, 0.0350050
6306.76, 0.0341350
6314.44, 0.0330710
6322.14, 0.0319100
6329.86, 0.0308470
6337.6, 0.0299770
6345.35, 0.0289130
6353.13, 0.0272690
6360.92, 0.0261090
6368.74, 0.0254320
6376.57, 0.0244650
6384.43, 0.0236910
6392.3, 0.0233040
6400.19, 0.0231110
6408.1, 0.0234980
6416.03, 0.0236910
6423.98, 0.0233040
6431.95, 0.0233040
6439.94, 0.0232080
6447.95, 0.0233040
6455.98, 0.0234980
6464.03, 0.0236910
6472.1, 0.0240780
6480.19, 0.0242710
6488.31, 0.0244650
6496.44, 0.0246580
6504.59, 0.0245610
6512.76, 0.0246580
6520.95, 0.0250450
6529.16, 0.0254320
6537.4, 0.0260120
6545.65, 0.0268820
6553.92, 0.0278490
6562.22, 0.0291060
6570.54, 0.0306530
6578.88, 0.0318140
6587.23, 0.0330710
6595.61, 0.0343280
6604.02, 0.0351980
6612.44, 0.0359720
6620.89, 0.0366490
6629.35, 0.0375190
6637.84, 0.0379060
6646.35, 0.0368420
6654.88, 0.0358750
6663.44, 0.0351980
6672.01, 0.0346180
6680.61, 0.0336510
6689.23, 0.0319100
6697.88, 0.0304600
6706.54, 0.0292030
6715.23, 0.0278490
6723.94, 0.0264950
6732.67, 0.0252380
6741.42, 0.0243680
6750.2, 0.0235940
6759.0, 0.0229180
6767.82, 0.0227240
6776.67, 0.0228210
6785.54, 0.0228210
6794.44, 0.0227240
6803.35, 0.0227240
6812.29, 0.0228210
6821.26, 0.0232080
6830.24, 0.0234980
6839.25, 0.0236910
6848.29, 0.0242710
6857.35, 0.0250450
6866.43, 0.0255280
6875.54, 0.0256250
6884.67, 0.0258180
6893.82, 0.0260120
6903.0, 0.0262050
6912.2, 0.0260120
6921.43, 0.0258180
6930.69, 0.0257220
6939.96, 0.0254320
6949.27, 0.0252380
6958.59, 0.0250450
6967.95, 0.0243680
6977.33, 0.0237880
6986.73, 0.0234010
6996.16, 0.0229180
7005.61, 0.0225310
7015.09, 0.0221440
7024.6, 0.0216600
7034.13, 0.0215640
7043.69, 0.0216600
7053.27, 0.0213700
7062.88, 0.0209840
7072.52, 0.0208870
7082.18, 0.0208870
7091.87, 0.0208870
7101.58, 0.0208870
7111.32, 0.0208870
7121.09, 0.0209840
7130.88, 0.0208870
7140.71, 0.0207900
7150.56, 0.0208870
7160.43, 0.0209840
7170.33, 0.0209840
7180.27, 0.0207900
7190.23, 0.0205970
7200.21, 0.0202100
7210.23, 0.0199200
7220.27, 0.0196300
7230.34, 0.0194360
7240.44, 0.0191460
7250.56, 0.0188560
7260.72, 0.0186630
7270.9, 0.0184690
7281.12, 0.0181790
7291.36, 0.0179860
7301.63, 0.0178890
7311.93, 0.0177930
7322.25, 0.0177930
7332.61, 0.0179860
7343.0, 0.0178890
7353.41, 0.0178890
7363.86, 0.0180830
7374.33, 0.0182760
7384.83, 0.0183730
7395.37, 0.0183730
7405.93, 0.0184690
7416.53, 0.0186630
7427.15, 0.0189530
7437.81, 0.0191460
7448.5, 0.0192430
7459.22, 0.0194360
7469.96, 0.0197260
7480.74, 0.0197260
7491.55, 0.0195330
7502.39, 0.0195330
7513.27, 0.0198230
7524.17, 0.0197260
7535.11, 0.0195330
7546.08, 0.0196300
7557.08, 0.0196300
7568.11, 0.0196300
7579.17, 0.0197260
7590.27, 0.0196300
7601.4, 0.0197260
7612.56, 0.0196300
7623.76, 0.0195330
7634.98, 0.0195330
7646.24, 0.0195330
7657.54, 0.0196300
7668.87, 0.0197260
7680.23, 0.0197260
7691.62, 0.0196300
7703.05, 0.0195330
7714.51, 0.0194360
7726.01, 0.0193400
7737.54, 0.0193400
7749.11, 0.0190500
7760.71, 0.0188560
7772.35, 0.0186630
7784.02, 0.0186630
7795.72, 0.0185660
7807.46, 0.0182760
7819.23, 0.0179860
7831.04, 0.0180830
7842.89, 0.0179860
7854.77, 0.0176960
7866.69, 0.0176960
7878.65, 0.0177930
7890.64, 0.0176960
7902.67, 0.0175990
7914.74, 0.0175020
7926.84, 0.0174060
7938.98, 0.0174060
7951.16, 0.0174060
7963.37, 0.0172120
7975.62, 0.0170190
7987.91, 0.0167290
8000.24, 0.0165350
8012.6, 0.0163420
8025.01, 0.0159550
8037.45, 0.0156650
8049.93, 0.0155680
8062.45, 0.0155680
8075.01, 0.0153750
8087.61, 0.0149880
8100.24, 0.0146010
8112.91, 0.0145050
8125.63, 0.0145050
8138.39, 0.0143110
8151.18, 0.0142150
8164.02, 0.0140210
8176.9, 0.0137310
8189.81, 0.0135380
8202.77, 0.0134410
8215.77, 0.0132480
8228.82, 0.0130540
8241.9, 0.0127640
8255.02, 0.0124740
8268.19, 0.0122810
8281.39, 0.0121840
8294.65, 0.0117970
8307.94, 0.0115070
8321.28, 0.0115070
8334.66, 0.0112170
8348.08, 0.0109270
8361.54, 0.0106370
8375.05, 0.0105400
8388.6, 0.0105400
8402.2, 0.0103470
8415.84, 0.0100570
8429.52, 0.00986300
8443.25, 0.00957300
8457.02, 0.00938000
8470.84, 0.00918600
8484.7, 0.00899300
8498.61, 0.00870300
8512.57, 0.00860600
8526.57, 0.00850900
8540.62, 0.00831600
8554.71, 0.00821900
8568.85, 0.00802600
8583.04, 0.00792900
8597.27, 0.00763900
8611.55, 0.00744600
8625.88, 0.00744600
8640.26, 0.00734900
8654.68, 0.00734900
8669.16, 0.00734900
8683.68, 0.00715600
8698.25, 0.00705900
8712.87, 0.00696200
8727.53, 0.00686600
8742.25, 0.00686600
8757.02, 0.00667200
8771.83, 0.00667200
8786.7, 0.00667200
8801.62, 0.00667200
8816.59, 0.00657500
8831.61, 0.00667200
8846.68, 0.00686600
8861.8, 0.00686600
8876.97, 0.00705900
8892.2, 0.00715600
8907.48, 0.00715600
8922.81, 0.00715600
8938.2, 0.00715600
8953.63, 0.00715600
8969.13, 0.00725200
8984.67, 0.00754200
9000.27, 0.00754200
9015.92, 0.00725200
9031.63, 0.00734900
9047.39, 0.00754200
9063.21, 0.00754200
9079.08, 0.00773600
9095.01, 0.00783300
9111.0, 0.00783300
9127.04, 0.00812300
9143.13, 0.00831600
9159.28, 0.00860600
9175.49, 0.00928300
9191.76, 0.0101530
9208.09, 0.0110240
9224.47, 0.0121840
9240.92, 0.0139250
9257.42, 0.0162450
9273.98, 0.0188560
9290.6, 0.0221440
9307.28, 0.0266890
9324.02, 0.0320070
9340.82, 0.0379060
9357.68, 0.0450610
9374.6, 0.0530870
9391.58, 0.0619840
9408.62, 0.0717500
9425.73, 0.0819040
9442.9, 0.0926370
9460.13, 0.103177
9477.42, 0.113331
9494.78, 0.122614
9512.2, 0.130446
9529.69, 0.137118
9547.24, 0.143307
9564.86, 0.148916
9582.54, 0.153654
9600.28, 0.157715
9618.1, 0.161680
9635.97, 0.165064
9653.92, 0.168159
9671.93, 0.170576
9690.01, 0.172317
9708.16, 0.173767
9726.37, 0.174734
9744.65, 0.175024
9763.0, 0.174637
9781.43, 0.173090
9799.92, 0.170769
9818.48, 0.167095
9837.1, 0.162163
9855.8, 0.156555
9874.58, 0.150173
9893.42, 0.143791
9912.34, 0.137408
9931.33, 0.130833
9950.39, 0.124451
9969.52, 0.118359
9988.74, 0.112750
10008.0, 0.107529
10027.4, 0.103177
10046.8, 0.0994060
10066.3, 0.0962150
10085.9, 0.0937970
10105.6, 0.0918640
10125.3, 0.0902200
10145.1, 0.0887690
10165.0, 0.0875120
10185.0, 0.0865450
10205.0, 0.0855780
10225.2, 0.0849980
10245.4, 0.0847080
10265.7, 0.0845140
10286.0, 0.0840310
10306.5, 0.0835470
10327.0, 0.0829670
10347.6, 0.0824840
10368.3, 0.0818070
10389.1, 0.0808400
10409.9, 0.0798730
10430.9, 0.0789060
10451.9, 0.0777460
10473.0, 0.0761020
10494.2, 0.0741680
10515.5, 0.0728140
10536.9, 0.0718470
10558.4, 0.0704930
10579.9, 0.0690430
10601.5, 0.0677860
10623.3, 0.0666250
10645.1, 0.0661420
10667.0, 0.0658520
10689.0, 0.0660450
10711.1, 0.0666250
10733.2, 0.0675920
10755.5, 0.0689460
10777.9, 0.0706870
10800.3, 0.0725240
10822.9, 0.0741680
10845.5, 0.0755210
10868.2, 0.0766820
10891.1, 0.0775520
10914.0, 0.0781320
10937.0, 0.0781320
10960.2, 0.0771650
10983.4, 0.0761020
11006.7, 0.0751350
11030.1, 0.0741680
11053.6, 0.0730070
11077.3, 0.0722340
11101.0, 0.0716540
11124.8, 0.0711700
11148.7, 0.0704930
11172.7, 0.0703000
11196.9, 0.0703000
11221.1, 0.0699130
11245.4, 0.0695260
11269.9, 0.0690430
11294.4, 0.0683660
11319.1, 0.0679790
11343.9, 0.0676890
11368.8, 0.0673990
11393.7, 0.0672050
11418.8, 0.0669150
11444.0, 0.0670120
11469.4, 0.0671090
11494.8, 0.0672050
11520.3, 0.0673020
11546.0, 0.0673020
11571.8, 0.0671090
11597.7, 0.0667220
11623.7, 0.0664320
11649.8, 0.0666250
11676.0, 0.0668190
11702.4, 0.0666250
11728.9, 0.0660450
11755.5, 0.0657550
11782.2, 0.0656580
11809.0, 0.0653680
11836.0, 0.0650780
11863.0, 0.0646910
11890.3, 0.0641110
11917.6, 0.0636280
11945.0, 0.0631440
11972.6, 0.0620800
12000.4, 0.0610170
12028.2, 0.0600500
12056.2, 0.0587930
12084.3, 0.0576320
12112.5, 0.0564720
12140.9, 0.0551180
12169.4, 0.0536680
12198.0, 0.0524110
12226.8, 0.0512500
12255.7, 0.0503800
12284.7, 0.0496060
12313.9, 0.0485430
12343.2, 0.0477690
12372.7, 0.0476720
12402.3, 0.0475760
12432.0, 0.0472860
12461.9, 0.0472860
12491.9, 0.0474790
12522.1, 0.0474790
12552.4, 0.0475760
12582.9, 0.0479620
12613.5, 0.0482530
12644.3, 0.0479620
12675.2, 0.0477690
12706.3, 0.0476720
12737.5, 0.0473820
12768.9, 0.0468020
12800.4, 0.0460280
12832.1, 0.0454480
12863.9, 0.0451580
12895.9, 0.0444810
12928.1, 0.0436110
12960.4, 0.0428370
12992.9, 0.0424510
13025.5, 0.0415800
13058.3, 0.0408070
13091.3, 0.0399360
13124.4, 0.0387760
13157.8, 0.0380990
13191.2, 0.0377120
13224.9, 0.0369390
13258.7, 0.0363590
13292.7, 0.0360690
13326.9, 0.0356820
13361.2, 0.0347150
13395.7, 0.0341350
13430.4, 0.0341350
13465.3, 0.0338440
13500.4, 0.0332640
13535.7, 0.0328770
13571.1, 0.0326840
13606.7, 0.0322970
13642.5, 0.0319100
13678.5, 0.0313300
13714.7, 0.0306530
13751.1, 0.0299770
13787.6, 0.0291060
13824.4, 0.0280430
13861.4, 0.0275590
13898.5, 0.0269790
13935.9, 0.0260120
13973.5, 0.0253350
14011.2, 0.0248510
14049.2, 0.0239810
14087.4, 0.0230140
14125.8, 0.0224340
14164.3, 0.0221440
14203.2, 0.0219510
14242.2, 0.0210800
14281.4, 0.0203070
14320.9, 0.0201130
14360.5, 0.0195330
14400.4, 0.0187590
14440.5, 0.0184690
14480.9, 0.0185660
14521.4, 0.0184690
14562.2, 0.0181790
14603.3, 0.0182760
14644.5, 0.0181790
14686.0, 0.0176960
14727.7, 0.0173090
14769.7, 0.0168260
14811.9, 0.0166320
14854.3, 0.0166320
14897.0, 0.0157620
14939.9, 0.0155680
14983.1, 0.0154720
15026.5, 0.0150850
15070.2, 0.0149880
15114.2, 0.0150850
15158.3, 0.0144080
15202.8, 0.0138280
15247.5, 0.0138280
15292.5, 0.0142150
15337.7, 0.0146010
15383.2, 0.0147950
15429.0, 0.0151820
15475.1, 0.0160520
15521.4, 0.0165350
15568.0, 0.0170190
15614.9, 0.0175990
15662.1, 0.0184690
15709.6, 0.0193400
15757.3, 0.0197260
15805.4, 0.0205000
15853.7, 0.0205970
15902.3, 0.0213700
15951.2, 0.0224340
16000.5, 0.0234010
16050.0, 0.0237880
16099.8, 0.0236910
16150.0, 0.0242710
16200.5, 0.0254320
16251.3, 0.0263990
16302.4, 0.0277520
16353.8, 0.0287190
16405.5, 0.0288160
16457.6, 0.0296860
16510.0, 0.0301700
16562.8, 0.0308470
16615.9, 0.0318140
16669.3, 0.0315240
16723.1, 0.0312340
16777.2, 0.0308470
16831.7, 0.0310400
16886.5, 0.0320070
16941.7, 0.0323940
16997.2, 0.0331680
17053.1, 0.0352950
17109.4, 0.0379060
17166.1, 0.0401300
17223.1, 0.0426440
17280.5, 0.0457380
17338.3, 0.0484460
17396.5, 0.0504770
17455.1, 0.0522170
17514.0, 0.0527970
17573.4, 0.0527970
17633.2, 0.0527010
17693.4, 0.0526040
17754.0, 0.0526040
17815.0, 0.0535710
17876.4, 0.0543450
17938.3, 0.0541510
18000.5, 0.0545380
18063.3, 0.0547310
18126.4, 0.0542480
18190.0, 0.0540540
18254.1, 0.0533780
18318.6, 0.0534740
18383.5, 0.0541510
18449.0, 0.0543450
18514.9, 0.0540540
18581.2, 0.0551180
18648.0, 0.0572450
18715.4, 0.0598560
18783.2, 0.0626610
18851.5, 0.0651750
18920.3, 0.0676890
18989.6, 0.0696230
19059.4, 0.0716540
19129.7, 0.0733940
19200.6, 0.0755210
19272.0, 0.0790990
19343.9, 0.0820970
19416.3, 0.0858680
19489.3, 0.0904130
19562.8, 0.0957310
19637.0, 0.101312
19711.6, 0.105824
19786.8, 0.110671
19862.6, 0.116358
19939.0, 0.120557
20016.0, 0.123821
20093.6, 0.128788
20171.8, 0.131980
20250.6, 0.131884
20330.0, 0.133683
20410.0, 0.136443
20490.7, 0.135747
20572.0, 0.135099
20654.0, 0.135819
20736.6, 0.135027
20819.9, 0.132363
20903.8, 0.131356
20988.5, 0.129412
21073.8, 0.127084
21159.8, 0.126676
21246.5, 0.123893
21334.0, 0.120317
21422.1, 0.121013
21511.0, 0.121757
21600.7, 0.121061
21691.0, 0.120413
21782.1, 0.120293
21874.0, 0.121181
21966.7, 0.120725
22060.2, 0.120797
22154.5, 0.122909
22249.6, 0.125309
22345.5, 0.128788
22442.2, 0.130492
22539.8, 0.131164
22638.2, 0.134931
22737.5, 0.137931
22837.7, 0.141362
22938.7, 0.143906
23040.7, 0.144170
23143.5, 0.144650
23247.3, 0.142898
23352.1, 0.140426
23457.7, 0.139898
23564.4, 0.136659
23672.0, 0.130612
23780.5, 0.126412
23890.1, 0.123413
24000.7, 0.121325
24112.3, 0.118998
24225.0, 0.117870
24338.7, 0.116886
24453.5, 0.115590
24569.4, 0.114558
24686.4, 0.113598
24804.5, 0.111775
24923.8, 0.109063
25044.2, 0.106999
25165.8, 0.105800
25288.6, 0.104552
25412.5, 0.103280
25537.7, 0.104192
25664.1, 0.105368
25791.8, 0.104624
25920.8, 0.104024
26051.1, 0.104312
26182.6, 0.104072
26315.5, 0.103496
26449.8, 0.102968
26585.4, 0.102056
26722.5, 0.101768
26860.9, 0.101072
27000.8, 0.0998490
27142.1, 0.100832
27285.0, 0.101528
27429.4, 0.101648
27575.3, 0.102128
27722.7, 0.102176
27871.8, 0.101984
28022.4, 0.102056
28174.7, 0.102920
28328.7, 0.103184
28484.4, 0.103352
28641.7, 0.102272
28800.9, 0.100448
28961.8, 0.0998250
29124.5, 0.0980730
29289.0, 0.0954570
29455.4, 0.0962490
29623.8, 0.0958890
29794.0, 0.0944490
29966.3, 0.0949050
30140.5, 0.0939690
30316.7, 0.0920260
30495.1, 0.0919780
30675.5, 0.0951930
30858.1, 0.0966810
31042.8, 0.0963930
31229.8, 0.0979050
31419.1, 0.0992010
31610.7, 0.0985770
31804.6, 0.0987690
32000.9, 0.0992970
32199.7, 0.0993450
32400.9, 0.100328
32604.8, 0.100496
32811.1, 0.0980250
33020.1, 0.0965370
33231.8, 0.0984330
33446.2, 0.0994890
33663.4, 0.0969930
33883.4, 0.0955770
34106.3, 0.0951450
34332.1, 0.0926500
34561.0, 0.0898660
34792.9, 0.0881860
35028.0, 0.0872260
35266.3, 0.0850430
35507.8, 0.0825950
35752.7, 0.0809150
36001.0, 0.0806280
36252.8, 0.0825950
36508.1, 0.0830990
36767.0, 0.0834830
37029.7, 0.0848990
37296.1, 0.0856910
37566.3, 0.0855950
37840.5, 0.0857390
38118.8, 0.0875140
38401.2, 0.0881140
38687.8, 0.0872020
38978.6, 0.0871060
39273.9, 0.0851870
39573.7, 0.0855950
39878.1, 0.0863870
40187.3, 0.0840350
40501.2, 0.0836990
40820.0, 0.0861230
41144.0, 0.0879220
41473.2, 0.0903220
41807.6, 0.0931300
42147.5, 0.0964650
42493.0, 0.0998970
42844.2, 0.103376
43201.2, 0.106639
43564.3, 0.106376
43933.5, 0.104624
44309.0, 0.104456
44691.0, 0.101720
45079.6, 0.0998970
45475.0, 0.101096
45877.5, 0.101264
46287.1, 0.0977850
46704.2, 0.0939930
47128.7, 0.0933940
47561.1, 0.0930100
48001.5, 0.0889780
48450.1, 0.0877780
48907.2, 0.0917620
49373.0, 0.0904660
49847.7, 0.0857630
50331.5, 0.0818750
50825.0, 0.0783000
51328.2, 0.0752280
51841.5, 0.0762360
52365.1, 0.0797400
52899.4, 0.0792600
53444.8, 0.0807950
54001.5, 0.0878260
54570.1, 0.0919780
55150.6, 0.0931540
55743.6, 0.0965610
56349.5, 0.0964170
56968.7, 0.0956730
57601.7, 0.0968250
58248.9, 0.0962250
58910.9, 0.0923380
59588.1, 0.0944970
60281.0, 0.0943530
60990.2, 0.0892900
61716.3, 0.0890980
62459.8, 0.0902500
63221.6, 0.0889300
64002.1, 0.0892660
64802.1, 0.0923620
65622.1, 0.0940650
66463.4, 0.0952650
67326.6, 0.0953130
68212.4, 0.0959850
69121.9, 0.0921940
70056.0, 0.0950250
71015.7, 0.0909940
72002.0, 0.0890500
73016.3, 0.0899380
74059.4, 0.0879220
75132.7, 0.0855230
76237.6, 0.0858830
77375.5, 0.0872980
78547.9, 0.0858590
79756.3, 0.0863630
81002.5, 0.0896500
82288.5, 0.0911380
83615.7, 0.0908980
84986.5, 0.0910180
86402.9, 0.0953370
87867.4, 0.0990810
89382.4, 0.0971370
90950.5, 0.0972570
92574.6, 0.0994890
94257.2, 0.0962250
96002.7, 0.0944250
97814.1, 0.0919300
99695.1, 0.0857870
101650.0, 0.0893140
103683.0, 0.0963450
105799.0, 0.0966090
108003.0, 0.0960570
110301.0, 0.0980010
112699.0, 0.0983130
115204.0, 0.0997290
117822.0, 0.105968
120562.0, 0.111967
123433.0, 0.114846
126443.0, 0.114462
129604.0, 0.113550
132926.0, 0.107959
136424.0, 0.108895
140111.0, 0.126100
144003.0, 0.120821
148118.0, 0.119190
152474.0, 0.133107
157095.0, 0.138866
162004.0, 0.148969
167231.0, 0.145585
172805.0, 0.140090
178764.0, 0.118782
185148.0, 0.114870
192005.0, 0.131908
199390.0, 0.142082
207366.0, 0.184003
216006.0, 0.140426
