Database of Origin, USGS Spectral Database
Sample Description, See USGS database for additional info
Date Added,2016-08-10 05:16:13.842898

Data ID,USGS_nep03          
Sample ID, nephrite_hs296.15827
Mineral Name, nephrite
Material Class,Inosilicate

Wavelength
221.1, 0.0794090
229.1, 0.0893660
236.1, 0.0952040
242.1, 0.0961790
248.1, 0.0927680
253.6, 0.0904600
258.6, 0.0887680
263.6, 0.0913960
268.6, 0.0941500
273.1, 0.102853
277.1, 0.108620
281.1, 0.120675
285.1, 0.130325
289.1, 0.143671
293.1, 0.154993
297.1, 0.165217
301.1, 0.178918
305.1, 0.193523
309.1, 0.202807
313.1, 0.213545
317.1, 0.223979
321.1, 0.230678
325.1, 0.234216
329.1, 0.239853
333.1, 0.243226
337.1, 0.247491
341.1, 0.250679
345.1, 0.253989
349.1, 0.259692
353.1, 0.266731
357.1, 0.273563
360.6, 0.279927
363.6, 0.282271
366.6, 0.283935
369.6, 0.286277
372.6, 0.287229
375.6, 0.288710
378.6, 0.291041
381.1, 0.292612
383.1, 0.291487
385.1, 0.291375
387.1, 0.292935
389.1, 0.292684
391.1, 0.295096
393.1, 0.296890
395.1, 0.300425
397.1, 0.301380
399.1, 0.299517
401.1, 0.301291
403.1, 0.303059
405.1, 0.302765
407.1, 0.303970
409.1, 0.303238
411.1, 0.302287
412.8, 0.306531
415.8, 0.305988
418.8, 0.308302
421.8, 0.311960
424.8, 0.312812
427.8, 0.315877
430.8, 0.317146
433.8, 0.317839
436.8, 0.320734
439.8, 0.324018
442.8, 0.324174
445.8, 0.323849
448.8, 0.321990
451.3, 0.328198
453.3, 0.327562
455.3, 0.331631
457.3, 0.331451
459.3, 0.333612
461.3, 0.334564
463.3, 0.336362
465.3, 0.340271
467.3, 0.342493
469.3, 0.344129
471.3, 0.345692
473.3, 0.351429
475.3, 0.350451
477.3, 0.355601
479.3, 0.354815
481.3, 0.359525
483.3, 0.361497
485.3, 0.361701
487.3, 0.363851
489.3, 0.364425
491.3, 0.367319
493.3, 0.367486
495.3, 0.367169
497.3, 0.369476
499.3, 0.370834
501.3, 0.374387
503.3, 0.375495
505.3, 0.374571
507.3, 0.374350
509.3, 0.379623
511.3, 0.378099
513.3, 0.380939
515.3, 0.379907
517.3, 0.379766
519.3, 0.382107
521.3, 0.379622
523.3, 0.377490
525.3, 0.379205
527.3, 0.374339
529.3, 0.377260
531.3, 0.378240
533.3, 0.377553
535.3, 0.377496
537.3, 0.375483
539.3, 0.376679
541.3, 0.377917
543.3, 0.375227
545.3, 0.376428
547.3, 0.373312
549.3, 0.375497
551.3, 0.376113
553.3, 0.375078
555.3, 0.372395
557.3, 0.374016
559.3, 0.374081
561.3, 0.370677
563.3, 0.372019
565.3, 0.371767
567.3, 0.369965
569.3, 0.368294
571.3, 0.369004
573.3, 0.368919
575.3, 0.368982
577.3, 0.367102
579.3, 0.366097
581.3, 0.362440
583.3, 0.363662
585.3, 0.360326
587.3, 0.361124
589.3, 0.360704
591.3, 0.362033
593.3, 0.360438
595.3, 0.358167
597.3, 0.358584
599.3, 0.357361
601.1, 0.357256
602.7, 0.356203
604.3, 0.354998
605.9, 0.354610
607.5, 0.354010
609.1, 0.354621
610.7, 0.354255
612.3, 0.352839
613.9, 0.351445
615.5, 0.349741
617.1, 0.350800
618.7, 0.349284
620.3, 0.348000
621.9, 0.344703
623.5, 0.345763
625.1, 0.345936
626.7, 0.344294
628.3, 0.344794
629.9, 0.342768
631.7, 0.342850
633.7, 0.342508
635.7, 0.343601
637.7, 0.339676
639.7, 0.340563
641.7, 0.338695
643.7, 0.336945
645.7, 0.338476
647.7, 0.335822
649.7, 0.334549
651.7, 0.333390
653.7, 0.333204
655.7, 0.331767
657.7, 0.330862
659.7, 0.330818
661.7, 0.329762
663.7, 0.328358
665.7, 0.329606
667.7, 0.329651
670.2, 0.326301
673.2, 0.327451
676.2, 0.324964
679.2, 0.326356
682.2, 0.323404
685.2, 0.323583
688.2, 0.321325
691.2, 0.320368
694.2, 0.319789
697.2, 0.319916
700.2, 0.317546
702.0, 0.320347
704.0, 0.321632
706.0, 0.320067
708.0, 0.317494
710.0, 0.316809
712.0, 0.320200
714.0, 0.319199
716.0, 0.318938
718.0, 0.318526
720.0, 0.318602
722.0, 0.319774
724.0, 0.318249
726.0, 0.319371
728.0, 0.320068
730.0, 0.320075
732.0, 0.321618
734.0, 0.318785
736.0, 0.319094
738.0, 0.320195
740.0, 0.319992
742.0, 0.320956
744.0, 0.322327
746.0, 0.321999
748.0, 0.320500
750.5, 0.320906
753.5, 0.321549
756.5, 0.322836
759.5, 0.323628
762.5, 0.324382
765.5, 0.326320
768.5, 0.326328
771.5, 0.328812
774.5, 0.329373
777.5, 0.331567
781.0, 0.332946
785.0, 0.335168
789.0, 0.335409
793.0, 0.338673
797.0, 0.336744
801.5, 0.335897
806.5, 0.337872
811.5, 0.338843
816.5, 0.339685
822.0, 0.336198
828.0, 0.332780
835.0, 0.331391
851.0, 0.329278
859.0, 0.325842
871.0, 0.324398
883.0, 0.317066
894.0, 0.314606
904.0, 0.314744
914.0, 0.311293
924.0, 0.312142
933.0, 0.312810
941.0, 0.311846
949.0, 0.311021
957.0, 0.313839
964.0, 0.314484
970.0, 0.315643
976.0, 0.317024
982.0, 0.317134
988.0, 0.316774
994.0, 0.316146
1000.0, 0.317376
1006.0, 0.316366
1012.0, 0.315020
1018.0, 0.315310
1023.5, 0.315087
1028.5, 0.317297
1033.5, 0.314769
1038.5, 0.315192
1043.5, 0.316058
1048.5, 0.315999
1053.5, 0.314478
1058.5, 0.312616
1063.5, 0.311140
1068.5, 0.311752
1073.5, 0.311228
1078.5, 0.313491
1083.5, 0.311493
1088.5, 0.312074
1093.5, 0.312282
1098.5, 0.310219
1103.5, 0.308290
1108.5, 0.309298
1113.5, 0.312848
1118.5, 0.311716
1123.5, 0.314180
1128.5, 0.313112
1133.5, 0.315498
1138.5, 0.313740
1143.5, 0.315912
1148.5, 0.313765
1153.5, 0.313103
1158.5, 0.316770
1163.5, 0.316761
1168.5, 0.318353
1173.5, 0.318721
1178.5, 0.320569
1183.5, 0.320269
1188.5, 0.321673
1193.5, 0.325133
1198.5, 0.324400
1203.5, 0.327583
1208.5, 0.326297
1213.5, 0.327689
1218.5, 0.330597
1223.5, 0.331533
1228.5, 0.334098
1233.5, 0.334268
1238.5, 0.337299
1243.5, 0.338204
1248.5, 0.341729
1253.5, 0.339409
1258.5, 0.340802
1263.5, 0.342337
1268.5, 0.341928
1273.5, 0.343810
1278.5, 0.344568
1283.5, 0.346045
1288.5, 0.346698
1293.5, 0.348638
1298.5, 0.349583
1303.5, 0.351906
1308.5, 0.354269
1313.5, 0.354528
1318.5, 0.352246
1323.5, 0.355705
1328.5, 0.357529
1333.5, 0.360998
1338.5, 0.362480
1343.5, 0.363998
1348.5, 0.363597
1353.5, 0.363411
1358.5, 0.359106
1363.5, 0.355020
1368.5, 0.356988
1373.5, 0.363154
1378.5, 0.351321
1383.5, 0.305876
1388.5, 0.297028
1393.5, 0.284153
1398.5, 0.296689
1403.5, 0.309528
1408.5, 0.335386
1413.5, 0.352826
1418.5, 0.361126
1423.5, 0.363317
1428.5, 0.368248
1433.5, 0.369417
1438.5, 0.372063
1443.5, 0.373480
1448.5, 0.372702
1453.5, 0.377159
1458.5, 0.384159
1463.5, 0.382742
1468.5, 0.384192
1473.5, 0.386636
1478.5, 0.384802
1483.5, 0.386753
1488.5, 0.388200
1493.5, 0.387933
1498.5, 0.388404
1503.5, 0.391415
1508.5, 0.389213
1513.5, 0.391495
1518.5, 0.388105
1523.5, 0.392078
1528.5, 0.393369
1534.0, 0.393442
1540.0, 0.394151
1546.0, 0.394448
1552.0, 0.395513
1558.0, 0.395829
1564.0, 0.396770
1570.5, 0.397176
1577.5, 0.396864
1584.5, 0.397758
1591.5, 0.399323
1598.5, 0.399020
1605.5, 0.401201
1612.5, 0.403176
1619.5, 0.403914
1626.5, 0.399550
1633.5, 0.403347
1640.5, 0.402231
1647.5, 0.404014
1654.5, 0.402818
1661.5, 0.406136
1668.5, 0.404790
1676.0, 0.406929
1684.0, 0.403103
1692.0, 0.402136
1700.0, 0.403535
1708.0, 0.406396
1716.0, 0.402933
1724.0, 0.405868
1732.0, 0.403198
1740.0, 0.401641
1748.0, 0.405847
1756.0, 0.403787
1764.0, 0.403182
1772.0, 0.403940
1780.0, 0.404377
1788.0, 0.404286
1796.0, 0.405453
1805.0, 0.401652
1815.0, 0.400390
1825.0, 0.399593
1835.0, 0.398876
1845.0, 0.397687
1855.0, 0.401579
1865.0, 0.397753
1875.0, 0.396725
1885.0, 0.389057
1895.0, 0.386655
1905.0, 0.371367
1915.0, 0.369034
1925.0, 0.368441
1935.0, 0.364948
1945.0, 0.362247
1955.0, 0.358053
1965.0, 0.356586
1975.0, 0.353091
1985.0, 0.353328
1995.0, 0.354154
2005.0, 0.354490
2015.0, 0.361295
2025.0, 0.362710
2035.0, 0.367473
2045.0, 0.376704
2055.0, 0.376476
2065.0, 0.380947
2075.0, 0.380500
2085.0, 0.377223
2095.0, 0.369720
2105.0, 0.360553
2115.0, 0.359545
2125.0, 0.359449
2135.0, 0.359429
2145.0, 0.363123
2155.0, 0.366936
2165.0, 0.368663
2175.0, 0.371388
2185.0, 0.370614
2195.0, 0.368330
2205.0, 0.369614
2215.0, 0.367019
2225.0, 0.358489
2235.0, 0.328094
2245.0, 0.308163
2255.0, 0.302231
2265.0, 0.283650
2275.0, 0.267013
2285.0, 0.250593
2295.0, 0.239053
2305.0, 0.219666
2315.0, 0.186336
2325.0, 0.191330
2335.0, 0.209697
2345.0, 0.243547
2355.0, 0.265461
2365.0, 0.275529
2375.0, 0.259599
2386.0, 0.246472
2400.0, 0.247033
2418.0, 0.237938
2440.0, 0.229642
2466.0, 0.225873
2496.0, 0.214029
2528.0, 0.208833
2560.0, 0.215522
2592.0, 0.221657
2624.0, 0.237934
2656.0, 0.220396
2688.0, 0.133352
2720.0, 0.0358340
2752.0, 0.0261760
2784.0, 0.0424320
2816.0, 0.0592560
2848.0, 0.0370770
2880.0, 0.0659050
2912.0, 0.0620030
2944.0, 0.0588850
2976.0, 0.0951690
