Database of Origin, USGS Spectral Database
Sample Description, See USGS database for additional info
Date Added,2016-08-10 03:01:15.790991

Data ID,USGS_hyp10          
Sample ID, hypersthene_pyx02.10610
Mineral Name, hypersthene
Material Class,Inosilicate

Wavelength
1587.8, 0.373014
1588.28, 0.372778
1588.77, 0.372857
1589.26, 0.372660
1589.74, 0.372031
1590.23, 0.372385
1590.72, 0.372385
1591.21, 0.371991
1591.7, 0.371323
1592.19, 0.371047
1592.67, 0.371008
1593.16, 0.370654
1593.65, 0.370536
1594.14, 0.370418
1594.63, 0.370064
1595.12, 0.369631
1595.61, 0.369277
1596.11, 0.369395
1596.6, 0.369631
1597.09, 0.369592
1597.58, 0.369316
1598.08, 0.369159
1598.57, 0.368687
1599.06, 0.368333
1599.55, 0.368333
1600.05, 0.367861
1600.54, 0.367349
1601.04, 0.367231
1601.53, 0.366917
1602.03, 0.367192
1602.52, 0.367349
1603.02, 0.367035
1603.51, 0.366366
1604.01, 0.366445
1604.5, 0.366445
1605.0, 0.366012
1605.5, 0.365697
1606.0, 0.365815
1606.49, 0.365697
1606.99, 0.365107
1607.49, 0.364753
1607.99, 0.364950
1608.49, 0.365028
1608.99, 0.364792
1609.49, 0.364556
1609.99, 0.364242
1610.49, 0.363337
1610.99, 0.363809
1611.49, 0.363966
1611.99, 0.363494
1612.49, 0.362904
1612.99, 0.362589
1613.49, 0.362039
1614.0, 0.361921
1614.5, 0.361881
1615.0, 0.361803
1615.51, 0.361212
1616.01, 0.361016
1616.51, 0.361252
1617.02, 0.360701
1617.52, 0.359993
1618.03, 0.359875
1618.53, 0.359875
1619.04, 0.359442
1619.54, 0.359127
1620.05, 0.359010
1620.55, 0.358813
1621.06, 0.358695
1621.57, 0.357947
1622.08, 0.357593
1622.58, 0.357672
1623.09, 0.357869
1623.6, 0.357947
1624.11, 0.357515
1624.62, 0.357357
1625.13, 0.357515
1625.64, 0.357121
1626.15, 0.356374
1626.66, 0.355941
1627.17, 0.355823
1627.68, 0.355430
1628.19, 0.354840
1628.7, 0.354643
1629.21, 0.354564
1629.72, 0.354761
1630.24, 0.354761
1630.75, 0.354407
1631.26, 0.354249
1631.78, 0.353895
1632.29, 0.353187
1632.8, 0.353030
1633.32, 0.352558
1633.83, 0.352204
1634.35, 0.352046
1634.86, 0.351378
1635.38, 0.351102
1635.9, 0.351181
1636.41, 0.351181
1636.93, 0.350748
1637.45, 0.350079
1637.96, 0.350040
1638.48, 0.349922
1639.0, 0.349961
1639.52, 0.350119
1640.04, 0.349804
1640.56, 0.349489
1641.08, 0.348978
1641.59, 0.348781
1642.11, 0.348821
1642.63, 0.348624
1643.16, 0.348506
1643.68, 0.348349
1644.2, 0.348309
1644.72, 0.348152
1645.24, 0.347286
1645.76, 0.346854
1646.29, 0.346539
1646.81, 0.346264
1647.33, 0.346146
1647.86, 0.345713
1648.38, 0.345477
1648.9, 0.345516
1649.43, 0.345162
1649.95, 0.344257
1650.48, 0.344021
1651.0, 0.344100
1651.53, 0.343825
1652.06, 0.343943
1652.58, 0.343825
1653.11, 0.343667
1653.64, 0.343431
1654.17, 0.343156
1654.69, 0.343038
1655.22, 0.342330
1655.75, 0.342290
1656.28, 0.342015
1656.81, 0.341386
1657.34, 0.341307
1657.87, 0.341228
1658.4, 0.341346
1658.93, 0.341228
1659.46, 0.340835
1659.99, 0.340559
1660.52, 0.340245
1661.05, 0.339497
1661.59, 0.339065
1662.12, 0.339143
1662.65, 0.339340
1663.19, 0.338986
1663.72, 0.338435
1664.26, 0.338160
1664.79, 0.338671
1665.32, 0.338671
1665.86, 0.338199
1666.39, 0.337334
1666.93, 0.336625
1667.47, 0.336625
1668.0, 0.336665
1668.54, 0.336665
1669.08, 0.336901
1669.61, 0.336586
1670.15, 0.336507
1670.69, 0.336547
1671.23, 0.336311
1671.77, 0.335878
1672.31, 0.335642
1672.85, 0.335249
1673.39, 0.334895
1673.93, 0.334816
1674.47, 0.334698
1675.01, 0.334462
1675.55, 0.334344
1676.09, 0.334108
1676.64, 0.333360
1677.18, 0.332888
1677.72, 0.332810
1678.26, 0.332337
1678.81, 0.331669
1679.35, 0.331669
1679.89, 0.332101
1680.44, 0.332141
1680.98, 0.331747
1681.53, 0.330882
1682.07, 0.330449
1682.62, 0.330528
1683.17, 0.330449
1683.71, 0.330646
1684.26, 0.330607
1684.81, 0.330331
1685.36, 0.330016
1685.9, 0.329780
1686.45, 0.329702
1687.0, 0.329151
1687.55, 0.328836
1688.1, 0.328797
1688.65, 0.328404
1689.2, 0.328089
1689.75, 0.328207
1690.3, 0.327932
1690.85, 0.327617
1691.41, 0.327145
1691.96, 0.326673
1692.51, 0.326476
1693.06, 0.326594
1693.61, 0.326122
1694.17, 0.325571
1694.72, 0.325492
1695.28, 0.325374
1695.83, 0.324942
1696.39, 0.324745
1696.94, 0.324509
1697.5, 0.324509
1698.05, 0.324548
1698.61, 0.324430
1699.17, 0.324076
1699.72, 0.323565
1700.28, 0.323289
1700.84, 0.323211
1701.4, 0.322975
1701.95, 0.322896
1702.51, 0.322739
1703.07, 0.322542
1703.63, 0.322385
1704.19, 0.322070
1704.75, 0.321834
1705.31, 0.321873
1705.88, 0.321480
1706.44, 0.321086
1707.0, 0.320772
1707.56, 0.320536
1708.12, 0.320221
1708.69, 0.320103
1709.25, 0.319985
1709.81, 0.320024
1710.38, 0.319867
1710.94, 0.319552
1711.51, 0.318883
1712.07, 0.318372
1712.64, 0.318175
1713.2, 0.318136
1713.77, 0.317900
1714.34, 0.317861
1714.9, 0.317625
1715.47, 0.317349
1716.04, 0.317507
1716.61, 0.317861
1717.18, 0.317861
1717.74, 0.317271
1718.31, 0.316720
1718.88, 0.316720
1719.45, 0.316130
1720.02, 0.315736
1720.59, 0.315658
1721.17, 0.315815
1721.74, 0.315422
1722.31, 0.315107
1722.88, 0.314950
1723.45, 0.314989
1724.03, 0.314556
1724.6, 0.314123
1725.18, 0.314123
1725.75, 0.314005
1726.33, 0.313691
1726.9, 0.313573
1727.48, 0.313297
1728.05, 0.312983
1728.63, 0.312904
1729.2, 0.313101
1729.78, 0.313061
1730.36, 0.312786
1730.94, 0.312393
1731.51, 0.312550
1732.09, 0.312393
1732.67, 0.311724
1733.25, 0.311606
1733.83, 0.311920
1734.41, 0.311724
1734.99, 0.311291
1735.57, 0.311134
1736.15, 0.311134
1736.73, 0.310937
1737.32, 0.310465
1737.9, 0.310386
1738.48, 0.310465
1739.07, 0.310190
1739.65, 0.309953
1740.23, 0.309953
1740.82, 0.309718
1741.4, 0.309521
1741.99, 0.309206
1742.57, 0.309009
1743.16, 0.309009
1743.74, 0.308655
1744.33, 0.308773
1744.92, 0.309009
1745.51, 0.308577
1746.09, 0.308183
1746.68, 0.308026
1747.27, 0.307869
1747.86, 0.307790
1748.45, 0.307514
1749.04, 0.307436
1749.63, 0.307514
1750.22, 0.307357
1750.81, 0.307082
1751.4, 0.306964
1751.99, 0.306728
1752.59, 0.306649
1753.18, 0.306295
1753.77, 0.305862
1754.37, 0.305823
1754.96, 0.305980
1755.56, 0.305862
1756.15, 0.305587
1756.74, 0.305705
1757.34, 0.305705
1757.94, 0.305548
1758.53, 0.305272
1759.13, 0.304957
1759.73, 0.304957
1760.32, 0.304918
1760.92, 0.304643
1761.52, 0.304367
1762.12, 0.304485
1762.72, 0.304446
1763.32, 0.304131
1763.92, 0.304013
1764.52, 0.303935
1765.12, 0.303502
1765.72, 0.303581
1766.32, 0.303423
1766.92, 0.303148
1767.53, 0.302990
1768.13, 0.302912
1768.73, 0.302715
1769.34, 0.302636
1769.94, 0.302440
1770.55, 0.302440
1771.15, 0.302558
1771.76, 0.302361
1772.36, 0.302046
1772.97, 0.301850
1773.57, 0.301574
1774.18, 0.301653
1774.79, 0.301535
1775.4, 0.301456
1776.0, 0.301338
1776.61, 0.300905
1777.22, 0.300551
1777.83, 0.300709
1778.44, 0.300748
1779.05, 0.300473
1779.66, 0.300394
1780.27, 0.300473
1780.88, 0.300315
1781.5, 0.300119
1782.11, 0.300040
1782.72, 0.300119
1783.33, 0.299883
1783.95, 0.299725
1784.56, 0.299647
1785.18, 0.299686
1785.79, 0.299371
1786.41, 0.298978
1787.02, 0.298899
1787.64, 0.298742
1788.26, 0.298584
1788.87, 0.298624
1789.49, 0.298624
1790.11, 0.298506
1790.73, 0.298230
1791.35, 0.298309
1791.96, 0.298348
1792.58, 0.298388
1793.21, 0.298230
1793.83, 0.297994
1794.45, 0.297758
1795.07, 0.297640
1795.69, 0.297326
1796.31, 0.297050
1796.93, 0.297168
1797.56, 0.297326
1798.18, 0.297090
1798.8, 0.297011
1799.43, 0.296932
1800.05, 0.296736
1800.68, 0.296696
1801.3, 0.297050
1801.93, 0.297011
1802.56, 0.296814
1803.18, 0.296578
1803.81, 0.296342
1804.44, 0.296145
1805.07, 0.296224
1805.7, 0.296381
1806.33, 0.296421
1806.95, 0.295988
1807.58, 0.295909
1808.22, 0.295988
1808.85, 0.296185
1809.48, 0.296145
1810.11, 0.295909
1810.74, 0.295791
1811.38, 0.295949
1812.01, 0.295909
1812.64, 0.295713
1813.28, 0.295398
1813.91, 0.295398
1814.55, 0.295555
1815.18, 0.295516
1815.82, 0.295280
1816.45, 0.295437
1817.09, 0.295477
1817.73, 0.295713
1818.36, 0.295713
1819.0, 0.295437
1819.64, 0.295398
1820.28, 0.295398
1820.92, 0.295359
1821.56, 0.295319
1822.2, 0.295123
1822.84, 0.295162
1823.48, 0.295123
1824.12, 0.294887
1824.76, 0.294847
1825.41, 0.294887
1826.05, 0.295044
1826.69, 0.295201
1827.34, 0.295083
1827.98, 0.294926
1828.63, 0.294808
1829.27, 0.294926
1829.92, 0.294887
1830.56, 0.295005
1831.21, 0.294926
1831.86, 0.294847
1832.5, 0.294808
1833.15, 0.294847
1833.8, 0.294611
1834.45, 0.294769
1835.1, 0.294965
1835.75, 0.294926
1836.4, 0.294926
1837.05, 0.295162
1837.7, 0.295083
1838.35, 0.295005
1839.01, 0.295123
1839.66, 0.295162
1840.31, 0.294965
1840.96, 0.295044
1841.62, 0.295201
1842.27, 0.295201
1842.93, 0.295083
1843.58, 0.295005
1844.24, 0.294847
1844.9, 0.294729
1845.55, 0.294808
1846.21, 0.295241
1846.87, 0.295595
1847.53, 0.295398
1848.18, 0.295123
1848.84, 0.294926
1849.5, 0.294808
1850.16, 0.294965
1850.82, 0.294926
1851.48, 0.294769
1852.14, 0.295005
1852.81, 0.295398
1853.47, 0.295516
1854.13, 0.295319
1854.8, 0.295162
1855.46, 0.295083
1856.12, 0.295241
1856.79, 0.295398
1857.45, 0.295123
1858.12, 0.295280
1858.79, 0.295555
1859.45, 0.295634
1860.12, 0.295398
1860.79, 0.295280
1861.46, 0.295241
1862.12, 0.295319
1862.79, 0.295319
1863.46, 0.295319
1864.13, 0.295398
1864.8, 0.295437
1865.48, 0.295359
1866.15, 0.295595
1866.82, 0.295673
1867.49, 0.295752
1868.16, 0.295713
1868.84, 0.295713
1869.51, 0.295909
1870.19, 0.296106
1870.86, 0.295988
1871.54, 0.295831
1872.21, 0.295909
1872.89, 0.296224
1873.56, 0.296145
1874.24, 0.295988
1874.92, 0.296185
1875.6, 0.296263
1876.28, 0.296421
1876.96, 0.296460
1877.64, 0.296303
1878.32, 0.296224
1879.0, 0.296224
1879.68, 0.296263
1880.36, 0.296342
1881.04, 0.296578
1881.73, 0.296696
1882.41, 0.296893
1883.09, 0.296972
1883.78, 0.297129
1884.46, 0.297168
1885.15, 0.297129
1885.83, 0.297050
1886.52, 0.296972
1887.21, 0.296854
1887.89, 0.296972
1888.58, 0.297208
1889.27, 0.297719
1889.96, 0.297916
1890.65, 0.297758
1891.34, 0.297837
1892.03, 0.298034
1892.72, 0.297955
1893.41, 0.298034
1894.1, 0.298191
1894.79, 0.298112
1895.49, 0.297916
1896.18, 0.298191
1896.87, 0.298506
1897.57, 0.298742
1898.26, 0.298860
1898.96, 0.298860
1899.65, 0.298978
1900.35, 0.298899
1901.05, 0.299057
1901.74, 0.299332
1902.44, 0.299725
1903.14, 0.299765
1903.84, 0.299529
1904.54, 0.299725
1905.24, 0.300079
1905.94, 0.300197
1906.64, 0.300237
1907.34, 0.300355
1908.04, 0.300630
1908.75, 0.300827
1909.45, 0.300905
1910.15, 0.300984
1910.86, 0.301063
1911.56, 0.301142
1912.27, 0.301142
1912.97, 0.301535
1913.68, 0.301968
1914.39, 0.302086
1915.09, 0.302204
1915.8, 0.302440
1916.51, 0.302518
1917.22, 0.302636
1917.93, 0.302715
1918.64, 0.302794
1919.35, 0.303187
1920.06, 0.303856
1920.77, 0.304013
1921.48, 0.303777
1922.19, 0.303817
1922.91, 0.304053
1923.62, 0.304367
1924.33, 0.304721
1925.05, 0.304800
1925.76, 0.305036
1926.48, 0.305272
1927.19, 0.305547
1927.91, 0.305862
1928.63, 0.306256
1929.35, 0.306413
1930.07, 0.306413
1930.78, 0.306610
1931.5, 0.306885
1932.22, 0.307239
1932.94, 0.307632
1933.66, 0.307750
1934.39, 0.307829
1935.11, 0.307947
1935.83, 0.308144
1936.55, 0.308380
1937.28, 0.308734
1938.0, 0.309049
1938.73, 0.309245
1939.45, 0.309560
1940.18, 0.309835
1940.9, 0.309914
1941.63, 0.309993
1942.36, 0.309914
1943.09, 0.310150
1943.81, 0.310426
1944.54, 0.310976
1945.27, 0.311291
1946.0, 0.311448
1946.73, 0.311684
1947.47, 0.311920
1948.2, 0.312038
1948.93, 0.312196
1949.66, 0.312589
1950.4, 0.312983
1951.13, 0.313061
1951.86, 0.313297
1952.6, 0.313809
1953.34, 0.314084
1954.07, 0.314241
1954.81, 0.314438
1955.55, 0.314478
1956.29, 0.314792
1957.02, 0.315186
1957.76, 0.315461
1958.5, 0.315697
1959.24, 0.316012
1959.98, 0.316208
1960.72, 0.316484
1961.47, 0.316838
1962.21, 0.317192
1962.95, 0.317428
1963.7, 0.317625
1964.44, 0.317979
1965.18, 0.318254
1965.93, 0.318333
1966.67, 0.318569
1967.42, 0.319001
1968.17, 0.319356
1968.92, 0.319552
1969.66, 0.320064
1970.41, 0.320221
1971.16, 0.320339
1971.91, 0.320654
1972.66, 0.321008
1973.41, 0.321362
1974.16, 0.321598
1974.92, 0.321991
1975.67, 0.322306
1976.42, 0.322385
1977.18, 0.322581
1977.93, 0.322975
1978.69, 0.323486
1979.44, 0.323683
1980.2, 0.323919
1980.95, 0.324430
1981.71, 0.324824
1982.47, 0.325138
1983.23, 0.325492
1983.99, 0.325689
1984.74, 0.325965
1985.51, 0.326279
1986.27, 0.326633
1987.03, 0.326869
1987.79, 0.327302
1988.55, 0.327774
1989.32, 0.328207
1990.08, 0.328522
1990.84, 0.328876
1991.61, 0.329269
1992.37, 0.329544
1993.14, 0.329859
1993.9, 0.330331
1994.67, 0.330921
1995.44, 0.331354
1996.21, 0.331629
1996.98, 0.331826
1997.75, 0.332377
1998.52, 0.333006
1999.29, 0.332888
2000.06, 0.333164
2000.83, 0.333911
2001.6, 0.334541
2002.38, 0.334934
2003.15, 0.335091
2003.93, 0.335681
2004.7, 0.336114
2005.48, 0.336429
2006.25, 0.336980
2007.03, 0.337294
2007.81, 0.337688
2008.58, 0.338238
2009.36, 0.338829
2010.14, 0.339261
2010.92, 0.339537
2011.7, 0.339812
2012.48, 0.340048
2013.26, 0.340481
2014.05, 0.341149
2014.83, 0.341740
2015.61, 0.342133
2016.4, 0.342526
2017.18, 0.342998
2017.97, 0.343431
2018.75, 0.343825
2019.54, 0.344297
2020.32, 0.344808
2021.11, 0.345044
2021.9, 0.345516
2022.69, 0.346185
2023.48, 0.346814
2024.27, 0.347404
2025.06, 0.348034
2025.85, 0.348152
2026.64, 0.348506
2027.44, 0.349214
2028.23, 0.349843
2029.02, 0.350237
2029.82, 0.350748
2030.61, 0.351417
2031.41, 0.351732
2032.2, 0.351889
2033.0, 0.352361
2033.8, 0.352991
2034.6, 0.353502
2035.4, 0.354131
2036.2, 0.354761
2037.0, 0.355390
2037.8, 0.355784
2038.6, 0.356059
2039.4, 0.356452
2040.2, 0.356964
2041.01, 0.357554
2041.81, 0.358026
2042.61, 0.358577
2043.42, 0.359167
2044.22, 0.359875
2045.03, 0.360426
2045.84, 0.360898
2046.65, 0.361331
2047.46, 0.361803
2048.26, 0.362196
2049.07, 0.362707
2049.88, 0.363297
2050.69, 0.363652
2051.51, 0.364163
2052.32, 0.364792
2053.13, 0.365068
2053.94, 0.365776
2054.76, 0.366563
2055.57, 0.366956
2056.39, 0.367428
2057.2, 0.368057
2058.02, 0.368490
2058.84, 0.369120
2059.66, 0.369710
2060.48, 0.370182
2061.29, 0.370575
2062.11, 0.371323
2062.94, 0.371913
2063.76, 0.372188
2064.58, 0.372660
2065.4, 0.373486
2066.22, 0.374116
2067.05, 0.374430
2067.87, 0.374981
2068.7, 0.375650
2069.52, 0.375925
2070.35, 0.376319
2071.18, 0.376948
2072.0, 0.377381
2072.83, 0.378010
2073.66, 0.378600
2074.49, 0.378994
2075.32, 0.379702
2076.15, 0.380410
2076.98, 0.380764
2077.82, 0.381157
2078.65, 0.381826
2079.48, 0.382220
2080.32, 0.382928
2081.15, 0.383636
2081.99, 0.384265
2082.83, 0.384777
2083.66, 0.385209
2084.5, 0.385721
2085.34, 0.386272
2086.18, 0.386980
2087.02, 0.387766
2087.86, 0.388238
2088.7, 0.388750
2089.54, 0.389379
2090.39, 0.389969
2091.23, 0.390520
2092.07, 0.391071
2092.92, 0.391622
2093.76, 0.392448
2094.61, 0.392999
2095.45, 0.393471
2096.3, 0.394061
2097.15, 0.394690
2098.0, 0.395280
2098.85, 0.395792
2099.7, 0.396460
2100.55, 0.397247
2101.4, 0.397955
2102.25, 0.398545
2103.1, 0.399057
2103.96, 0.399647
2104.81, 0.400316
2105.67, 0.401024
2106.52, 0.401693
2107.38, 0.402440
2108.24, 0.403069
2109.09, 0.403581
2109.95, 0.404171
2110.81, 0.404918
2111.67, 0.405469
2112.53, 0.405902
2113.39, 0.406571
2114.25, 0.407239
2115.12, 0.407751
2115.98, 0.408538
2116.84, 0.409364
2117.71, 0.410032
2118.58, 0.410544
2119.44, 0.411370
2120.31, 0.412117
2121.18, 0.412747
2122.04, 0.413376
2122.91, 0.414124
2123.78, 0.414714
2124.65, 0.415343
2125.52, 0.416012
2126.4, 0.416759
2127.27, 0.417232
2128.14, 0.417900
2129.02, 0.418608
2129.89, 0.419395
2130.77, 0.420143
2131.64, 0.420890
2132.52, 0.421559
2133.4, 0.422346
2134.27, 0.423014
2135.15, 0.423683
2136.03, 0.424313
2136.91, 0.424863
2137.79, 0.425453
2138.68, 0.426083
2139.56, 0.426870
2140.44, 0.427696
2141.33, 0.428364
2142.21, 0.429191
2143.1, 0.429938
2143.99, 0.430489
2144.87, 0.431197
2145.76, 0.431944
2146.65, 0.432534
2147.54, 0.433282
2148.43, 0.434069
2149.32, 0.434777
2150.21, 0.435446
2151.1, 0.436154
2151.99, 0.436862
2152.89, 0.437649
2153.78, 0.438553
2154.68, 0.439340
2155.57, 0.439812
2156.47, 0.440363
2157.37, 0.441032
2158.27, 0.441700
2159.16, 0.442330
2160.06, 0.443077
2160.96, 0.443825
2161.86, 0.444651
2162.77, 0.445320
2163.67, 0.445870
2164.57, 0.446618
2165.48, 0.447208
2166.38, 0.447877
2167.29, 0.448585
2168.2, 0.449096
2169.1, 0.449804
2170.01, 0.450512
2170.92, 0.451063
2171.83, 0.451614
2172.74, 0.452204
2173.65, 0.452794
2174.56, 0.453620
2175.47, 0.454250
2176.39, 0.454800
2177.3, 0.455469
2178.22, 0.456138
2179.13, 0.456728
2180.05, 0.457357
2180.96, 0.457948
2181.88, 0.458656
2182.8, 0.459246
2183.72, 0.459954
2184.64, 0.460701
2185.56, 0.461370
2186.48, 0.461960
2187.41, 0.462472
2188.33, 0.463022
2189.25, 0.463652
2190.18, 0.464242
2191.1, 0.464832
2192.03, 0.465422
2192.96, 0.466051
2193.89, 0.466720
2194.82, 0.467310
2195.74, 0.467782
2196.68, 0.468097
2197.61, 0.468608
2198.54, 0.469513
2199.47, 0.470339
2200.4, 0.470811
2201.34, 0.471244
2202.28, 0.471874
2203.21, 0.472542
2204.15, 0.473132
2205.08, 0.473723
2206.02, 0.474273
2206.96, 0.474824
2207.9, 0.475335
2208.84, 0.476083
2209.78, 0.476673
2210.73, 0.477066
2211.67, 0.477696
2212.61, 0.478247
2213.56, 0.478915
2214.5, 0.479545
2215.45, 0.480214
2216.4, 0.480607
2217.35, 0.481040
2218.3, 0.481590
2219.24, 0.482299
2220.2, 0.482889
2221.15, 0.483400
2222.1, 0.484029
2223.05, 0.484659
2224.0, 0.485131
2224.96, 0.485760
2225.91, 0.486350
2226.87, 0.486941
2227.83, 0.487570
2228.79, 0.488160
2229.74, 0.488750
2230.7, 0.489144
2231.66, 0.489576
2232.63, 0.490166
2233.59, 0.490874
2234.55, 0.491543
2235.51, 0.492173
2236.48, 0.492527
2237.44, 0.492920
2238.41, 0.493628
2239.38, 0.494297
2240.34, 0.494848
2241.31, 0.495280
2242.28, 0.495910
2243.25, 0.496579
2244.22, 0.497090
2245.19, 0.497641
2246.17, 0.498152
2247.14, 0.498782
2248.12, 0.499490
2249.09, 0.500041
2250.07, 0.500513
2251.04, 0.500906
2252.02, 0.501496
2253.0, 0.502204
2253.98, 0.502479
2254.96, 0.502873
2255.94, 0.503581
2256.92, 0.504210
2257.91, 0.504604
2258.89, 0.505115
2259.88, 0.505548
2260.86, 0.506020
2261.85, 0.506453
2262.83, 0.506610
2263.82, 0.506925
2264.81, 0.507240
2265.8, 0.507594
2266.79, 0.507987
2267.78, 0.508302
2268.78, 0.508734
2269.77, 0.509128
2270.76, 0.509482
2271.76, 0.509797
2272.75, 0.510151
2273.75, 0.510505
2274.75, 0.510662
2275.75, 0.510937
2276.75, 0.511134
2277.75, 0.511449
2278.75, 0.511685
2279.75, 0.511803
2280.75, 0.511764
2281.76, 0.511645
2282.76, 0.511567
2283.77, 0.511410
2284.77, 0.511213
2285.78, 0.510859
2286.79, 0.510190
2287.8, 0.509482
2288.81, 0.508774
2289.82, 0.508223
2290.83, 0.508144
2291.84, 0.508656
2292.86, 0.509324
2293.87, 0.510190
2294.89, 0.511449
2295.91, 0.512432
2296.92, 0.512826
2297.94, 0.513062
2298.96, 0.513062
2299.98, 0.512944
2301.0, 0.512826
2302.02, 0.512668
2303.04, 0.512393
2304.07, 0.512078
2305.09, 0.511606
2306.12, 0.510898
2307.15, 0.509875
2308.17, 0.508813
2309.2, 0.507869
2310.23, 0.506925
2311.26, 0.505784
2312.29, 0.505037
2313.32, 0.504997
2314.35, 0.505509
2315.39, 0.506689
2316.42, 0.508538
2317.46, 0.510701
2318.5, 0.512629
2319.53, 0.514281
2320.57, 0.515501
2321.61, 0.516248
2322.65, 0.517074
2323.69, 0.517861
2324.73, 0.518845
2325.78, 0.519985
2326.82, 0.521520
2327.86, 0.522897
2328.91, 0.524273
2329.96, 0.525493
2331.01, 0.526476
2332.05, 0.527421
2333.1, 0.528325
2334.15, 0.529033
2335.21, 0.529663
2336.26, 0.530410
2337.31, 0.531276
2338.36, 0.531984
2339.42, 0.532692
2340.48, 0.533243
2341.53, 0.533912
2342.59, 0.534738
2343.65, 0.535485
2344.71, 0.536036
2345.77, 0.536665
2346.83, 0.537098
2347.9, 0.537688
2348.96, 0.538199
2350.02, 0.538868
2351.09, 0.539419
2352.16, 0.539773
2353.23, 0.540048
2354.29, 0.540639
2355.36, 0.541032
2356.43, 0.541504
2357.51, 0.542173
2358.58, 0.542763
2359.65, 0.543117
2360.73, 0.543392
2361.8, 0.543786
2362.88, 0.544258
2363.96, 0.544572
2365.03, 0.544887
2366.11, 0.545084
2367.19, 0.545281
2368.27, 0.545438
2369.36, 0.545635
2370.44, 0.545517
2371.53, 0.545438
2372.61, 0.545517
2373.7, 0.545595
2374.78, 0.545438
2375.87, 0.545320
2376.96, 0.545359
2378.05, 0.545320
2379.14, 0.544927
2380.24, 0.544927
2381.33, 0.544927
2382.42, 0.544848
2383.52, 0.544651
2384.61, 0.544572
2385.71, 0.544848
2386.81, 0.545202
2387.91, 0.545438
2389.01, 0.545635
2390.11, 0.545753
2391.22, 0.545792
2392.32, 0.546264
2393.42, 0.547247
2394.53, 0.547956
2395.64, 0.548467
2396.74, 0.549096
2397.85, 0.549883
2398.96, 0.550591
2400.07, 0.551654
2401.18, 0.552519
2402.3, 0.553424
2403.41, 0.554171
2404.52, 0.554840
2405.64, 0.555273
2406.76, 0.555627
2407.88, 0.556060
2408.99, 0.556610
2410.11, 0.557082
2411.23, 0.557436
2412.36, 0.557790
2413.48, 0.558105
2414.6, 0.558341
2415.73, 0.558538
2416.85, 0.558577
2417.98, 0.558813
2419.11, 0.559128
2420.24, 0.559207
2421.37, 0.559246
2422.5, 0.559403
2423.64, 0.559561
2424.77, 0.559521
2425.9, 0.559443
2427.04, 0.559482
2428.18, 0.559521
2429.31, 0.559836
2430.45, 0.560111
2431.59, 0.560308
2432.73, 0.560466
2433.88, 0.560662
2435.02, 0.560702
2436.16, 0.560780
2437.31, 0.560898
2438.45, 0.561016
2439.6, 0.561213
2440.75, 0.561292
2441.9, 0.561213
2443.05, 0.561331
2444.2, 0.561528
2445.35, 0.561764
2446.51, 0.562000
2447.67, 0.562157
2448.82, 0.562196
2449.98, 0.562157
2451.14, 0.562236
2452.3, 0.562354
2453.46, 0.562196
2454.62, 0.562196
2455.78, 0.562196
2456.94, 0.562314
2458.11, 0.562432
2459.28, 0.562472
2460.44, 0.562432
2461.61, 0.562236
2462.78, 0.562196
2463.95, 0.562275
2465.12, 0.562472
2466.3, 0.562550
2467.47, 0.562668
2468.65, 0.562983
2469.82, 0.563101
2471.0, 0.563455
2472.18, 0.563849
2473.36, 0.564242
2474.54, 0.564399
2475.72, 0.564596
2476.9, 0.564753
2478.08, 0.564989
2479.27, 0.565186
2480.46, 0.565304
2481.64, 0.565343
2482.83, 0.565501
2484.02, 0.565580
2485.21, 0.565580
2486.4, 0.565698
2487.6, 0.565816
2488.79, 0.565580
2489.99, 0.565619
2491.18, 0.565776
2492.38, 0.565737
2493.58, 0.565580
2494.78, 0.565422
2495.98, 0.565383
2497.18, 0.565422
2498.39, 0.565619
2499.59, 0.565698
2500.8, 0.565737
2502.01, 0.565855
2503.21, 0.566012
2504.42, 0.560914
2505.63, 0.561240
2506.84, 0.561158
2508.06, 0.560995
2509.27, 0.561036
2510.49, 0.561036
2511.7, 0.561199
2512.92, 0.561077
2514.14, 0.561036
2515.36, 0.561036
2516.58, 0.561158
2517.8, 0.561362
2519.03, 0.561892
2520.25, 0.562340
2521.48, 0.562625
2522.7, 0.562503
2523.93, 0.562910
2525.16, 0.563195
2526.39, 0.563480
2527.62, 0.563806
2528.86, 0.564051
2530.09, 0.563888
2531.33, 0.563643
2532.56, 0.563562
2533.8, 0.564417
2535.04, 0.564621
2536.28, 0.564580
2537.52, 0.565110
2538.76, 0.565639
2540.01, 0.565884
2541.25, 0.565721
2542.5, 0.565028
2543.75, 0.565354
2544.99, 0.566291
2546.24, 0.566413
2547.49, 0.565884
2548.75, 0.566251
2550.0, 0.566454
2551.26, 0.565965
2552.51, 0.565599
2553.77, 0.566576
2555.03, 0.567473
2556.29, 0.567962
2557.55, 0.568084
2558.81, 0.567350
2560.08, 0.565151
2561.34, 0.562869
2562.61, 0.562625
2563.88, 0.563399
2565.14, 0.565517
2566.41, 0.567839
2567.68, 0.567636
2568.96, 0.565599
2570.23, 0.565517
2571.51, 0.566902
2572.78, 0.564580
2574.06, 0.564336
2575.34, 0.566128
2576.62, 0.565680
2577.9, 0.566699
2579.18, 0.567962
2580.47, 0.566495
2581.75, 0.565965
2583.04, 0.563847
2584.32, 0.563480
2585.61, 0.565843
2586.9, 0.565436
2588.2, 0.565762
2589.49, 0.567269
2590.78, 0.568735
2592.08, 0.567880
2593.37, 0.560995
2594.67, 0.553581
2595.97, 0.558062
2597.27, 0.565802
2598.57, 0.569143
2599.88, 0.569021
2601.18, 0.567636
2602.49, 0.566251
2603.79, 0.564010
2605.1, 0.561077
2606.41, 0.562055
2607.72, 0.565028
2609.03, 0.566210
2610.35, 0.567310
2611.66, 0.568084
2612.98, 0.567595
2614.3, 0.567473
2615.62, 0.564254
2616.94, 0.561525
2618.26, 0.563806
2619.58, 0.562177
2620.91, 0.561932
2622.23, 0.566332
2623.56, 0.568084
2624.89, 0.566454
2626.22, 0.562788
2627.55, 0.563603
2628.88, 0.563521
2630.21, 0.559488
2631.55, 0.561729
2632.89, 0.564295
2634.22, 0.564458
2635.56, 0.565843
2636.9, 0.566373
2638.25, 0.566210
2639.59, 0.565843
2640.93, 0.564947
2642.28, 0.564214
2643.63, 0.564173
2644.98, 0.562828
2646.33, 0.562258
2647.68, 0.562991
2649.03, 0.563114
2650.39, 0.562299
2651.74, 0.559814
2653.1, 0.558918
2654.46, 0.559325
2655.82, 0.559244
2657.18, 0.559773
2658.54, 0.557940
2659.9, 0.556148
2661.27, 0.555862
2662.64, 0.555333
2664.01, 0.550159
2665.38, 0.544619
2666.74, 0.543519
2668.12, 0.545759
2669.49, 0.541197
2670.87, 0.538060
2672.24, 0.543723
2673.62, 0.544497
2675.0, 0.539771
2676.38, 0.533375
2677.76, 0.530076
2679.15, 0.526572
2680.54, 0.523924
2681.92, 0.518954
2683.31, 0.511133
2684.7, 0.502741
2686.09, 0.494349
2687.48, 0.485509
2688.88, 0.476058
2690.27, 0.464651
2691.67, 0.450556
2693.07, 0.432795
2694.47, 0.416296
2695.87, 0.401590
2697.27, 0.385335
2698.67, 0.366800
2700.08, 0.348387
2701.49, 0.330666
2702.9, 0.314045
2704.31, 0.298320
2705.72, 0.284225
2707.13, 0.271922
2708.54, 0.261453
2709.96, 0.252817
2711.38, 0.247806
2712.8, 0.246380
2714.22, 0.244791
2715.64, 0.241532
2717.06, 0.231837
2718.49, 0.210898
2719.91, 0.195499
2721.34, 0.204828
2722.77, 0.221938
2724.2, 0.232366
2725.63, 0.240473
2727.07, 0.246706
2728.5, 0.248824
2729.94, 0.245402
2731.38, 0.241655
2732.82, 0.246991
2734.26, 0.256239
2735.7, 0.263001
2737.15, 0.266464
2738.59, 0.266178
2740.04, 0.266586
2741.49, 0.269600
2742.94, 0.272452
2744.39, 0.273674
2745.84, 0.275955
2747.3, 0.278929
2748.76, 0.281007
2750.21, 0.282351
2751.67, 0.283573
2753.14, 0.284551
2754.6, 0.283492
2756.06, 0.284510
2757.53, 0.288299
2759.0, 0.290865
2760.46, 0.291925
2761.94, 0.291639
2763.41, 0.292536
2764.88, 0.294735
2766.36, 0.296161
2767.83, 0.297139
2769.31, 0.298117
2770.79, 0.298972
2772.27, 0.300846
2773.76, 0.302801
2775.24, 0.303861
2776.73, 0.304635
2778.22, 0.306060
2779.71, 0.307120
2781.2, 0.307690
2782.69, 0.308871
2784.18, 0.310297
2785.68, 0.310338
2787.18, 0.310745
2788.68, 0.312823
2790.18, 0.314860
2791.68, 0.316245
2793.19, 0.317426
2794.69, 0.318445
2796.2, 0.319626
2797.71, 0.321052
2799.22, 0.322437
2800.73, 0.323007
2802.24, 0.322722
2803.76, 0.323496
2805.28, 0.325614
2806.8, 0.327407
2808.32, 0.328548
2809.84, 0.329688
2811.36, 0.330910
2812.89, 0.331806
2814.42, 0.332295
2815.94, 0.333232
2817.48, 0.334251
2819.01, 0.334577
2820.54, 0.335351
2822.08, 0.336532
2823.61, 0.337591
2825.15, 0.338487
2826.69, 0.339099
2828.23, 0.339669
2829.78, 0.340565
2831.32, 0.341135
2832.87, 0.341339
2834.42, 0.341461
2835.97, 0.341706
2837.52, 0.341869
2839.08, 0.342154
2840.63, 0.342276
2842.19, 0.342398
2843.75, 0.342561
2845.31, 0.342724
2846.87, 0.342806
2848.44, 0.342887
2850.0, 0.343376
2851.57, 0.343987
2853.14, 0.344231
2854.71, 0.344720
2856.28, 0.345331
2857.86, 0.345861
2859.43, 0.346431
2861.01, 0.347042
2862.59, 0.347531
2864.17, 0.347979
2865.76, 0.348468
2867.34, 0.349038
2868.93, 0.349527
2870.52, 0.349894
2872.11, 0.350383
2873.7, 0.350994
2875.29, 0.351360
2876.89, 0.351483
2878.49, 0.351686
2880.08, 0.352012
2881.69, 0.352297
2883.29, 0.352949
2884.89, 0.353683
2886.5, 0.354334
2888.11, 0.354742
2889.72, 0.355149
2891.33, 0.355719
2892.94, 0.356208
2894.56, 0.356656
2896.17, 0.357104
2897.79, 0.357227
2899.42, 0.357308
2901.04, 0.357756
2902.66, 0.358327
2904.29, 0.358775
2905.92, 0.359182
2907.55, 0.359345
2909.18, 0.359549
2910.81, 0.359834
2912.45, 0.360038
2914.08, 0.360282
2915.72, 0.360689
2917.36, 0.361056
2919.01, 0.361260
2920.65, 0.361300
2922.3, 0.361341
2923.94, 0.361667
2925.59, 0.362074
2927.25, 0.362319
2928.9, 0.362441
2930.56, 0.362645
2932.21, 0.362930
2933.87, 0.363459
2935.53, 0.363785
2937.2, 0.364071
2938.86, 0.364396
2940.53, 0.364682
2942.2, 0.365048
2943.87, 0.365374
2945.54, 0.365496
2947.22, 0.365619
2948.89, 0.365822
2950.57, 0.365863
2952.25, 0.366189
2953.93, 0.366678
2955.62, 0.366881
2957.3, 0.367044
2958.99, 0.367167
2960.68, 0.367533
2962.37, 0.367859
2964.07, 0.368104
2965.76, 0.368226
2967.46, 0.368348
2969.16, 0.368674
2970.86, 0.368837
2972.56, 0.369081
2974.27, 0.369611
2975.98, 0.369896
2977.69, 0.370018
2979.4, 0.370263
2981.11, 0.370426
2982.83, 0.370711
2984.54, 0.370874
2986.26, 0.371240
2987.98, 0.371485
2989.71, 0.371770
2991.43, 0.372055
2993.16, 0.372177
2994.89, 0.372503
2996.62, 0.372911
2998.35, 0.373196
3000.09, 0.373562
3001.83, 0.373888
3003.57, 0.374173
3005.31, 0.374214
3007.05, 0.374540
3008.79, 0.375151
3010.54, 0.375640
3012.29, 0.375966
3014.04, 0.376047
3015.8, 0.376210
3017.55, 0.376495
3019.31, 0.376740
3021.07, 0.376903
3022.83, 0.377310
3024.59, 0.377758
3026.36, 0.377921
3028.13, 0.378043
3029.9, 0.378288
3031.67, 0.378573
3033.44, 0.378695
3035.22, 0.378858
3037.0, 0.379103
3038.78, 0.379429
3040.56, 0.379714
3042.34, 0.380040
3044.13, 0.380040
3045.92, 0.380203
3047.71, 0.380691
3049.5, 0.381221
3051.3, 0.381588
3053.09, 0.381669
3054.89, 0.381710
3056.69, 0.381954
3058.5, 0.382239
3060.3, 0.382484
3062.11, 0.382647
3063.92, 0.382891
3065.73, 0.383136
3067.55, 0.383462
3069.36, 0.383747
3071.18, 0.383910
3073.0, 0.384113
3074.82, 0.384562
3076.65, 0.384847
3078.48, 0.384969
3080.31, 0.385213
3082.14, 0.385376
3083.97, 0.385621
3085.8, 0.386069
3087.64, 0.386354
3089.48, 0.386517
3091.33, 0.386843
3093.17, 0.387169
3095.02, 0.387454
3096.87, 0.387820
3098.72, 0.388228
3100.57, 0.388635
3102.43, 0.389002
3104.28, 0.389369
3106.14, 0.389654
3108.01, 0.390061
3109.87, 0.390468
3111.74, 0.391039
3113.61, 0.391487
3115.48, 0.391772
3117.35, 0.392179
3119.23, 0.392505
3121.1, 0.392953
3122.98, 0.393483
3124.87, 0.393768
3126.75, 0.394053
3128.64, 0.394501
3130.53, 0.395275
3132.42, 0.395642
3134.31, 0.395886
3136.21, 0.396090
3138.11, 0.396416
3140.01, 0.396783
3141.91, 0.397231
3143.82, 0.397720
3145.73, 0.398086
3147.64, 0.398494
3149.55, 0.398983
3151.46, 0.399268
3153.38, 0.399471
3155.3, 0.399838
3157.22, 0.400245
3159.14, 0.400653
3161.07, 0.401142
3163.0, 0.401549
3164.93, 0.402038
3166.86, 0.402486
3168.8, 0.402812
3170.74, 0.403056
3172.68, 0.403382
3174.62, 0.403871
3176.56, 0.404360
3178.51, 0.404686
3180.46, 0.405215
3182.42, 0.405541
3184.37, 0.405745
3186.33, 0.406152
3188.29, 0.406560
3190.25, 0.406763
3192.21, 0.407008
3194.18, 0.407334
3196.15, 0.407741
3198.12, 0.408067
3200.09, 0.408311
3202.07, 0.408597
3204.05, 0.408922
3206.03, 0.409452
3208.02, 0.409737
3210.0, 0.409941
3211.99, 0.410267
3213.98, 0.410511
3215.98, 0.410633
3217.97, 0.410796
3219.97, 0.411122
3221.97, 0.411489
3223.98, 0.411774
3225.98, 0.412059
3227.99, 0.412344
3230.0, 0.412426
3232.02, 0.412507
3234.03, 0.412752
3236.05, 0.413159
3238.07, 0.413444
3240.1, 0.413648
3242.12, 0.413811
3244.15, 0.414015
3246.18, 0.414381
3248.22, 0.414585
3250.25, 0.414829
3252.29, 0.415115
3254.33, 0.415359
3256.38, 0.415400
3258.43, 0.415481
3260.47, 0.415889
3262.53, 0.416174
3264.58, 0.416459
3266.64, 0.416540
3268.7, 0.416663
3270.76, 0.416826
3272.82, 0.417070
3274.89, 0.417437
3276.96, 0.417600
3279.04, 0.417559
3281.11, 0.417640
3283.19, 0.417803
3285.27, 0.418007
3287.35, 0.418333
3289.44, 0.418496
3291.53, 0.418537
3293.62, 0.418577
3295.71, 0.418618
3297.81, 0.418577
3299.91, 0.418577
3302.01, 0.418618
3304.11, 0.418618
3306.22, 0.418496
3308.33, 0.418577
3310.44, 0.418781
3312.56, 0.418903
3314.68, 0.419188
3316.8, 0.419433
3318.92, 0.419677
3321.05, 0.420125
3323.18, 0.420410
3325.31, 0.420899
3327.44, 0.421429
3329.58, 0.421673
3331.72, 0.421958
3333.86, 0.422366
3336.01, 0.422610
3338.16, 0.422773
3340.31, 0.422855
3342.46, 0.422895
3344.61, 0.422651
3346.77, 0.422121
3348.94, 0.421714
3351.1, 0.421795
3353.27, 0.421714
3355.44, 0.421388
3357.61, 0.421144
3359.79, 0.421062
3361.97, 0.420940
3364.15, 0.420777
3366.33, 0.420696
3368.52, 0.420696
3370.71, 0.420777
3372.9, 0.420818
3375.1, 0.420736
3377.3, 0.420818
3379.5, 0.421184
3381.71, 0.421510
3383.91, 0.421673
3386.12, 0.422040
3388.34, 0.422447
3390.55, 0.422733
3392.77, 0.423018
3394.99, 0.423099
3397.22, 0.423384
3399.45, 0.423792
3401.68, 0.423914
3403.91, 0.423873
3406.15, 0.423751
3408.39, 0.423914
3410.63, 0.424158
3412.87, 0.424647
3415.12, 0.424932
3417.37, 0.425095
3419.63, 0.425421
3421.88, 0.425910
3424.14, 0.426562
3426.41, 0.427336
3428.67, 0.427947
3430.94, 0.428517
3433.21, 0.429128
3435.49, 0.429658
3437.77, 0.430187
3440.05, 0.430636
3442.33, 0.431043
3444.62, 0.431287
3446.91, 0.431491
3449.2, 0.431776
3451.5, 0.432143
3453.8, 0.432387
3456.1, 0.432632
3458.41, 0.432795
3460.72, 0.432917
3463.03, 0.432958
3465.34, 0.432917
3467.66, 0.432876
3469.98, 0.433039
3472.31, 0.432917
3474.63, 0.432672
3476.96, 0.432509
3479.3, 0.432632
3481.64, 0.432672
3483.97, 0.432632
3486.32, 0.432754
3488.66, 0.433120
3491.01, 0.433406
3493.36, 0.433691
3495.72, 0.433732
3498.08, 0.433895
3500.44, 0.434180
3502.81, 0.434383
3505.18, 0.434709
3507.55, 0.435239
3509.92, 0.435891
3512.3, 0.436502
3514.68, 0.437194
3517.06, 0.437724
3519.45, 0.438090
3521.84, 0.438457
3524.24, 0.438987
3526.64, 0.439435
3529.04, 0.439557
3531.44, 0.439638
3533.85, 0.439761
3536.26, 0.439964
3538.67, 0.440290
3541.09, 0.440535
3543.51, 0.440698
3545.93, 0.440942
3548.36, 0.441064
3550.79, 0.441268
3553.22, 0.441472
3555.66, 0.441675
3558.1, 0.441716
3560.54, 0.441716
3562.99, 0.441838
3565.44, 0.441838
3567.9, 0.441961
3570.35, 0.441920
3572.81, 0.442042
3575.28, 0.442124
3577.75, 0.442124
3580.22, 0.442124
3582.69, 0.442001
3585.17, 0.441961
3587.65, 0.442124
3590.14, 0.442124
3592.62, 0.442001
3595.11, 0.442083
3597.61, 0.442042
3600.11, 0.442042
3602.61, 0.441961
3605.11, 0.441879
3607.62, 0.441879
3610.14, 0.441838
3612.65, 0.441920
3615.17, 0.442042
3617.69, 0.441920
3620.22, 0.442001
3622.75, 0.441961
3625.28, 0.441961
3627.82, 0.441838
3630.36, 0.441798
3632.9, 0.441879
3635.45, 0.441879
3638.0, 0.441838
3640.56, 0.441757
3643.12, 0.441798
3645.68, 0.441879
3648.24, 0.441757
3650.81, 0.441716
3653.39, 0.441961
3655.96, 0.442164
3658.54, 0.442164
3661.13, 0.442327
3663.71, 0.442409
3666.3, 0.442409
3668.9, 0.442449
3671.5, 0.442572
3674.1, 0.442694
3676.7, 0.442857
3679.31, 0.443020
3681.93, 0.443223
3684.54, 0.443264
3687.17, 0.443223
3689.79, 0.443264
3692.42, 0.443590
3695.05, 0.443875
3697.69, 0.443916
3700.32, 0.443916
3702.97, 0.443957
3705.61, 0.444120
3708.27, 0.444283
3710.92, 0.444364
3713.58, 0.444486
3716.24, 0.444731
3718.91, 0.444853
3721.58, 0.444771
3724.25, 0.444690
3726.93, 0.444731
3729.61, 0.444812
3732.29, 0.444894
3734.98, 0.444975
3737.67, 0.444975
3740.37, 0.445138
3743.07, 0.445057
3745.78, 0.444894
3748.49, 0.444894
3751.2, 0.445138
3753.91, 0.445057
3756.63, 0.445016
3759.36, 0.445097
3762.09, 0.445220
3764.82, 0.445301
3767.55, 0.445220
3770.29, 0.445057
3773.04, 0.444975
3775.78, 0.444934
3778.54, 0.444975
3781.29, 0.444975
3784.05, 0.444812
3786.82, 0.444649
3789.59, 0.444649
3792.36, 0.444568
3795.13, 0.444527
3797.92, 0.444364
3800.7, 0.444079
3803.49, 0.443916
3806.28, 0.443794
3809.08, 0.443549
3811.88, 0.443468
3814.68, 0.443427
3817.49, 0.443346
3820.31, 0.443264
3823.12, 0.443223
3825.94, 0.443020
3828.77, 0.442775
3831.6, 0.442612
3834.43, 0.442572
3837.27, 0.442327
3840.11, 0.442124
3842.96, 0.442001
3845.81, 0.441838
3848.67, 0.441635
3851.53, 0.441431
3854.39, 0.441146
3857.26, 0.440861
3860.13, 0.440535
3863.01, 0.440331
3865.89, 0.440250
3868.77, 0.440005
3871.66, 0.439761
3874.55, 0.439557
3877.45, 0.439272
3880.35, 0.439027
3883.26, 0.438824
3886.17, 0.438702
3889.09, 0.438457
3892.01, 0.438172
3894.93, 0.437887
3897.86, 0.437683
3900.79, 0.437439
3903.73, 0.437276
3906.67, 0.437072
3909.62, 0.436909
3912.57, 0.436746
3915.52, 0.436583
3918.48, 0.436339
3921.45, 0.436094
3924.42, 0.435850
3927.39, 0.435646
3930.37, 0.435605
3933.35, 0.435565
3936.34, 0.435483
3939.33, 0.435483
3942.32, 0.435320
3945.32, 0.435157
3948.33, 0.434954
3951.34, 0.434913
3954.35, 0.434750
3957.37, 0.434791
3960.39, 0.434750
3963.42, 0.434628
3966.45, 0.434546
3969.49, 0.434628
3972.53, 0.434669
3975.58, 0.434669
3978.63, 0.434669
3981.68, 0.434628
3984.75, 0.434669
3987.81, 0.434791
3990.88, 0.434628
3993.95, 0.434546
3997.03, 0.434506
4000.12, 0.434424
4003.21, 0.434383
4006.3, 0.434180
4009.4, 0.434017
4012.5, 0.433935
4015.61, 0.433772
4018.72, 0.433650
4021.84, 0.433528
4024.96, 0.433406
4028.09, 0.433243
4031.22, 0.432958
4034.36, 0.432754
4037.5, 0.432346
4040.65, 0.431980
4043.8, 0.431776
4046.96, 0.431532
4050.12, 0.431206
4053.29, 0.431084
4056.46, 0.430961
4059.64, 0.430676
4062.82, 0.430310
4066.0, 0.429902
4069.19, 0.429617
4072.39, 0.429373
4075.59, 0.429087
4078.8, 0.428843
4082.01, 0.428476
4085.23, 0.428191
4088.45, 0.427947
4091.68, 0.427784
4094.91, 0.427580
4098.15, 0.427254
4101.39, 0.427091
4104.63, 0.426847
4107.89, 0.426643
4111.14, 0.426317
4114.41, 0.425991
4117.67, 0.425788
4120.95, 0.425625
4124.23, 0.425258
4127.51, 0.425014
4130.8, 0.424810
4134.09, 0.424525
4137.39, 0.424321
4140.7, 0.424158
4144.01, 0.423914
4147.32, 0.423710
4150.64, 0.423466
4153.97, 0.423181
4157.3, 0.422936
4160.64, 0.422814
4163.98, 0.422651
4167.33, 0.422366
4170.68, 0.421999
4174.04, 0.421795
4177.4, 0.421429
4180.77, 0.421184
4184.14, 0.421062
4187.52, 0.420940
4190.91, 0.420614
4194.3, 0.420207
4197.69, 0.419799
4201.1, 0.419473
4204.5, 0.418944
4207.92, 0.418211
4211.34, 0.417192
4214.76, 0.416011
4218.19, 0.414911
4221.62, 0.413811
4225.06, 0.412833
4228.51, 0.412181
4231.96, 0.411693
4235.42, 0.411489
4238.88, 0.411489
4242.35, 0.411815
4245.83, 0.412426
4249.31, 0.413281
4252.79, 0.414096
4256.28, 0.414626
4259.78, 0.414096
4263.29, 0.412874
4266.79, 0.411733
4270.31, 0.410878
4273.83, 0.410226
4277.35, 0.409941
4280.89, 0.409778
4284.42, 0.409656
4287.97, 0.409534
4291.52, 0.409493
4295.07, 0.409534
4298.63, 0.409656
4302.2, 0.409941
4305.78, 0.410104
4309.35, 0.410226
4312.94, 0.410430
4316.53, 0.410430
4320.13, 0.410593
4323.73, 0.410715
4327.34, 0.410837
4330.96, 0.410878
4334.58, 0.410796
4338.21, 0.410633
4341.84, 0.410674
4345.48, 0.410633
4349.12, 0.410471
4352.77, 0.410348
4356.43, 0.410226
4360.1, 0.410145
4363.76, 0.410063
4367.44, 0.409941
4371.12, 0.409859
4374.81, 0.409696
4378.51, 0.409656
4382.21, 0.409452
4385.92, 0.409167
4389.63, 0.409004
4393.35, 0.408841
4397.08, 0.408597
4400.81, 0.408434
4404.55, 0.408311
4408.29, 0.408108
4412.04, 0.407863
4415.8, 0.407660
4419.57, 0.407456
4423.34, 0.407252
4427.12, 0.407008
4430.9, 0.406886
4434.69, 0.406641
4438.49, 0.406356
4442.29, 0.406234
4446.1, 0.406112
4449.92, 0.405826
4453.74, 0.405501
4457.57, 0.405256
4461.41, 0.404971
4465.25, 0.404645
4469.1, 0.404482
4472.95, 0.404238
4476.82, 0.403912
4480.69, 0.403504
4484.56, 0.403219
4488.44, 0.402893
4492.33, 0.402527
4496.23, 0.402038
4500.13, 0.401508
4504.04, 0.400979
4507.96, 0.400327
4511.88, 0.399716
4515.81, 0.399064
4519.75, 0.398086
4523.69, 0.397068
4527.65, 0.395968
4531.6, 0.394705
4535.57, 0.393361
4539.54, 0.391853
4543.52, 0.390387
4547.5, 0.388920
4551.5, 0.387291
4555.5, 0.385743
4559.5, 0.384073
4563.52, 0.382321
4567.54, 0.380569
4571.56, 0.378817
4575.6, 0.376984
4579.64, 0.375029
4583.69, 0.372870
4587.75, 0.370670
4591.81, 0.368389
4595.88, 0.365985
4599.96, 0.363500
4604.04, 0.360975
4608.14, 0.358204
4612.24, 0.355353
4616.34, 0.352460
4620.46, 0.349650
4624.58, 0.346961
4628.71, 0.344231
4632.84, 0.341543
4636.99, 0.338895
4641.14, 0.336288
4645.3, 0.333843
4649.47, 0.331399
4653.64, 0.328996
4657.82, 0.326674
4662.01, 0.324433
4666.21, 0.322355
4670.41, 0.320522
4674.62, 0.319056
4678.84, 0.317793
4683.07, 0.316571
4687.3, 0.315471
4691.54, 0.314371
4695.79, 0.313149
4700.05, 0.311967
4704.31, 0.310786
4708.59, 0.309605
4712.87, 0.308464
4717.15, 0.307242
4721.45, 0.305979
4725.76, 0.304675
4730.07, 0.303209
4734.39, 0.301620
4738.72, 0.299909
4743.05, 0.297954
4747.39, 0.295876
4751.75, 0.293676
4756.1, 0.291313
4760.47, 0.288828
4764.85, 0.286425
4769.23, 0.284021
4773.62, 0.281496
4778.02, 0.278889
4782.43, 0.276241
4786.85, 0.273715
4791.27, 0.271189
4795.7, 0.268704
4800.14, 0.266219
4804.59, 0.263693
4809.05, 0.261371
4813.51, 0.259212
4817.99, 0.257298
4822.47, 0.255627
4826.96, 0.254120
4831.46, 0.252817
4835.96, 0.251757
4840.48, 0.250943
4845.0, 0.250372
4849.54, 0.250046
4854.08, 0.249965
4858.63, 0.249843
4863.18, 0.249802
4867.75, 0.249802
4872.33, 0.249924
4876.91, 0.250209
4881.5, 0.250495
4886.1, 0.250657
4890.71, 0.250943
4895.33, 0.251106
4899.96, 0.251228
4904.59, 0.251309
4909.24, 0.251350
4913.89, 0.251269
4918.55, 0.251269
4923.22, 0.251146
4927.9, 0.250983
4932.59, 0.250820
4937.29, 0.250617
4942.0, 0.250372
4946.71, 0.249965
4951.44, 0.249313
4956.17, 0.248702
4960.91, 0.248213
4965.67, 0.247765
4970.43, 0.247276
4975.2, 0.246584
4979.98, 0.245769
4984.76, 0.245199
4989.56, 0.244425
4994.37, 0.243366
4999.18, 0.242225
5004.01, 0.241043
5008.84, 0.239821
5013.69, 0.238273
5018.54, 0.236481
5023.4, 0.234851
5028.28, 0.233181
5033.16, 0.231266
5038.05, 0.229311
5042.95, 0.227233
5047.86, 0.224830
5052.78, 0.222304
5057.71, 0.219860
5062.65, 0.217497
5067.6, 0.215012
5072.56, 0.212609
5077.53, 0.210205
5082.5, 0.207679
5087.49, 0.205357
5092.49, 0.203035
5097.5, 0.200917
5102.51, 0.198758
5107.54, 0.196395
5112.58, 0.194073
5117.62, 0.191955
5122.68, 0.190040
5127.75, 0.188126
5132.82, 0.186374
5137.91, 0.184989
5143.01, 0.183889
5148.12, 0.183278
5153.23, 0.183644
5158.36, 0.184378
5163.5, 0.185478
5168.65, 0.187148
5173.81, 0.189103
5178.98, 0.191344
5184.15, 0.193829
5189.34, 0.196517
5194.54, 0.199206
5199.75, 0.201610
5204.98, 0.204176
5210.21, 0.206335
5215.45, 0.208657
5220.7, 0.211142
5225.96, 0.213138
5231.23, 0.214931
5236.52, 0.216601
5241.81, 0.218271
5247.12, 0.220023
5252.44, 0.221490
5257.76, 0.222997
5263.1, 0.224748
5268.45, 0.226459
5273.81, 0.228333
5279.18, 0.230533
5284.56, 0.232774
5289.95, 0.234770
5295.36, 0.237173
5300.77, 0.239740
5306.2, 0.241736
5311.63, 0.243569
5317.08, 0.245076
5322.54, 0.246339
5328.01, 0.247195
5333.49, 0.247806
5338.98, 0.248091
5344.49, 0.247643
5350.0, 0.246828
5355.53, 0.246910
5361.07, 0.246991
5366.62, 0.246299
5372.18, 0.245158
5377.75, 0.243691
5383.34, 0.242143
5388.93, 0.240351
5394.54, 0.238436
5400.16, 0.236440
5405.79, 0.234322
5411.44, 0.232244
5417.09, 0.229556
5422.76, 0.227111
5428.43, 0.226867
5434.12, 0.226459
5439.83, 0.225522
5445.54, 0.224993
5451.26, 0.224667
5457.0, 0.224178
5462.75, 0.223404
5468.52, 0.223852
5474.29, 0.224667
5480.08, 0.225197
5485.88, 0.226704
5491.69, 0.228130
5497.51, 0.229515
5503.35, 0.230941
5509.2, 0.232489
5515.06, 0.233711
5520.93, 0.234607
5526.82, 0.235381
5532.71, 0.235829
5538.63, 0.235422
5544.55, 0.234159
5550.49, 0.232000
5556.44, 0.229841
5562.4, 0.227804
5568.37, 0.225482
5574.36, 0.222304
5580.36, 0.219901
5586.37, 0.219453
5592.4, 0.218923
5598.44, 0.217742
5604.49, 0.216927
5610.56, 0.216438
5616.63, 0.215786
5622.73, 0.215338
5628.83, 0.214686
5634.95, 0.213057
5641.08, 0.210979
5647.23, 0.211020
5653.39, 0.211142
5659.56, 0.210938
5665.74, 0.210857
5671.94, 0.209472
5678.15, 0.208739
5684.38, 0.208779
5690.62, 0.208128
5696.87, 0.207883
5703.14, 0.207109
5709.42, 0.205195
5715.72, 0.204665
5722.03, 0.204543
5728.35, 0.204135
5734.69, 0.203198
5741.03, 0.202139
5747.4, 0.200999
5753.78, 0.201080
5760.17, 0.199654
5766.58, 0.197617
5773.0, 0.199491
5779.44, 0.201202
5785.88, 0.201936
5792.35, 0.202384
5798.83, 0.202384
5805.32, 0.202465
5811.83, 0.201773
5818.35, 0.199369
5824.89, 0.198717
5831.45, 0.200225
5838.01, 0.201324
5844.59, 0.201895
5851.19, 0.201773
5857.8, 0.201243
5864.43, 0.200876
5871.07, 0.200917
5877.73, 0.198025
5884.4, 0.197332
5891.09, 0.197903
5897.79, 0.196395
5904.5, 0.197210
5911.23, 0.196029
5917.98, 0.193136
5924.75, 0.189633
5931.53, 0.183930
5938.32, 0.178674
5945.13, 0.176760
5951.96, 0.173256
5958.8, 0.168694
5965.65, 0.162787
5972.53, 0.158021
5979.42, 0.154395
5986.32, 0.150117
5993.24, 0.147307
6000.18, 0.146125
6007.13, 0.144414
6014.1, 0.142703
6021.08, 0.142459
6028.09, 0.142377
6035.1, 0.141644
6042.14, 0.139281
6049.19, 0.137082
6056.25, 0.139689
6063.34, 0.141481
6070.44, 0.140707
6077.55, 0.141277
6084.69, 0.142866
6091.84, 0.143314
6099.0, 0.143151
6106.19, 0.141970
6113.39, 0.140503
6120.61, 0.141115
6127.84, 0.141522
6135.09, 0.140300
6142.36, 0.138589
6149.65, 0.136919
6156.95, 0.134882
6164.27, 0.133334
6171.61, 0.132193
6178.97, 0.129708
6186.34, 0.127508
6193.73, 0.127712
6201.14, 0.127630
6208.57, 0.127142
6216.01, 0.127101
6223.47, 0.127508
6230.95, 0.127916
6238.45, 0.128404
6245.97, 0.128893
6253.5, 0.129219
6261.06, 0.129301
6268.63, 0.129341
6276.21, 0.129423
6283.82, 0.129504
6291.45, 0.129586
6299.1, 0.129912
6306.76, 0.130523
6314.44, 0.131460
6322.14, 0.132682
6329.86, 0.134148
6337.6, 0.134963
6345.35, 0.136389
6353.13, 0.140381
6360.92, 0.143437
6368.74, 0.145433
6376.57, 0.148692
6384.43, 0.152154
6392.3, 0.154802
6400.19, 0.156432
6408.1, 0.155454
6416.03, 0.156187
6423.98, 0.160424
6431.95, 0.162950
6439.94, 0.164864
6447.95, 0.166331
6455.98, 0.167390
6464.03, 0.168123
6472.1, 0.167838
6480.19, 0.167431
6488.31, 0.166290
6496.44, 0.166820
6504.59, 0.169875
6512.76, 0.170731
6520.95, 0.169794
6529.16, 0.170038
6537.4, 0.169427
6545.65, 0.167635
6553.92, 0.165598
6562.22, 0.163642
6570.54, 0.160628
6578.88, 0.159446
6587.23, 0.158795
6595.61, 0.157735
6604.02, 0.157287
6612.44, 0.156513
6620.89, 0.155984
6629.35, 0.154517
6637.84, 0.153865
6646.35, 0.157084
6654.88, 0.160383
6663.44, 0.161850
6672.01, 0.162542
6680.61, 0.163316
6689.23, 0.165353
6697.88, 0.166942
6706.54, 0.166901
6715.23, 0.167105
6723.94, 0.167879
6732.67, 0.168612
6741.42, 0.168897
6750.2, 0.168734
6759.0, 0.168653
6767.82, 0.168001
6776.67, 0.166942
6785.54, 0.165476
6794.44, 0.165150
6803.35, 0.166087
6812.29, 0.165883
6821.26, 0.164579
6830.24, 0.163765
6839.25, 0.163642
6848.29, 0.162298
6857.35, 0.159283
6866.43, 0.157817
6875.54, 0.159120
6884.67, 0.158998
6893.82, 0.158061
6903.0, 0.156758
6912.2, 0.155984
6921.43, 0.155536
6930.69, 0.154843
6939.96, 0.153947
6949.27, 0.152643
6958.59, 0.150647
6967.95, 0.150729
6977.33, 0.151177
6986.73, 0.150484
6996.16, 0.149792
7005.61, 0.149588
7015.09, 0.149018
7024.6, 0.148366
7034.13, 0.147470
7043.69, 0.145962
7053.27, 0.146084
7062.88, 0.146899
7072.52, 0.146614
7082.18, 0.146166
7091.87, 0.145677
7101.58, 0.145066
7111.32, 0.144048
7121.09, 0.143029
7130.88, 0.142092
7140.71, 0.140626
7150.56, 0.139159
7160.43, 0.137856
7170.33, 0.136348
7180.27, 0.135696
7190.23, 0.134882
7200.21, 0.133456
7210.23, 0.132112
7220.27, 0.131500
7230.34, 0.130441
7240.44, 0.129178
7250.56, 0.127793
7260.72, 0.126327
7270.9, 0.124657
7281.12, 0.123231
7291.36, 0.122049
7301.63, 0.120501
7311.93, 0.118790
7322.25, 0.117039
7332.61, 0.114961
7343.0, 0.113046
7353.41, 0.111050
7363.86, 0.108891
7374.33, 0.106488
7384.83, 0.104451
7395.37, 0.103066
7405.93, 0.102414
7416.53, 0.102332
7427.15, 0.102414
7437.81, 0.102251
7448.5, 0.101681
7459.22, 0.100581
7469.96, 0.0993180
7480.74, 0.0978920
7491.55, 0.0963030
7502.39, 0.0948780
7513.27, 0.0936550
7524.17, 0.0926780
7535.11, 0.0919440
7546.08, 0.0911700
7557.08, 0.0903560
7568.11, 0.0892960
7579.17, 0.0881150
7590.27, 0.0869340
7601.4, 0.0857120
7612.56, 0.0844080
7623.76, 0.0831860
7634.98, 0.0820040
7646.24, 0.0807420
7657.54, 0.0794790
7668.87, 0.0782970
7680.23, 0.0770350
7691.62, 0.0755680
7703.05, 0.0739380
7714.51, 0.0724310
7726.01, 0.0708420
7737.54, 0.0690910
7749.11, 0.0676240
7760.71, 0.0662800
7772.35, 0.0648540
7784.02, 0.0634690
7795.72, 0.0621250
7807.46, 0.0608210
7819.23, 0.0592320
7831.04, 0.0576030
7842.89, 0.0560140
7854.77, 0.0544250
7866.69, 0.0528360
7878.65, 0.0511660
7890.64, 0.0494550
7902.67, 0.0477440
7914.74, 0.0461150
7926.84, 0.0444450
7938.98, 0.0427740
7951.16, 0.0412260
7963.37, 0.0397190
7975.62, 0.0380490
7987.91, 0.0363790
8000.24, 0.0348710
8012.6, 0.0333230
8025.01, 0.0317750
8037.45, 0.0301460
8049.93, 0.0287610
8062.45, 0.0273350
8075.01, 0.0258680
8087.61, 0.0244830
8100.24, 0.0233430
8112.91, 0.0220800
8125.63, 0.0207350
8138.39, 0.0194720
8151.18, 0.0182500
8164.02, 0.0169470
8176.9, 0.0158880
8189.81, 0.0149510
8202.77, 0.0140140
8215.77, 0.0130360
8228.82, 0.0121400
8241.9, 0.0114470
8255.02, 0.0108360
8268.19, 0.0101030
8281.39, 0.00953300
8294.65, 0.00892200
8307.94, 0.00843300
8321.28, 0.00806600
8334.66, 0.00774000
8348.08, 0.00737300
8361.54, 0.00712900
8375.05, 0.00692500
8388.6, 0.00688500
8402.2, 0.00676200
8415.84, 0.00680300
8429.52, 0.00704800
8443.25, 0.00725100
8457.02, 0.00745500
8470.84, 0.00814700
8484.7, 0.00888100
8498.61, 0.00973600
8512.57, 0.0108360
8526.57, 0.0123840
8540.62, 0.0143800
8554.71, 0.0168250
8568.85, 0.0197580
8583.04, 0.0232610
8597.27, 0.0272940
8611.55, 0.0321420
8625.88, 0.0376410
8640.26, 0.0437520
8654.68, 0.0502700
8669.16, 0.0573580
8683.68, 0.0646910
8698.25, 0.0717390
8712.87, 0.0772790
8727.53, 0.0800490
8742.25, 0.0798450
8757.02, 0.0799680
8771.83, 0.0844890
8786.7, 0.0934520
8801.62, 0.103432
8816.59, 0.112191
8831.61, 0.118464
8846.68, 0.121764
8861.8, 0.122538
8876.97, 0.121886
8892.2, 0.121194
8907.48, 0.122457
8922.81, 0.126123
8938.2, 0.131419
8953.63, 0.136878
8969.13, 0.141929
8984.67, 0.146003
9000.27, 0.149058
9015.92, 0.151462
9031.63, 0.153376
9047.39, 0.154721
9063.21, 0.155821
9079.08, 0.156798
9095.01, 0.157369
9111.0, 0.157735
9127.04, 0.158102
9143.13, 0.158428
9159.28, 0.158632
9175.49, 0.158958
9191.76, 0.159365
9208.09, 0.159894
9224.47, 0.160343
9240.92, 0.161076
9257.42, 0.161931
9273.98, 0.162909
9290.6, 0.164090
9307.28, 0.165150
9324.02, 0.166209
9340.82, 0.167309
9357.68, 0.168368
9374.6, 0.169142
9391.58, 0.169509
9408.62, 0.169264
9425.73, 0.168490
9442.9, 0.167105
9460.13, 0.165231
9477.42, 0.162624
9494.78, 0.159446
9512.2, 0.155658
9529.69, 0.150932
9547.24, 0.145433
9564.86, 0.139159
9582.54, 0.132030
9600.28, 0.124005
9618.1, 0.115205
9635.97, 0.106325
9653.92, 0.0980960
9671.93, 0.0905590
9690.01, 0.0842450
9708.16, 0.0789080
9726.37, 0.0748350
9744.65, 0.0723090
9763.0, 0.0711680
9781.43, 0.0721460
9799.92, 0.0752420
9818.48, 0.0798050
9837.1, 0.0851820
9855.8, 0.0904370
9874.58, 0.0950810
9893.42, 0.0988290
9912.34, 0.100703
9931.33, 0.100377
9950.39, 0.0977290
9969.52, 0.0937780
9988.74, 0.0900700
10008.0, 0.0881560
10027.4, 0.0891340
10046.8, 0.0933700
10066.3, 0.0992770
10085.9, 0.105021
10105.6, 0.110561
10125.3, 0.117120
10145.1, 0.125797
10165.0, 0.136389
10185.0, 0.146084
10205.0, 0.152480
10225.2, 0.154558
10245.4, 0.152032
10265.7, 0.145514
10286.0, 0.136348
10306.5, 0.127875
10327.0, 0.123720
10347.6, 0.124575
10368.3, 0.128771
10389.1, 0.133334
10409.9, 0.136389
10430.9, 0.137896
10451.9, 0.138059
10473.0, 0.136878
10494.2, 0.134515
10515.5, 0.131419
10536.9, 0.127671
10558.4, 0.123883
10579.9, 0.120583
10601.5, 0.117853
10623.3, 0.115776
10645.1, 0.114676
10667.0, 0.114798
10689.0, 0.116102
10711.1, 0.118464
10733.2, 0.120868
10755.5, 0.122701
10777.9, 0.122701
10800.3, 0.120338
10822.9, 0.115572
10845.5, 0.108525
10868.2, 0.0997250
10891.1, 0.0902330
10914.0, 0.0807820
10937.0, 0.0724720
10960.2, 0.0666870
10983.4, 0.0640390
11006.7, 0.0642840
11030.1, 0.0668090
11053.6, 0.0699460
11077.3, 0.0718200
11101.0, 0.0721460
11124.8, 0.0717390
11148.7, 0.0715350
11172.7, 0.0732050
11196.9, 0.0779710
11221.1, 0.0860370
11245.4, 0.0961400
11269.9, 0.105714
11294.4, 0.113535
11319.1, 0.119442
11343.9, 0.123068
11368.8, 0.124697
11393.7, 0.125023
11418.8, 0.124494
11444.0, 0.123231
11469.4, 0.121479
11494.8, 0.119361
11520.3, 0.117039
11546.0, 0.114676
11571.8, 0.112191
11597.7, 0.109584
11623.7, 0.106895
11649.8, 0.103840
11676.0, 0.100173
11702.4, 0.0962220
11728.9, 0.0919850
11755.5, 0.0874630
11782.2, 0.0829820
11809.0, 0.0791530
11836.0, 0.0762600
11863.0, 0.0738570
11890.3, 0.0721050
11917.6, 0.0704760
11945.0, 0.0689680
11972.6, 0.0676650
12000.4, 0.0665650
12028.2, 0.0657100
12056.2, 0.0651390
12084.3, 0.0649760
12112.5, 0.0648950
12140.9, 0.0647730
12169.4, 0.0648130
12198.0, 0.0647730
12226.8, 0.0649350
12255.7, 0.0651800
12284.7, 0.0652210
12313.9, 0.0651800
12343.2, 0.0650980
12372.7, 0.0652210
12402.3, 0.0655060
12432.0, 0.0653840
12461.9, 0.0651390
12491.9, 0.0650980
12522.1, 0.0648130
12552.4, 0.0643240
12582.9, 0.0639990
12613.5, 0.0635910
12644.3, 0.0632250
12675.2, 0.0630210
12706.3, 0.0627760
12737.5, 0.0624910
12768.9, 0.0622470
12800.4, 0.0621650
12832.1, 0.0620430
12863.9, 0.0619620
12895.9, 0.0616360
12928.1, 0.0611060
12960.4, 0.0603730
12992.9, 0.0592730
13025.5, 0.0577250
13058.3, 0.0562180
13091.3, 0.0545470
13124.4, 0.0529990
13157.8, 0.0512070
13191.2, 0.0494550
13224.9, 0.0472960
13258.7, 0.0447300
13292.7, 0.0416740
13326.9, 0.0384970
13361.2, 0.0358490
13395.7, 0.0336490
13430.4, 0.0329570
13465.3, 0.0330790
13500.4, 0.0328750
13535.7, 0.0320200
13571.1, 0.0307570
13606.7, 0.0293720
13642.5, 0.0283130
13678.5, 0.0287610
13714.7, 0.0308380
13751.1, 0.0330790
13787.6, 0.0340570
13824.4, 0.0338940
13861.4, 0.0329570
13898.5, 0.0320600
13935.9, 0.0313270
13973.5, 0.0304310
14011.2, 0.0300640
14049.2, 0.0298200
14087.4, 0.0293720
14125.8, 0.0290050
14164.3, 0.0286380
14203.2, 0.0281900
14242.2, 0.0283940
14281.4, 0.0296160
14320.9, 0.0319380
14360.5, 0.0356050
14400.4, 0.0394750
14440.5, 0.0422040
14480.9, 0.0425300
14521.4, 0.0408600
14562.2, 0.0379270
14603.3, 0.0348710
14644.5, 0.0321830
14686.0, 0.0300640
14727.7, 0.0284750
14769.7, 0.0276610
14811.9, 0.0274160
14854.3, 0.0269270
14897.0, 0.0259090
14939.9, 0.0244830
14983.1, 0.0226090
15026.5, 0.0202060
15070.2, 0.0180870
15114.2, 0.0168650
15158.3, 0.0166210
15202.8, 0.0175990
15247.5, 0.0197980
15292.5, 0.0227310
15337.7, 0.0257460
15383.2, 0.0281900
15429.0, 0.0300640
15475.1, 0.0305530
15521.4, 0.0301460
15568.0, 0.0294530
15614.9, 0.0283130
15662.1, 0.0267650
15709.6, 0.0252160
15757.3, 0.0239540
15805.4, 0.0237500
15853.7, 0.0241570
15902.3, 0.0248090
15951.2, 0.0262350
16000.5, 0.0285570
16050.0, 0.0318160
16099.8, 0.0362160
16150.0, 0.0417560
16200.5, 0.0483960
16251.3, 0.0561360
16302.4, 0.0646100
16353.8, 0.0725530
16405.5, 0.0801710
16457.6, 0.0870970
16510.0, 0.0934520
16562.8, 0.0992770
16615.9, 0.104288
16669.3, 0.108728
16723.1, 0.112598
16777.2, 0.116102
16831.7, 0.119279
16886.5, 0.121968
16941.7, 0.124494
16997.2, 0.126653
17053.1, 0.128934
17109.4, 0.131949
17166.1, 0.134841
17223.1, 0.137611
17280.5, 0.141237
17338.3, 0.144577
17396.5, 0.146818
17455.1, 0.146736
17514.0, 0.144536
17573.4, 0.140789
17633.2, 0.136389
17693.4, 0.132193
17754.0, 0.129749
17815.0, 0.131378
17876.4, 0.135737
17938.3, 0.140137
18000.5, 0.143599
18063.3, 0.147144
18126.4, 0.152154
18190.0, 0.157369
18254.1, 0.160506
18318.6, 0.160383
18383.5, 0.156106
18449.0, 0.149588
18514.9, 0.143396
18581.2, 0.139200
18648.0, 0.136878
18715.4, 0.135004
18783.2, 0.131786
18851.5, 0.130401
18920.3, 0.135452
18989.6, 0.147795
19059.4, 0.163683
19129.7, 0.180548
19200.6, 0.194562
19272.0, 0.204095
19343.9, 0.209961
19416.3, 0.212038
19489.3, 0.211998
19562.8, 0.210287
19637.0, 0.207842
19711.6, 0.204706
19786.8, 0.200713
19862.6, 0.195825
19939.0, 0.189388
20016.0, 0.182382
20093.6, 0.175375
20171.8, 0.167105
20250.6, 0.157980
20330.0, 0.149629
20410.0, 0.142011
20490.7, 0.135371
20572.0, 0.128730
20654.0, 0.121601
20736.6, 0.114717
20819.9, 0.109095
20903.8, 0.103514
20988.5, 0.0962630
21073.8, 0.0898670
21159.8, 0.0891340
21246.5, 0.0934920
21334.0, 0.0978110
21422.1, 0.101192
21511.0, 0.105999
21600.7, 0.114309
21691.0, 0.124168
21782.1, 0.132315
21874.0, 0.137896
21966.7, 0.142377
22060.2, 0.145392
22154.5, 0.146777
22249.6, 0.147152
22345.5, 0.145192
22442.2, 0.137643
22539.8, 0.127782
22638.2, 0.116680
22737.5, 0.107906
22837.7, 0.100556
22938.7, 0.0960850
23040.7, 0.0928230
23143.5, 0.0904650
23247.3, 0.0853660
23352.1, 0.0821810
23457.7, 0.0794250
23564.4, 0.0744640
23672.0, 0.0690590
23780.5, 0.0668080
23890.1, 0.0653530
24000.7, 0.0644340
24112.3, 0.0645880
24225.0, 0.0645260
24338.7, 0.0654300
24453.5, 0.0678490
24569.4, 0.0736370
24686.4, 0.0796850
24804.5, 0.0837590
24923.8, 0.0853970
25044.2, 0.0885210
25165.8, 0.0908330
25288.6, 0.0901440
25412.5, 0.0902360
25537.7, 0.0886130
25664.1, 0.0847230
25791.8, 0.0811100
25920.8, 0.0761940
26051.1, 0.0720910
26182.6, 0.0706510
26315.5, 0.0696410
26449.8, 0.0670990
26585.4, 0.0681090
26722.5, 0.0734230
26860.9, 0.0766690
27000.8, 0.0770210
27142.1, 0.0786290
27285.0, 0.0789200
27429.4, 0.0781390
27575.3, 0.0796550
27722.7, 0.0843400
27871.8, 0.0946460
28022.4, 0.107064
28174.7, 0.117859
28328.7, 0.122744
28484.4, 0.125623
28641.7, 0.128348
28800.9, 0.127965
28961.8, 0.125684
29124.5, 0.122790
29289.0, 0.119513
29455.4, 0.115195
29623.8, 0.111780
29794.0, 0.112194
29966.3, 0.115210
30140.5, 0.117660
30316.7, 0.115593
30495.1, 0.111719
30675.5, 0.109989
30858.1, 0.107049
31042.8, 0.102838
31229.8, 0.0996070
31419.1, 0.0978610
31610.7, 0.0977850
31804.6, 0.0942780
32000.9, 0.0921960
32199.7, 0.0919350
32400.9, 0.0901900
32604.8, 0.0896390
32811.1, 0.0885970
33020.1, 0.0847690
33231.8, 0.0848000
33446.2, 0.0834680
33663.4, 0.0805280
33883.4, 0.0807420
34106.3, 0.0815840
34332.1, 0.0824110
34561.0, 0.0826410
34792.9, 0.0832380
35028.0, 0.0834680
35266.3, 0.0823040
35507.8, 0.0786290
35752.7, 0.0741730
36001.0, 0.0722590
36252.8, 0.0735610
36508.1, 0.0776180
36767.0, 0.0846160
37029.7, 0.0907560
37296.1, 0.0944620
37566.3, 0.0956720
37840.5, 0.0960390
38118.8, 0.0960080
38401.2, 0.0937420
38687.8, 0.0910320
38978.6, 0.0906490
39273.9, 0.0891940
39573.7, 0.0904040
39878.1, 0.0929920
40187.3, 0.0884750
40501.2, 0.0831460
40820.0, 0.0812170
41144.0, 0.0781700
41473.2, 0.0732080
41807.6, 0.0687520
42147.5, 0.0670990
42493.0, 0.0672370
42844.2, 0.0681860
43201.2, 0.0697170
43564.3, 0.0744330
43933.5, 0.0856570
44309.0, 0.101965
44691.0, 0.108090
45079.6, 0.107692
45475.0, 0.111382
45877.5, 0.115363
46287.1, 0.114965
46704.2, 0.110678
47128.7, 0.107386
47561.1, 0.106742
48001.5, 0.104446
48450.1, 0.105762
48907.2, 0.104216
49373.0, 0.0991470
49847.7, 0.0989790
50331.5, 0.100510
50825.0, 0.0961000
51328.2, 0.0978310
51841.5, 0.101184
52365.1, 0.0977690
52899.4, 0.0950280
53444.8, 0.0952430
54001.5, 0.0934360
54570.1, 0.0952280
55150.6, 0.0985350
55743.6, 0.0934670
56349.5, 0.0931140
56968.7, 0.0979680
57601.7, 0.0957630
58248.9, 0.0975700
58910.9, 0.102777
59588.1, 0.105640
60281.0, 0.107447
60990.2, 0.110831
61716.3, 0.111795
62459.8, 0.110280
63221.6, 0.112622
64002.1, 0.118518
64802.1, 0.123173
65622.1, 0.126189
66463.4, 0.120202
67326.6, 0.124719
68212.4, 0.127981
69121.9, 0.124352
70056.0, 0.113220
71015.7, 0.104828
72002.0, 0.102103
73016.3, 0.101766
74059.4, 0.104675
75132.7, 0.109713
76237.6, 0.120799
77375.5, 0.135698
78547.9, 0.153369
79756.3, 0.176092
81002.5, 0.182003
82288.5, 0.185096
83615.7, 0.195447
84986.5, 0.206518
86402.9, 0.217160
87867.4, 0.222825
89382.4, 0.225658
90950.5, 0.232472
92574.6, 0.251123
94257.2, 0.267798
96002.7, 0.277567
97814.1, 0.278991
99695.1, 0.269329
101650.0, 0.279374
103683.0, 0.281196
105799.0, 0.271656
108003.0, 0.268563
110301.0, 0.261106
112699.0, 0.256206
115204.0, 0.245794
117822.0, 0.237694
120562.0, 0.244523
123433.0, 0.252700
126443.0, 0.249025
129604.0, 0.238321
132926.0, 0.257983
136424.0, 0.281043
140111.0, 0.249346
144003.0, 0.227480
148118.0, 0.244569
152474.0, 0.224004
157095.0, 0.199474
162004.0, 0.212321
167231.0, 0.214909
172805.0, 0.178665
178764.0, 0.159325
185148.0, 0.113388
192005.0, 0.0890720
199390.0, 0.0922720
207366.0, 0.138378
216006.0, 0.230788
