Database of Origin, USGS Spectral Database
Sample Description, See USGS database for additional info
Date Added,2016-08-03 21:23:47.863808

Data ID,USGS_cli02          
Sample ID, clinochlore_gds157.5556
Mineral Name, clinochlore
Material Class,Phyllosilicate

Wavelength
350.0, 0.0693230
351.0, 0.0693230
352.0, 0.0696300
353.0, 0.0699850
354.0, 0.0704380
355.0, 0.0710050
356.0, 0.0715780
357.0, 0.0720180
358.0, 0.0722260
359.0, 0.0722710
360.0, 0.0722650
361.0, 0.0723090
362.0, 0.0724560
363.0, 0.0727500
364.0, 0.0732010
365.0, 0.0736690
366.0, 0.0739820
367.0, 0.0740280
368.0, 0.0739460
369.0, 0.0739370
370.0, 0.0741350
371.0, 0.0744180
372.0, 0.0746010
373.0, 0.0745570
374.0, 0.0744040
375.0, 0.0743180
376.0, 0.0744260
377.0, 0.0746510
378.0, 0.0748630
379.0, 0.0749650
380.0, 0.0749770
381.0, 0.0749540
382.0, 0.0749400
383.0, 0.0749520
384.0, 0.0749980
385.0, 0.0750840
386.0, 0.0752000
387.0, 0.0753330
388.0, 0.0754780
389.0, 0.0756570
390.0, 0.0758990
391.0, 0.0762170
392.0, 0.0765610
393.0, 0.0768650
394.0, 0.0770820
395.0, 0.0772420
396.0, 0.0773940
397.0, 0.0775760
398.0, 0.0777720
399.0, 0.0779570
400.0, 0.0781090
401.0, 0.0782250
402.0, 0.0783060
403.0, 0.0783570
404.0, 0.0783920
405.0, 0.0784270
406.0, 0.0784750
407.0, 0.0785430
408.0, 0.0786360
409.0, 0.0787590
410.0, 0.0789240
411.0, 0.0791440
412.0, 0.0794210
413.0, 0.0797270
414.0, 0.0800210
415.0, 0.0802810
416.0, 0.0805360
417.0, 0.0808310
418.0, 0.0811970
419.0, 0.0816100
420.0, 0.0820340
421.0, 0.0824390
422.0, 0.0828330
423.0, 0.0832280
424.0, 0.0836350
425.0, 0.0840540
426.0, 0.0844780
427.0, 0.0849010
428.0, 0.0853110
429.0, 0.0856980
430.0, 0.0860540
431.0, 0.0863920
432.0, 0.0867310
433.0, 0.0870840
434.0, 0.0874420
435.0, 0.0877930
436.0, 0.0881290
437.0, 0.0884680
438.0, 0.0888300
439.0, 0.0892290
440.0, 0.0896340
441.0, 0.0900040
442.0, 0.0903070
443.0, 0.0905570
444.0, 0.0907740
445.0, 0.0909750
446.0, 0.0911500
447.0, 0.0912840
448.0, 0.0913680
449.0, 0.0914200
450.0, 0.0914660
451.0, 0.0915270
452.0, 0.0916160
453.0, 0.0917420
454.0, 0.0919080
455.0, 0.0920940
456.0, 0.0922740
457.0, 0.0924310
458.0, 0.0925950
459.0, 0.0928040
460.0, 0.0930860
461.0, 0.0934170
462.0, 0.0937600
463.0, 0.0940910
464.0, 0.0944180
465.0, 0.0947610
466.0, 0.0951360
467.0, 0.0955440
468.0, 0.0959840
469.0, 0.0964540
470.0, 0.0969470
471.0, 0.0974560
472.0, 0.0979770
473.0, 0.0985210
474.0, 0.0991030
475.0, 0.0997290
476.0, 0.100372
477.0, 0.100999
478.0, 0.101582
479.0, 0.102124
480.0, 0.102638
481.0, 0.103134
482.0, 0.103618
483.0, 0.104097
484.0, 0.104576
485.0, 0.105061
486.0, 0.105558
487.0, 0.106065
488.0, 0.106539
489.0, 0.106929
490.0, 0.107197
491.0, 0.107356
492.0, 0.107432
493.0, 0.107453
494.0, 0.107456
495.0, 0.107477
496.0, 0.107552
497.0, 0.107698
498.0, 0.107930
499.0, 0.108257
500.0, 0.108660
501.0, 0.109114
502.0, 0.109593
503.0, 0.110073
504.0, 0.110527
505.0, 0.110937
506.0, 0.111314
507.0, 0.111673
508.0, 0.112027
509.0, 0.112365
510.0, 0.112670
511.0, 0.112932
512.0, 0.113162
513.0, 0.113376
514.0, 0.113589
515.0, 0.113795
516.0, 0.113984
517.0, 0.114149
518.0, 0.114289
519.0, 0.114405
520.0, 0.114498
521.0, 0.114571
522.0, 0.114629
523.0, 0.114673
524.0, 0.114696
525.0, 0.114688
526.0, 0.114644
527.0, 0.114582
528.0, 0.114525
529.0, 0.114490
530.0, 0.114474
531.0, 0.114465
532.0, 0.114457
533.0, 0.114448
534.0, 0.114440
535.0, 0.114435
536.0, 0.114429
537.0, 0.114420
538.0, 0.114404
539.0, 0.114381
540.0, 0.114353
541.0, 0.114321
542.0, 0.114289
543.0, 0.114261
544.0, 0.114241
545.0, 0.114223
546.0, 0.114199
547.0, 0.114162
548.0, 0.114113
549.0, 0.114056
550.0, 0.113992
551.0, 0.113924
552.0, 0.113852
553.0, 0.113778
554.0, 0.113701
555.0, 0.113617
556.0, 0.113526
557.0, 0.113429
558.0, 0.113328
559.0, 0.113223
560.0, 0.113114
561.0, 0.112994
562.0, 0.112863
563.0, 0.112718
564.0, 0.112561
565.0, 0.112391
566.0, 0.112210
567.0, 0.112018
568.0, 0.111816
569.0, 0.111605
570.0, 0.111383
571.0, 0.111152
572.0, 0.110913
573.0, 0.110673
574.0, 0.110434
575.0, 0.110194
576.0, 0.109951
577.0, 0.109703
578.0, 0.109453
579.0, 0.109202
580.0, 0.108953
581.0, 0.108709
582.0, 0.108471
583.0, 0.108239
584.0, 0.108009
585.0, 0.107771
586.0, 0.107520
587.0, 0.107248
588.0, 0.106951
589.0, 0.106627
590.0, 0.106287
591.0, 0.105949
592.0, 0.105625
593.0, 0.105307
594.0, 0.104984
595.0, 0.104645
596.0, 0.104293
597.0, 0.103928
598.0, 0.103556
599.0, 0.103195
600.0, 0.102867
601.0, 0.102583
602.0, 0.102321
603.0, 0.102051
604.0, 0.101749
605.0, 0.101422
606.0, 0.101080
607.0, 0.100736
608.0, 0.100405
609.0, 0.100103
610.0, 0.0998370
611.0, 0.0995870
612.0, 0.0993240
613.0, 0.0990270
614.0, 0.0987030
615.0, 0.0983660
616.0, 0.0980290
617.0, 0.0976950
618.0, 0.0973670
619.0, 0.0970470
620.0, 0.0967380
621.0, 0.0964400
622.0, 0.0961560
623.0, 0.0958850
624.0, 0.0956260
625.0, 0.0953740
626.0, 0.0951190
627.0, 0.0948480
628.0, 0.0945520
629.0, 0.0942430
630.0, 0.0939380
631.0, 0.0936500
632.0, 0.0933720
633.0, 0.0930930
634.0, 0.0928050
635.0, 0.0925120
636.0, 0.0922220
637.0, 0.0919430
638.0, 0.0916720
639.0, 0.0914060
640.0, 0.0911410
641.0, 0.0908770
642.0, 0.0906110
643.0, 0.0903450
644.0, 0.0900760
645.0, 0.0898030
646.0, 0.0895260
647.0, 0.0892450
648.0, 0.0889630
649.0, 0.0886800
650.0, 0.0884000
651.0, 0.0881240
652.0, 0.0878550
653.0, 0.0875920
654.0, 0.0873320
655.0, 0.0870740
656.0, 0.0868200
657.0, 0.0865730
658.0, 0.0863340
659.0, 0.0861010
660.0, 0.0858700
661.0, 0.0856380
662.0, 0.0854060
663.0, 0.0851770
664.0, 0.0849540
665.0, 0.0847360
666.0, 0.0845200
667.0, 0.0843050
668.0, 0.0840950
669.0, 0.0838920
670.0, 0.0837010
671.0, 0.0835180
672.0, 0.0833420
673.0, 0.0831700
674.0, 0.0830020
675.0, 0.0828360
676.0, 0.0826710
677.0, 0.0825100
678.0, 0.0823520
679.0, 0.0821980
680.0, 0.0820420
681.0, 0.0818800
682.0, 0.0817060
683.0, 0.0815240
684.0, 0.0813410
685.0, 0.0811600
686.0, 0.0809850
687.0, 0.0808140
688.0, 0.0806510
689.0, 0.0804960
690.0, 0.0803530
691.0, 0.0802230
692.0, 0.0800990
693.0, 0.0799730
694.0, 0.0798420
695.0, 0.0797090
696.0, 0.0795800
697.0, 0.0794630
698.0, 0.0793590
699.0, 0.0792690
700.0, 0.0791940
701.0, 0.0791310
702.0, 0.0790750
703.0, 0.0790230
704.0, 0.0789730
705.0, 0.0789210
706.0, 0.0788660
707.0, 0.0788040
708.0, 0.0787300
709.0, 0.0786440
710.0, 0.0785540
711.0, 0.0784710
712.0, 0.0784020
713.0, 0.0783450
714.0, 0.0782980
715.0, 0.0782560
716.0, 0.0782230
717.0, 0.0782010
718.0, 0.0781920
719.0, 0.0781930
720.0, 0.0781990
721.0, 0.0782070
722.0, 0.0782150
723.0, 0.0782260
724.0, 0.0782420
725.0, 0.0782670
726.0, 0.0783070
727.0, 0.0783650
728.0, 0.0784310
729.0, 0.0784940
730.0, 0.0785460
731.0, 0.0785940
732.0, 0.0786470
733.0, 0.0787130
734.0, 0.0787870
735.0, 0.0788600
736.0, 0.0789270
737.0, 0.0789910
738.0, 0.0790570
739.0, 0.0791310
740.0, 0.0792130
741.0, 0.0793020
742.0, 0.0793970
743.0, 0.0794940
744.0, 0.0795910
745.0, 0.0796830
746.0, 0.0797760
747.0, 0.0798720
748.0, 0.0799770
749.0, 0.0800860
750.0, 0.0801950
751.0, 0.0803000
752.0, 0.0804060
753.0, 0.0805180
754.0, 0.0806410
755.0, 0.0807700
756.0, 0.0809010
757.0, 0.0810290
758.0, 0.0811580
759.0, 0.0812900
760.0, 0.0814290
761.0, 0.0815710
762.0, 0.0817140
763.0, 0.0818550
764.0, 0.0819940
765.0, 0.0821280
766.0, 0.0822570
767.0, 0.0823920
768.0, 0.0825410
769.0, 0.0827120
770.0, 0.0828880
771.0, 0.0830480
772.0, 0.0831790
773.0, 0.0832940
774.0, 0.0834120
775.0, 0.0835490
776.0, 0.0836950
777.0, 0.0838340
778.0, 0.0839570
779.0, 0.0840700
780.0, 0.0841850
781.0, 0.0843120
782.0, 0.0844460
783.0, 0.0845780
784.0, 0.0847040
785.0, 0.0848270
786.0, 0.0849550
787.0, 0.0850920
788.0, 0.0852340
789.0, 0.0853740
790.0, 0.0855070
791.0, 0.0856330
792.0, 0.0857520
793.0, 0.0858690
794.0, 0.0859860
795.0, 0.0861120
796.0, 0.0862480
797.0, 0.0863850
798.0, 0.0865100
799.0, 0.0866140
800.0, 0.0866990
801.0, 0.0867700
802.0, 0.0868300
803.0, 0.0868810
804.0, 0.0869230
805.0, 0.0869560
806.0, 0.0869800
807.0, 0.0869960
808.0, 0.0870040
809.0, 0.0870060
810.0, 0.0870060
811.0, 0.0870060
812.0, 0.0870000
813.0, 0.0869820
814.0, 0.0869480
815.0, 0.0869060
816.0, 0.0868670
817.0, 0.0868370
818.0, 0.0868100
819.0, 0.0867790
820.0, 0.0867340
821.0, 0.0866780
822.0, 0.0866150
823.0, 0.0865470
824.0, 0.0864760
825.0, 0.0864020
826.0, 0.0863260
827.0, 0.0862500
828.0, 0.0861740
829.0, 0.0860990
830.0, 0.0860280
831.0, 0.0859620
832.0, 0.0859030
833.0, 0.0858490
834.0, 0.0858000
835.0, 0.0857540
836.0, 0.0857050
837.0, 0.0856480
838.0, 0.0855770
839.0, 0.0854940
840.0, 0.0854030
841.0, 0.0853080
842.0, 0.0852110
843.0, 0.0851160
844.0, 0.0850250
845.0, 0.0849360
846.0, 0.0848440
847.0, 0.0847490
848.0, 0.0846520
849.0, 0.0845580
850.0, 0.0844690
851.0, 0.0843870
852.0, 0.0843090
853.0, 0.0842360
854.0, 0.0841640
855.0, 0.0840860
856.0, 0.0840020
857.0, 0.0839170
858.0, 0.0838400
859.0, 0.0837770
860.0, 0.0837220
861.0, 0.0836650
862.0, 0.0836010
863.0, 0.0835300
864.0, 0.0834590
865.0, 0.0833900
866.0, 0.0833210
867.0, 0.0832510
868.0, 0.0831770
869.0, 0.0831020
870.0, 0.0830280
871.0, 0.0829570
872.0, 0.0828880
873.0, 0.0828160
874.0, 0.0827420
875.0, 0.0826680
876.0, 0.0826020
877.0, 0.0825470
878.0, 0.0825010
879.0, 0.0824580
880.0, 0.0824150
881.0, 0.0823730
882.0, 0.0823360
883.0, 0.0823070
884.0, 0.0822810
885.0, 0.0822560
886.0, 0.0822280
887.0, 0.0822020
888.0, 0.0821830
889.0, 0.0821750
890.0, 0.0821780
891.0, 0.0821890
892.0, 0.0822040
893.0, 0.0822200
894.0, 0.0822330
895.0, 0.0822380
896.0, 0.0822370
897.0, 0.0822350
898.0, 0.0822330
899.0, 0.0822310
900.0, 0.0822300
901.0, 0.0822280
902.0, 0.0822280
903.0, 0.0822350
904.0, 0.0822500
905.0, 0.0822770
906.0, 0.0823200
907.0, 0.0823790
908.0, 0.0824500
909.0, 0.0825270
910.0, 0.0826020
911.0, 0.0826740
912.0, 0.0827390
913.0, 0.0827950
914.0, 0.0828470
915.0, 0.0828970
916.0, 0.0829510
917.0, 0.0830090
918.0, 0.0830730
919.0, 0.0831410
920.0, 0.0832120
921.0, 0.0832820
922.0, 0.0833480
923.0, 0.0834150
924.0, 0.0834900
925.0, 0.0835770
926.0, 0.0836720
927.0, 0.0837680
928.0, 0.0838600
929.0, 0.0839520
930.0, 0.0840480
931.0, 0.0841540
932.0, 0.0842680
933.0, 0.0843910
934.0, 0.0845210
935.0, 0.0846520
936.0, 0.0847770
937.0, 0.0848940
938.0, 0.0850050
939.0, 0.0851190
940.0, 0.0852410
941.0, 0.0853670
942.0, 0.0854920
943.0, 0.0856140
944.0, 0.0857350
945.0, 0.0858600
946.0, 0.0859910
947.0, 0.0861300
948.0, 0.0862780
949.0, 0.0864360
950.0, 0.0865950
951.0, 0.0867510
952.0, 0.0868960
953.0, 0.0870370
954.0, 0.0871800
955.0, 0.0873320
956.0, 0.0874900
957.0, 0.0876500
958.0, 0.0878070
959.0, 0.0879610
960.0, 0.0881120
961.0, 0.0882610
962.0, 0.0884080
963.0, 0.0885560
964.0, 0.0887070
965.0, 0.0888580
966.0, 0.0890030
967.0, 0.0891400
968.0, 0.0892700
969.0, 0.0893980
970.0, 0.0895250
971.0, 0.0896600
972.0, 0.0898080
973.0, 0.0899730
974.0, 0.0901510
975.0, 0.0903340
976.0, 0.0905150
977.0, 0.0906930
978.0, 0.0908700
979.0, 0.0910450
980.0, 0.0912120
981.0, 0.0913630
982.0, 0.0914960
983.0, 0.0916180
984.0, 0.0917440
985.0, 0.0918820
986.0, 0.0920230
987.0, 0.0921540
988.0, 0.0922670
989.0, 0.0923700
990.0, 0.0924760
991.0, 0.0925960
992.0, 0.0927250
993.0, 0.0928550
994.0, 0.0929820
995.0, 0.0931070
996.0, 0.0932360
997.0, 0.0933720
998.0, 0.0935070
999.0, 0.0936320
1000.0, 0.0937430
1001.0, 0.0938480
1002.0, 0.0939640
1003.0, 0.0940930
1004.0, 0.0942050
1005.0, 0.0942590
1006.0, 0.0942470
1007.0, 0.0942920
1008.0, 0.0945490
1009.0, 0.0951140
1010.0, 0.0958430
1011.0, 0.0965310
1012.0, 0.0970180
1013.0, 0.0973170
1014.0, 0.0974860
1015.0, 0.0975820
1016.0, 0.0976490
1017.0, 0.0976980
1018.0, 0.0977400
1019.0, 0.0977780
1020.0, 0.0978130
1021.0, 0.0978420
1022.0, 0.0978640
1023.0, 0.0978840
1024.0, 0.0979060
1025.0, 0.0979310
1026.0, 0.0979560
1027.0, 0.0979790
1028.0, 0.0979970
1029.0, 0.0980140
1030.0, 0.0980320
1031.0, 0.0980540
1032.0, 0.0980780
1033.0, 0.0981050
1034.0, 0.0981330
1035.0, 0.0981620
1036.0, 0.0981910
1037.0, 0.0982210
1038.0, 0.0982500
1039.0, 0.0982780
1040.0, 0.0983050
1041.0, 0.0983300
1042.0, 0.0983550
1043.0, 0.0983800
1044.0, 0.0984040
1045.0, 0.0984270
1046.0, 0.0984490
1047.0, 0.0984730
1048.0, 0.0985010
1049.0, 0.0985350
1050.0, 0.0985720
1051.0, 0.0986110
1052.0, 0.0986500
1053.0, 0.0986880
1054.0, 0.0987250
1055.0, 0.0987620
1056.0, 0.0987960
1057.0, 0.0988290
1058.0, 0.0988600
1059.0, 0.0988890
1060.0, 0.0989140
1061.0, 0.0989360
1062.0, 0.0989560
1063.0, 0.0989770
1064.0, 0.0990010
1065.0, 0.0990270
1066.0, 0.0990540
1067.0, 0.0990830
1068.0, 0.0991140
1069.0, 0.0991450
1070.0, 0.0991780
1071.0, 0.0992120
1072.0, 0.0992480
1073.0, 0.0992870
1074.0, 0.0993270
1075.0, 0.0993670
1076.0, 0.0994070
1077.0, 0.0994430
1078.0, 0.0994760
1079.0, 0.0995030
1080.0, 0.0995290
1081.0, 0.0995570
1082.0, 0.0995900
1083.0, 0.0996260
1084.0, 0.0996600
1085.0, 0.0996910
1086.0, 0.0997190
1087.0, 0.0997420
1088.0, 0.0997610
1089.0, 0.0997800
1090.0, 0.0998020
1091.0, 0.0998290
1092.0, 0.0998590
1093.0, 0.0998900
1094.0, 0.0999220
1095.0, 0.0999540
1096.0, 0.0999870
1097.0, 0.100022
1098.0, 0.100060
1099.0, 0.100102
1100.0, 0.100148
1101.0, 0.100198
1102.0, 0.100253
1103.0, 0.100311
1104.0, 0.100372
1105.0, 0.100434
1106.0, 0.100498
1107.0, 0.100563
1108.0, 0.100630
1109.0, 0.100698
1110.0, 0.100768
1111.0, 0.100839
1112.0, 0.100913
1113.0, 0.100987
1114.0, 0.101063
1115.0, 0.101138
1116.0, 0.101214
1117.0, 0.101289
1118.0, 0.101363
1119.0, 0.101437
1120.0, 0.101512
1121.0, 0.101589
1122.0, 0.101667
1123.0, 0.101748
1124.0, 0.101831
1125.0, 0.101916
1126.0, 0.102002
1127.0, 0.102090
1128.0, 0.102180
1129.0, 0.102271
1130.0, 0.102366
1131.0, 0.102463
1132.0, 0.102561
1133.0, 0.102661
1134.0, 0.102761
1135.0, 0.102857
1136.0, 0.102950
1137.0, 0.103041
1138.0, 0.103132
1139.0, 0.103226
1140.0, 0.103324
1141.0, 0.103426
1142.0, 0.103532
1143.0, 0.103640
1144.0, 0.103746
1145.0, 0.103850
1146.0, 0.103951
1147.0, 0.104052
1148.0, 0.104152
1149.0, 0.104253
1150.0, 0.104354
1151.0, 0.104456
1152.0, 0.104557
1153.0, 0.104655
1154.0, 0.104751
1155.0, 0.104844
1156.0, 0.104937
1157.0, 0.105032
1158.0, 0.105129
1159.0, 0.105230
1160.0, 0.105336
1161.0, 0.105446
1162.0, 0.105558
1163.0, 0.105670
1164.0, 0.105785
1165.0, 0.105905
1166.0, 0.106030
1167.0, 0.106162
1168.0, 0.106300
1169.0, 0.106445
1170.0, 0.106593
1171.0, 0.106745
1172.0, 0.106897
1173.0, 0.107052
1174.0, 0.107210
1175.0, 0.107371
1176.0, 0.107535
1177.0, 0.107701
1178.0, 0.107870
1179.0, 0.108039
1180.0, 0.108209
1181.0, 0.108379
1182.0, 0.108552
1183.0, 0.108731
1184.0, 0.108916
1185.0, 0.109107
1186.0, 0.109299
1187.0, 0.109491
1188.0, 0.109682
1189.0, 0.109874
1190.0, 0.110066
1191.0, 0.110261
1192.0, 0.110460
1193.0, 0.110663
1194.0, 0.110865
1195.0, 0.111065
1196.0, 0.111259
1197.0, 0.111450
1198.0, 0.111641
1199.0, 0.111834
1200.0, 0.112030
1201.0, 0.112228
1202.0, 0.112428
1203.0, 0.112630
1204.0, 0.112832
1205.0, 0.113035
1206.0, 0.113239
1207.0, 0.113444
1208.0, 0.113652
1209.0, 0.113863
1210.0, 0.114077
1211.0, 0.114295
1212.0, 0.114516
1213.0, 0.114739
1214.0, 0.114963
1215.0, 0.115189
1216.0, 0.115419
1217.0, 0.115652
1218.0, 0.115886
1219.0, 0.116116
1220.0, 0.116341
1221.0, 0.116561
1222.0, 0.116778
1223.0, 0.116994
1224.0, 0.117210
1225.0, 0.117429
1226.0, 0.117653
1227.0, 0.117880
1228.0, 0.118108
1229.0, 0.118337
1230.0, 0.118567
1231.0, 0.118796
1232.0, 0.119026
1233.0, 0.119258
1234.0, 0.119491
1235.0, 0.119727
1236.0, 0.119966
1237.0, 0.120210
1238.0, 0.120457
1239.0, 0.120707
1240.0, 0.120954
1241.0, 0.121199
1242.0, 0.121443
1243.0, 0.121690
1244.0, 0.121943
1245.0, 0.122201
1246.0, 0.122464
1247.0, 0.122731
1248.0, 0.123001
1249.0, 0.123269
1250.0, 0.123536
1251.0, 0.123801
1252.0, 0.124065
1253.0, 0.124330
1254.0, 0.124598
1255.0, 0.124871
1256.0, 0.125149
1257.0, 0.125432
1258.0, 0.125718
1259.0, 0.126005
1260.0, 0.126291
1261.0, 0.126572
1262.0, 0.126848
1263.0, 0.127125
1264.0, 0.127406
1265.0, 0.127695
1266.0, 0.127989
1267.0, 0.128285
1268.0, 0.128581
1269.0, 0.128877
1270.0, 0.129173
1271.0, 0.129469
1272.0, 0.129768
1273.0, 0.130070
1274.0, 0.130377
1275.0, 0.130686
1276.0, 0.130995
1277.0, 0.131304
1278.0, 0.131612
1279.0, 0.131919
1280.0, 0.132228
1281.0, 0.132538
1282.0, 0.132852
1283.0, 0.133170
1284.0, 0.133491
1285.0, 0.133817
1286.0, 0.134145
1287.0, 0.134476
1288.0, 0.134807
1289.0, 0.135139
1290.0, 0.135470
1291.0, 0.135799
1292.0, 0.136126
1293.0, 0.136451
1294.0, 0.136773
1295.0, 0.137092
1296.0, 0.137409
1297.0, 0.137723
1298.0, 0.138035
1299.0, 0.138345
1300.0, 0.138655
1301.0, 0.138966
1302.0, 0.139280
1303.0, 0.139597
1304.0, 0.139917
1305.0, 0.140241
1306.0, 0.140569
1307.0, 0.140900
1308.0, 0.141234
1309.0, 0.141570
1310.0, 0.141908
1311.0, 0.142245
1312.0, 0.142579
1313.0, 0.142909
1314.0, 0.143237
1315.0, 0.143569
1316.0, 0.143906
1317.0, 0.144249
1318.0, 0.144597
1319.0, 0.144949
1320.0, 0.145301
1321.0, 0.145651
1322.0, 0.145994
1323.0, 0.146335
1324.0, 0.146674
1325.0, 0.147014
1326.0, 0.147355
1327.0, 0.147696
1328.0, 0.148036
1329.0, 0.148376
1330.0, 0.148716
1331.0, 0.149056
1332.0, 0.149396
1333.0, 0.149738
1334.0, 0.150081
1335.0, 0.150424
1336.0, 0.150764
1337.0, 0.151099
1338.0, 0.151431
1339.0, 0.151759
1340.0, 0.152084
1341.0, 0.152409
1342.0, 0.152735
1343.0, 0.153063
1344.0, 0.153391
1345.0, 0.153720
1346.0, 0.154049
1347.0, 0.154379
1348.0, 0.154710
1349.0, 0.155045
1350.0, 0.155382
1351.0, 0.155723
1352.0, 0.156065
1353.0, 0.156407
1354.0, 0.156743
1355.0, 0.157073
1356.0, 0.157400
1357.0, 0.157729
1358.0, 0.158064
1359.0, 0.158403
1360.0, 0.158746
1361.0, 0.159093
1362.0, 0.159442
1363.0, 0.159792
1364.0, 0.160142
1365.0, 0.160492
1366.0, 0.160841
1367.0, 0.161188
1368.0, 0.161534
1369.0, 0.161880
1370.0, 0.162227
1371.0, 0.162573
1372.0, 0.162918
1373.0, 0.163262
1374.0, 0.163605
1375.0, 0.163944
1376.0, 0.164279
1377.0, 0.164601
1378.0, 0.164906
1379.0, 0.165187
1380.0, 0.165438
1381.0, 0.165655
1382.0, 0.165831
1383.0, 0.165961
1384.0, 0.166037
1385.0, 0.166056
1386.0, 0.166015
1387.0, 0.165914
1388.0, 0.165756
1389.0, 0.165549
1390.0, 0.165303
1391.0, 0.165029
1392.0, 0.164735
1393.0, 0.164429
1394.0, 0.164122
1395.0, 0.163826
1396.0, 0.163553
1397.0, 0.163316
1398.0, 0.163125
1399.0, 0.162989
1400.0, 0.162918
1401.0, 0.162916
1402.0, 0.162989
1403.0, 0.163141
1404.0, 0.163373
1405.0, 0.163686
1406.0, 0.164081
1407.0, 0.164560
1408.0, 0.165124
1409.0, 0.165769
1410.0, 0.166484
1411.0, 0.167253
1412.0, 0.168064
1413.0, 0.168909
1414.0, 0.169780
1415.0, 0.170670
1416.0, 0.171568
1417.0, 0.172466
1418.0, 0.173353
1419.0, 0.174214
1420.0, 0.175038
1421.0, 0.175813
1422.0, 0.176537
1423.0, 0.177209
1424.0, 0.177828
1425.0, 0.178395
1426.0, 0.178910
1427.0, 0.179375
1428.0, 0.179794
1429.0, 0.180173
1430.0, 0.180518
1431.0, 0.180834
1432.0, 0.181125
1433.0, 0.181395
1434.0, 0.181651
1435.0, 0.181899
1436.0, 0.182142
1437.0, 0.182387
1438.0, 0.182635
1439.0, 0.182891
1440.0, 0.183154
1441.0, 0.183425
1442.0, 0.183705
1443.0, 0.183993
1444.0, 0.184291
1445.0, 0.184600
1446.0, 0.184918
1447.0, 0.185246
1448.0, 0.185583
1449.0, 0.185929
1450.0, 0.186285
1451.0, 0.186652
1452.0, 0.187030
1453.0, 0.187418
1454.0, 0.187816
1455.0, 0.188221
1456.0, 0.188627
1457.0, 0.189034
1458.0, 0.189441
1459.0, 0.189849
1460.0, 0.190258
1461.0, 0.190672
1462.0, 0.191094
1463.0, 0.191526
1464.0, 0.191966
1465.0, 0.192414
1466.0, 0.192867
1467.0, 0.193322
1468.0, 0.193778
1469.0, 0.194230
1470.0, 0.194676
1471.0, 0.195116
1472.0, 0.195547
1473.0, 0.195970
1474.0, 0.196387
1475.0, 0.196799
1476.0, 0.197205
1477.0, 0.197606
1478.0, 0.198002
1479.0, 0.198393
1480.0, 0.198781
1481.0, 0.199166
1482.0, 0.199551
1483.0, 0.199941
1484.0, 0.200335
1485.0, 0.200730
1486.0, 0.201121
1487.0, 0.201505
1488.0, 0.201882
1489.0, 0.202253
1490.0, 0.202617
1491.0, 0.202975
1492.0, 0.203328
1493.0, 0.203676
1494.0, 0.204022
1495.0, 0.204367
1496.0, 0.204713
1497.0, 0.205059
1498.0, 0.205406
1499.0, 0.205751
1500.0, 0.206095
1501.0, 0.206436
1502.0, 0.206774
1503.0, 0.207108
1504.0, 0.207437
1505.0, 0.207760
1506.0, 0.208080
1507.0, 0.208400
1508.0, 0.208721
1509.0, 0.209042
1510.0, 0.209364
1511.0, 0.209686
1512.0, 0.210006
1513.0, 0.210322
1514.0, 0.210636
1515.0, 0.210947
1516.0, 0.211256
1517.0, 0.211564
1518.0, 0.211871
1519.0, 0.212179
1520.0, 0.212488
1521.0, 0.212801
1522.0, 0.213122
1523.0, 0.213451
1524.0, 0.213783
1525.0, 0.214112
1526.0, 0.214435
1527.0, 0.214753
1528.0, 0.215071
1529.0, 0.215391
1530.0, 0.215716
1531.0, 0.216047
1532.0, 0.216385
1533.0, 0.216727
1534.0, 0.217071
1535.0, 0.217417
1536.0, 0.217767
1537.0, 0.218123
1538.0, 0.218486
1539.0, 0.218855
1540.0, 0.219226
1541.0, 0.219597
1542.0, 0.219969
1543.0, 0.220344
1544.0, 0.220722
1545.0, 0.221101
1546.0, 0.221480
1547.0, 0.221857
1548.0, 0.222231
1549.0, 0.222604
1550.0, 0.222974
1551.0, 0.223345
1552.0, 0.223718
1553.0, 0.224093
1554.0, 0.224469
1555.0, 0.224843
1556.0, 0.225214
1557.0, 0.225585
1558.0, 0.225962
1559.0, 0.226345
1560.0, 0.226732
1561.0, 0.227120
1562.0, 0.227506
1563.0, 0.227889
1564.0, 0.228269
1565.0, 0.228644
1566.0, 0.229018
1567.0, 0.229393
1568.0, 0.229770
1569.0, 0.230150
1570.0, 0.230532
1571.0, 0.230917
1572.0, 0.231303
1573.0, 0.231689
1574.0, 0.232074
1575.0, 0.232457
1576.0, 0.232838
1577.0, 0.233218
1578.0, 0.233600
1579.0, 0.233987
1580.0, 0.234382
1581.0, 0.234784
1582.0, 0.235194
1583.0, 0.235609
1584.0, 0.236027
1585.0, 0.236446
1586.0, 0.236862
1587.0, 0.237277
1588.0, 0.237691
1589.0, 0.238104
1590.0, 0.238512
1591.0, 0.238908
1592.0, 0.239291
1593.0, 0.239667
1594.0, 0.240041
1595.0, 0.240419
1596.0, 0.240805
1597.0, 0.241202
1598.0, 0.241614
1599.0, 0.242037
1600.0, 0.242471
1601.0, 0.242912
1602.0, 0.243359
1603.0, 0.243808
1604.0, 0.244259
1605.0, 0.244713
1606.0, 0.245169
1607.0, 0.245629
1608.0, 0.246088
1609.0, 0.246545
1610.0, 0.246997
1611.0, 0.247443
1612.0, 0.247885
1613.0, 0.248323
1614.0, 0.248760
1615.0, 0.249202
1616.0, 0.249649
1617.0, 0.250098
1618.0, 0.250546
1619.0, 0.250992
1620.0, 0.251437
1621.0, 0.251886
1622.0, 0.252340
1623.0, 0.252796
1624.0, 0.253254
1625.0, 0.253709
1626.0, 0.254162
1627.0, 0.254613
1628.0, 0.255061
1629.0, 0.255505
1630.0, 0.255944
1631.0, 0.256379
1632.0, 0.256810
1633.0, 0.257243
1634.0, 0.257677
1635.0, 0.258114
1636.0, 0.258553
1637.0, 0.258994
1638.0, 0.259437
1639.0, 0.259881
1640.0, 0.260326
1641.0, 0.260772
1642.0, 0.261219
1643.0, 0.261667
1644.0, 0.262113
1645.0, 0.262555
1646.0, 0.262992
1647.0, 0.263424
1648.0, 0.263850
1649.0, 0.264272
1650.0, 0.264692
1651.0, 0.265113
1652.0, 0.265535
1653.0, 0.265961
1654.0, 0.266391
1655.0, 0.266826
1656.0, 0.267265
1657.0, 0.267705
1658.0, 0.268145
1659.0, 0.268585
1660.0, 0.269027
1661.0, 0.269471
1662.0, 0.269914
1663.0, 0.270355
1664.0, 0.270793
1665.0, 0.271232
1666.0, 0.271673
1667.0, 0.272118
1668.0, 0.272564
1669.0, 0.273006
1670.0, 0.273443
1671.0, 0.273872
1672.0, 0.274294
1673.0, 0.274709
1674.0, 0.275118
1675.0, 0.275522
1676.0, 0.275921
1677.0, 0.276321
1678.0, 0.276724
1679.0, 0.277134
1680.0, 0.277547
1681.0, 0.277961
1682.0, 0.278374
1683.0, 0.278787
1684.0, 0.279201
1685.0, 0.279618
1686.0, 0.280041
1687.0, 0.280475
1688.0, 0.280919
1689.0, 0.281369
1690.0, 0.281818
1691.0, 0.282261
1692.0, 0.282701
1693.0, 0.283140
1694.0, 0.283579
1695.0, 0.284023
1696.0, 0.284471
1697.0, 0.284926
1698.0, 0.285386
1699.0, 0.285846
1700.0, 0.286307
1701.0, 0.286768
1702.0, 0.287228
1703.0, 0.287686
1704.0, 0.288141
1705.0, 0.288588
1706.0, 0.289025
1707.0, 0.289454
1708.0, 0.289876
1709.0, 0.290293
1710.0, 0.290708
1711.0, 0.291126
1712.0, 0.291548
1713.0, 0.291975
1714.0, 0.292403
1715.0, 0.292831
1716.0, 0.293256
1717.0, 0.293673
1718.0, 0.294080
1719.0, 0.294482
1720.0, 0.294879
1721.0, 0.295276
1722.0, 0.295670
1723.0, 0.296059
1724.0, 0.296444
1725.0, 0.296825
1726.0, 0.297206
1727.0, 0.297587
1728.0, 0.297971
1729.0, 0.298360
1730.0, 0.298754
1731.0, 0.299146
1732.0, 0.299531
1733.0, 0.299906
1734.0, 0.300276
1735.0, 0.300647
1736.0, 0.301023
1737.0, 0.301406
1738.0, 0.301799
1739.0, 0.302200
1740.0, 0.302606
1741.0, 0.303009
1742.0, 0.303406
1743.0, 0.303800
1744.0, 0.304191
1745.0, 0.304580
1746.0, 0.304967
1747.0, 0.305347
1748.0, 0.305721
1749.0, 0.306092
1750.0, 0.306466
1751.0, 0.306844
1752.0, 0.307225
1753.0, 0.307606
1754.0, 0.307985
1755.0, 0.308358
1756.0, 0.308720
1757.0, 0.309072
1758.0, 0.309420
1759.0, 0.309772
1760.0, 0.310132
1761.0, 0.310484
1762.0, 0.310816
1763.0, 0.311121
1764.0, 0.311413
1765.0, 0.311709
1766.0, 0.312048
1767.0, 0.312519
1768.0, 0.313215
1769.0, 0.314173
1770.0, 0.315297
1771.0, 0.316475
1772.0, 0.317606
1773.0, 0.318624
1774.0, 0.319465
1775.0, 0.320105
1776.0, 0.320597
1777.0, 0.321007
1778.0, 0.321388
1779.0, 0.321758
1780.0, 0.322135
1781.0, 0.322526
1782.0, 0.322925
1783.0, 0.323323
1784.0, 0.323710
1785.0, 0.324081
1786.0, 0.324429
1787.0, 0.324756
1788.0, 0.325086
1789.0, 0.325446
1790.0, 0.325847
1791.0, 0.326270
1792.0, 0.326690
1793.0, 0.327090
1794.0, 0.327470
1795.0, 0.327835
1796.0, 0.328186
1797.0, 0.328524
1798.0, 0.328848
1799.0, 0.329159
1800.0, 0.329457
1801.0, 0.329742
1802.0, 0.330016
1803.0, 0.330294
1804.0, 0.330591
1805.0, 0.330919
1806.0, 0.331275
1807.0, 0.331654
1808.0, 0.332053
1809.0, 0.332476
1810.0, 0.332930
1811.0, 0.333416
1812.0, 0.333918
1813.0, 0.334417
1814.0, 0.334894
1815.0, 0.335345
1816.0, 0.335770
1817.0, 0.336165
1818.0, 0.336532
1819.0, 0.336868
1820.0, 0.337174
1821.0, 0.337459
1822.0, 0.337735
1823.0, 0.338013
1824.0, 0.338297
1825.0, 0.338587
1826.0, 0.338884
1827.0, 0.339182
1828.0, 0.339470
1829.0, 0.339743
1830.0, 0.340008
1831.0, 0.340283
1832.0, 0.340582
1833.0, 0.340903
1834.0, 0.341238
1835.0, 0.341582
1836.0, 0.341927
1837.0, 0.342271
1838.0, 0.342608
1839.0, 0.342940
1840.0, 0.343267
1841.0, 0.343591
1842.0, 0.343910
1843.0, 0.344220
1844.0, 0.344519
1845.0, 0.344803
1846.0, 0.345070
1847.0, 0.345319
1848.0, 0.345551
1849.0, 0.345769
1850.0, 0.345975
1851.0, 0.346173
1852.0, 0.346366
1853.0, 0.346557
1854.0, 0.346752
1855.0, 0.346960
1856.0, 0.347188
1857.0, 0.347431
1858.0, 0.347677
1859.0, 0.347914
1860.0, 0.348139
1861.0, 0.348358
1862.0, 0.348579
1863.0, 0.348803
1864.0, 0.349032
1865.0, 0.349263
1866.0, 0.349494
1867.0, 0.349716
1868.0, 0.349922
1869.0, 0.350110
1870.0, 0.350285
1871.0, 0.350453
1872.0, 0.350617
1873.0, 0.350774
1874.0, 0.350925
1875.0, 0.351074
1876.0, 0.351229
1877.0, 0.351402
1878.0, 0.351596
1879.0, 0.351807
1880.0, 0.352029
1881.0, 0.352262
1882.0, 0.352511
1883.0, 0.352781
1884.0, 0.353076
1885.0, 0.353402
1886.0, 0.353762
1887.0, 0.354155
1888.0, 0.354565
1889.0, 0.354975
1890.0, 0.355378
1891.0, 0.355779
1892.0, 0.356189
1893.0, 0.356606
1894.0, 0.357018
1895.0, 0.357409
1896.0, 0.357774
1897.0, 0.358122
1898.0, 0.358467
1899.0, 0.358819
1900.0, 0.359180
1901.0, 0.359551
1902.0, 0.359934
1903.0, 0.360329
1904.0, 0.360737
1905.0, 0.361154
1906.0, 0.361575
1907.0, 0.361992
1908.0, 0.362398
1909.0, 0.362797
1910.0, 0.363192
1911.0, 0.363585
1912.0, 0.363976
1913.0, 0.364366
1914.0, 0.364756
1915.0, 0.365145
1916.0, 0.365535
1917.0, 0.365926
1918.0, 0.366316
1919.0, 0.366705
1920.0, 0.367088
1921.0, 0.367460
1922.0, 0.367812
1923.0, 0.368141
1924.0, 0.368451
1925.0, 0.368752
1926.0, 0.369051
1927.0, 0.369346
1928.0, 0.369637
1929.0, 0.369920
1930.0, 0.370192
1931.0, 0.370446
1932.0, 0.370678
1933.0, 0.370889
1934.0, 0.371081
1935.0, 0.371256
1936.0, 0.371411
1937.0, 0.371547
1938.0, 0.371660
1939.0, 0.371753
1940.0, 0.371825
1941.0, 0.371881
1942.0, 0.371925
1943.0, 0.371968
1944.0, 0.372015
1945.0, 0.372068
1946.0, 0.372125
1947.0, 0.372183
1948.0, 0.372237
1949.0, 0.372279
1950.0, 0.372306
1951.0, 0.372319
1952.0, 0.372325
1953.0, 0.372331
1954.0, 0.372345
1955.0, 0.372379
1956.0, 0.372442
1957.0, 0.372529
1958.0, 0.372626
1959.0, 0.372719
1960.0, 0.372803
1961.0, 0.372880
1962.0, 0.372950
1963.0, 0.373013
1964.0, 0.373072
1965.0, 0.373130
1966.0, 0.373185
1967.0, 0.373239
1968.0, 0.373290
1969.0, 0.373335
1970.0, 0.373368
1971.0, 0.373383
1972.0, 0.373378
1973.0, 0.373353
1974.0, 0.373309
1975.0, 0.373238
1976.0, 0.373132
1977.0, 0.372982
1978.0, 0.372804
1979.0, 0.372626
1980.0, 0.372476
1981.0, 0.372353
1982.0, 0.372241
1983.0, 0.372125
1984.0, 0.372008
1985.0, 0.371905
1986.0, 0.371827
1987.0, 0.371774
1988.0, 0.371737
1989.0, 0.371708
1990.0, 0.371685
1991.0, 0.371674
1992.0, 0.371676
1993.0, 0.371699
1994.0, 0.371749
1995.0, 0.371833
1996.0, 0.371950
1997.0, 0.372091
1998.0, 0.372250
1999.0, 0.372426
2000.0, 0.372621
2001.0, 0.372837
2002.0, 0.373078
2003.0, 0.373345
2004.0, 0.373642
2005.0, 0.373979
2006.0, 0.374367
2007.0, 0.374820
2008.0, 0.375332
2009.0, 0.375889
2010.0, 0.376475
2011.0, 0.377082
2012.0, 0.377703
2013.0, 0.378330
2014.0, 0.378967
2015.0, 0.379619
2016.0, 0.380291
2017.0, 0.380990
2018.0, 0.381723
2019.0, 0.382498
2020.0, 0.383313
2021.0, 0.384168
2022.0, 0.385059
2023.0, 0.385974
2024.0, 0.386901
2025.0, 0.387824
2026.0, 0.388738
2027.0, 0.389641
2028.0, 0.390532
2029.0, 0.391409
2030.0, 0.392270
2031.0, 0.393114
2032.0, 0.393950
2033.0, 0.394793
2034.0, 0.395657
2035.0, 0.396543
2036.0, 0.397443
2037.0, 0.398349
2038.0, 0.399248
2039.0, 0.400122
2040.0, 0.400956
2041.0, 0.401761
2042.0, 0.402561
2043.0, 0.403378
2044.0, 0.404212
2045.0, 0.405050
2046.0, 0.405878
2047.0, 0.406687
2048.0, 0.407466
2049.0, 0.408208
2050.0, 0.408911
2051.0, 0.409578
2052.0, 0.410210
2053.0, 0.410809
2054.0, 0.411379
2055.0, 0.411923
2056.0, 0.412451
2057.0, 0.412982
2058.0, 0.413530
2059.0, 0.414100
2060.0, 0.414691
2061.0, 0.415300
2062.0, 0.415912
2063.0, 0.416507
2064.0, 0.417066
2065.0, 0.417584
2066.0, 0.418065
2067.0, 0.418512
2068.0, 0.418934
2069.0, 0.419339
2070.0, 0.419736
2071.0, 0.420133
2072.0, 0.420537
2073.0, 0.420956
2074.0, 0.421389
2075.0, 0.421831
2076.0, 0.422280
2077.0, 0.422743
2078.0, 0.423232
2079.0, 0.423759
2080.0, 0.424310
2081.0, 0.424853
2082.0, 0.425360
2083.0, 0.425822
2084.0, 0.426244
2085.0, 0.426629
2086.0, 0.426981
2087.0, 0.427304
2088.0, 0.427604
2089.0, 0.427884
2090.0, 0.428151
2091.0, 0.428410
2092.0, 0.428664
2093.0, 0.428916
2094.0, 0.429168
2095.0, 0.429422
2096.0, 0.429676
2097.0, 0.429931
2098.0, 0.430187
2099.0, 0.430448
2100.0, 0.430717
2101.0, 0.430980
2102.0, 0.431220
2103.0, 0.431417
2104.0, 0.431571
2105.0, 0.431691
2106.0, 0.431787
2107.0, 0.431862
2108.0, 0.431918
2109.0, 0.431959
2110.0, 0.431990
2111.0, 0.432020
2112.0, 0.432054
2113.0, 0.432094
2114.0, 0.432133
2115.0, 0.432166
2116.0, 0.432198
2117.0, 0.432235
2118.0, 0.432284
2119.0, 0.432347
2120.0, 0.432421
2121.0, 0.432504
2122.0, 0.432597
2123.0, 0.432707
2124.0, 0.432837
2125.0, 0.432981
2126.0, 0.433126
2127.0, 0.433261
2128.0, 0.433392
2129.0, 0.433531
2130.0, 0.433691
2131.0, 0.433874
2132.0, 0.434079
2133.0, 0.434301
2134.0, 0.434539
2135.0, 0.434790
2136.0, 0.435051
2137.0, 0.435314
2138.0, 0.435568
2139.0, 0.435802
2140.0, 0.436019
2141.0, 0.436226
2142.0, 0.436431
2143.0, 0.436641
2144.0, 0.436859
2145.0, 0.437089
2146.0, 0.437322
2147.0, 0.437539
2148.0, 0.437726
2149.0, 0.437885
2150.0, 0.438034
2151.0, 0.438185
2152.0, 0.438338
2153.0, 0.438485
2154.0, 0.438617
2155.0, 0.438733
2156.0, 0.438839
2157.0, 0.438937
2158.0, 0.439029
2159.0, 0.439110
2160.0, 0.439176
2161.0, 0.439232
2162.0, 0.439286
2163.0, 0.439344
2164.0, 0.439400
2165.0, 0.439440
2166.0, 0.439449
2167.0, 0.439439
2168.0, 0.439433
2169.0, 0.439450
2170.0, 0.439477
2171.0, 0.439481
2172.0, 0.439432
2173.0, 0.439334
2174.0, 0.439207
2175.0, 0.439076
2176.0, 0.438949
2177.0, 0.438832
2178.0, 0.438726
2179.0, 0.438618
2180.0, 0.438486
2181.0, 0.438312
2182.0, 0.438102
2183.0, 0.437881
2184.0, 0.437669
2185.0, 0.437467
2186.0, 0.437264
2187.0, 0.437048
2188.0, 0.436810
2189.0, 0.436541
2190.0, 0.436234
2191.0, 0.435907
2192.0, 0.435585
2193.0, 0.435295
2194.0, 0.435022
2195.0, 0.434739
2196.0, 0.434417
2197.0, 0.434059
2198.0, 0.433678
2199.0, 0.433287
2200.0, 0.432891
2201.0, 0.432494
2202.0, 0.432094
2203.0, 0.431684
2204.0, 0.431248
2205.0, 0.430776
2206.0, 0.430264
2207.0, 0.429716
2208.0, 0.429136
2209.0, 0.428533
2210.0, 0.427924
2211.0, 0.427313
2212.0, 0.426675
2213.0, 0.425973
2214.0, 0.425177
2215.0, 0.424294
2216.0, 0.423343
2217.0, 0.422342
2218.0, 0.421298
2219.0, 0.420216
2220.0, 0.419099
2221.0, 0.417923
2222.0, 0.416661
2223.0, 0.415292
2224.0, 0.413807
2225.0, 0.412199
2226.0, 0.410463
2227.0, 0.408586
2228.0, 0.406554
2229.0, 0.404353
2230.0, 0.401975
2231.0, 0.399412
2232.0, 0.396653
2233.0, 0.393680
2234.0, 0.390472
2235.0, 0.387019
2236.0, 0.383330
2237.0, 0.379421
2238.0, 0.375311
2239.0, 0.371038
2240.0, 0.366648
2241.0, 0.362185
2242.0, 0.357707
2243.0, 0.353274
2244.0, 0.348944
2245.0, 0.344767
2246.0, 0.340797
2247.0, 0.337081
2248.0, 0.333666
2249.0, 0.330592
2250.0, 0.327903
2251.0, 0.325631
2252.0, 0.323809
2253.0, 0.322447
2254.0, 0.321515
2255.0, 0.320978
2256.0, 0.320804
2257.0, 0.320966
2258.0, 0.321437
2259.0, 0.322185
2260.0, 0.323175
2261.0, 0.324367
2262.0, 0.325715
2263.0, 0.327154
2264.0, 0.328621
2265.0, 0.330089
2266.0, 0.331576
2267.0, 0.333106
2268.0, 0.334672
2269.0, 0.336234
2270.0, 0.337747
2271.0, 0.339179
2272.0, 0.340513
2273.0, 0.341728
2274.0, 0.342816
2275.0, 0.343777
2276.0, 0.344613
2277.0, 0.345316
2278.0, 0.345869
2279.0, 0.346258
2280.0, 0.346483
2281.0, 0.346559
2282.0, 0.346504
2283.0, 0.346318
2284.0, 0.345987
2285.0, 0.345499
2286.0, 0.344860
2287.0, 0.344090
2288.0, 0.343210
2289.0, 0.342236
2290.0, 0.341185
2291.0, 0.340070
2292.0, 0.338906
2293.0, 0.337706
2294.0, 0.336482
2295.0, 0.335251
2296.0, 0.334033
2297.0, 0.332847
2298.0, 0.331690
2299.0, 0.330551
2300.0, 0.329417
2301.0, 0.328293
2302.0, 0.327192
2303.0, 0.326129
2304.0, 0.325109
2305.0, 0.324132
2306.0, 0.323200
2307.0, 0.322313
2308.0, 0.321467
2309.0, 0.320662
2310.0, 0.319889
2311.0, 0.319139
2312.0, 0.318405
2313.0, 0.317685
2314.0, 0.316981
2315.0, 0.316293
2316.0, 0.315607
2317.0, 0.314904
2318.0, 0.314168
2319.0, 0.313396
2320.0, 0.312591
2321.0, 0.311755
2322.0, 0.310884
2323.0, 0.309972
2324.0, 0.309016
2325.0, 0.308016
2326.0, 0.306978
2327.0, 0.305905
2328.0, 0.304808
2329.0, 0.303699
2330.0, 0.302583
2331.0, 0.301456
2332.0, 0.300305
2333.0, 0.299126
2334.0, 0.297933
2335.0, 0.296747
2336.0, 0.295585
2337.0, 0.294448
2338.0, 0.293331
2339.0, 0.292239
2340.0, 0.291212
2341.0, 0.290298
2342.0, 0.289534
2343.0, 0.288918
2344.0, 0.288436
2345.0, 0.288078
2346.0, 0.287851
2347.0, 0.287765
2348.0, 0.287827
2349.0, 0.288036
2350.0, 0.288388
2351.0, 0.288879
2352.0, 0.289512
2353.0, 0.290291
2354.0, 0.291215
2355.0, 0.292274
2356.0, 0.293453
2357.0, 0.294745
2358.0, 0.296161
2359.0, 0.297719
2360.0, 0.299427
2361.0, 0.301258
2362.0, 0.303179
2363.0, 0.305155
2364.0, 0.307173
2365.0, 0.309219
2366.0, 0.311286
2367.0, 0.313384
2368.0, 0.315527
2369.0, 0.317726
2370.0, 0.319966
2371.0, 0.322231
2372.0, 0.324505
2373.0, 0.326776
2374.0, 0.329039
2375.0, 0.331282
2376.0, 0.333486
2377.0, 0.335630
2378.0, 0.337697
2379.0, 0.339687
2380.0, 0.341603
2381.0, 0.343446
2382.0, 0.345206
2383.0, 0.346872
2384.0, 0.348431
2385.0, 0.349877
2386.0, 0.351201
2387.0, 0.352403
2388.0, 0.353491
2389.0, 0.354480
2390.0, 0.355384
2391.0, 0.356221
2392.0, 0.357013
2393.0, 0.357772
2394.0, 0.358500
2395.0, 0.359192
2396.0, 0.359843
2397.0, 0.360440
2398.0, 0.360971
2399.0, 0.361429
2400.0, 0.361835
2401.0, 0.362214
2402.0, 0.362586
2403.0, 0.362954
2404.0, 0.363312
2405.0, 0.363660
2406.0, 0.364005
2407.0, 0.364357
2408.0, 0.364723
2409.0, 0.365098
2410.0, 0.365476
2411.0, 0.365852
2412.0, 0.366241
2413.0, 0.366657
2414.0, 0.367109
2415.0, 0.367566
2416.0, 0.367987
2417.0, 0.368347
2418.0, 0.368670
2419.0, 0.368995
2420.0, 0.369351
2421.0, 0.369732
2422.0, 0.370121
2423.0, 0.370498
2424.0, 0.370826
2425.0, 0.371061
2426.0, 0.371175
2427.0, 0.371193
2428.0, 0.371152
2429.0, 0.371085
2430.0, 0.371003
2431.0, 0.370913
2432.0, 0.370818
2433.0, 0.370711
2434.0, 0.370585
2435.0, 0.370429
2436.0, 0.370234
2437.0, 0.369992
2438.0, 0.369697
2439.0, 0.369354
2440.0, 0.368974
2441.0, 0.368569
2442.0, 0.368154
2443.0, 0.367746
2444.0, 0.367358
2445.0, 0.366974
2446.0, 0.366572
2447.0, 0.366136
2448.0, 0.365660
2449.0, 0.365144
2450.0, 0.364590
2451.0, 0.364010
2452.0, 0.363419
2453.0, 0.362826
2454.0, 0.362208
2455.0, 0.361537
2456.0, 0.360797
2457.0, 0.360013
2458.0, 0.359225
2459.0, 0.358460
2460.0, 0.357699
2461.0, 0.356912
2462.0, 0.356070
2463.0, 0.355150
2464.0, 0.354128
2465.0, 0.353000
2466.0, 0.351833
2467.0, 0.350715
2468.0, 0.349707
2469.0, 0.348770
2470.0, 0.347843
2471.0, 0.346883
2472.0, 0.345927
2473.0, 0.345034
2474.0, 0.344245
2475.0, 0.343548
2476.0, 0.342915
2477.0, 0.342318
2478.0, 0.341723
2479.0, 0.341097
2480.0, 0.340413
2481.0, 0.339679
2482.0, 0.338908
2483.0, 0.338124
2484.0, 0.337369
2485.0, 0.336694
2486.0, 0.336140
2487.0, 0.335704
2488.0, 0.335373
2489.0, 0.335133
2490.0, 0.334956
2491.0, 0.334813
2492.0, 0.334676
2493.0, 0.334526
2494.0, 0.334346
2495.0, 0.334113
2496.0, 0.333780
2497.0, 0.333297
2498.0, 0.332630
2499.0, 0.331828
2500.0, 0.330959
