Database of Origin, USGS Spectral Database
Sample Description, See USGS database for additional info
Date Added,2016-08-10 05:38:29.847008

Data ID,USGS_sma02          
Sample ID, smaragdite_hs290.20641
Mineral Name, smaragdite
Material Class,Inosilicate

Wavelength
1582.95, 0.464872
1583.43, 0.465005
1583.92, 0.464604
1584.4, 0.464604
1584.88, 0.464604
1585.37, 0.465206
1585.85, 0.465072
1586.34, 0.465742
1586.82, 0.465407
1587.31, 0.465474
1587.8, 0.465407
1588.28, 0.465809
1588.77, 0.465206
1589.26, 0.465206
1589.74, 0.464805
1590.23, 0.465541
1590.72, 0.465675
1591.21, 0.466077
1591.7, 0.466144
1592.19, 0.466881
1592.67, 0.466814
1593.16, 0.466546
1593.65, 0.466010
1594.14, 0.466479
1594.63, 0.466278
1595.12, 0.467015
1595.61, 0.467350
1596.11, 0.467618
1596.6, 0.467551
1597.09, 0.468288
1597.58, 0.468020
1598.08, 0.468221
1598.57, 0.467953
1599.06, 0.467886
1599.55, 0.468020
1600.05, 0.468489
1600.54, 0.468556
1601.04, 0.469092
1601.53, 0.468556
1602.03, 0.468958
1602.52, 0.468623
1603.02, 0.469494
1603.51, 0.469963
1604.01, 0.470097
1604.5, 0.469494
1605.0, 0.470365
1605.5, 0.470499
1606.0, 0.470767
1606.49, 0.470298
1606.99, 0.470231
1607.49, 0.470164
1607.99, 0.470901
1608.49, 0.471169
1608.99, 0.471772
1609.49, 0.471504
1609.99, 0.472442
1610.49, 0.471839
1610.99, 0.471169
1611.49, 0.470834
1611.99, 0.471638
1612.49, 0.471705
1612.99, 0.472643
1613.49, 0.472710
1614.0, 0.473179
1614.5, 0.472710
1615.0, 0.472844
1615.51, 0.472911
1616.01, 0.473380
1616.51, 0.473045
1617.02, 0.472777
1617.52, 0.473112
1618.03, 0.473916
1618.53, 0.473648
1619.04, 0.474050
1619.54, 0.473849
1620.05, 0.474318
1620.55, 0.474385
1621.06, 0.474452
1621.57, 0.474318
1622.08, 0.474988
1622.58, 0.474921
1623.09, 0.474787
1623.6, 0.474318
1624.11, 0.474854
1624.62, 0.474385
1625.13, 0.474586
1625.64, 0.474519
1626.15, 0.475122
1626.66, 0.475256
1627.17, 0.476193
1627.68, 0.476261
1628.19, 0.475859
1628.7, 0.475658
1629.21, 0.476327
1629.72, 0.476193
1630.24, 0.475725
1630.75, 0.475524
1631.26, 0.476327
1631.78, 0.476060
1632.29, 0.476528
1632.8, 0.476662
1633.32, 0.476394
1633.83, 0.475658
1634.35, 0.476662
1634.86, 0.477198
1635.38, 0.477198
1635.9, 0.476930
1636.41, 0.476930
1636.93, 0.476662
1637.45, 0.476863
1637.96, 0.476729
1638.48, 0.477533
1639.0, 0.477801
1639.52, 0.478002
1640.04, 0.477332
1640.56, 0.477600
1641.08, 0.478136
1641.59, 0.478538
1642.11, 0.478069
1642.63, 0.477868
1643.16, 0.477801
1643.68, 0.478069
1644.2, 0.477801
1644.72, 0.477935
1645.24, 0.478002
1645.76, 0.478270
1646.29, 0.478203
1646.81, 0.478471
1647.33, 0.478069
1647.86, 0.478471
1648.38, 0.478605
1648.9, 0.479275
1649.43, 0.479476
1649.95, 0.479409
1650.48, 0.478471
1651.0, 0.478605
1651.53, 0.478940
1652.06, 0.479476
1652.58, 0.479074
1653.11, 0.479141
1653.64, 0.479342
1654.17, 0.479945
1654.69, 0.479878
1655.22, 0.479878
1655.75, 0.479543
1656.28, 0.479744
1656.81, 0.479744
1657.34, 0.479945
1657.87, 0.479677
1658.4, 0.480213
1658.93, 0.480481
1659.46, 0.480548
1659.99, 0.480347
1660.52, 0.480816
1661.05, 0.480548
1661.59, 0.480950
1662.12, 0.480883
1662.65, 0.481084
1663.19, 0.480950
1663.72, 0.481486
1664.26, 0.481687
1664.79, 0.482223
1665.32, 0.482022
1665.86, 0.481754
1666.39, 0.481419
1666.93, 0.482156
1667.47, 0.481888
1668.0, 0.481754
1668.54, 0.482022
1669.08, 0.482558
1669.61, 0.482692
1670.15, 0.482826
1670.69, 0.482290
1671.23, 0.482893
1671.77, 0.482893
1672.31, 0.483094
1672.85, 0.482893
1673.39, 0.483295
1673.93, 0.483027
1674.47, 0.483295
1675.01, 0.483228
1675.55, 0.483295
1676.09, 0.482826
1676.64, 0.483697
1677.18, 0.484032
1677.72, 0.484367
1678.26, 0.484099
1678.81, 0.484501
1679.35, 0.484300
1679.89, 0.484568
1680.44, 0.484836
1680.98, 0.484970
1681.53, 0.484702
1682.07, 0.485305
1682.62, 0.485037
1683.17, 0.484769
1683.71, 0.484702
1684.26, 0.485037
1684.81, 0.484568
1685.36, 0.484635
1685.9, 0.485171
1686.45, 0.485573
1687.0, 0.485238
1687.55, 0.485372
1688.1, 0.485640
1688.65, 0.485841
1689.2, 0.485037
1689.75, 0.485439
1690.3, 0.485841
1690.85, 0.485975
1691.41, 0.485975
1691.96, 0.486176
1692.51, 0.485841
1693.06, 0.485975
1693.61, 0.486109
1694.17, 0.486310
1694.72, 0.486109
1695.28, 0.486377
1695.83, 0.486377
1696.39, 0.486712
1696.94, 0.486578
1697.5, 0.486511
1698.05, 0.486176
1698.61, 0.486176
1699.17, 0.486109
1699.72, 0.486109
1700.28, 0.485908
1700.84, 0.486444
1701.4, 0.486377
1701.95, 0.486578
1702.51, 0.486511
1703.07, 0.486511
1703.63, 0.486377
1704.19, 0.486846
1704.75, 0.486846
1705.31, 0.486913
1705.88, 0.486712
1706.44, 0.486913
1707.0, 0.486779
1707.56, 0.487181
1708.12, 0.487047
1708.69, 0.487114
1709.25, 0.486645
1709.81, 0.486913
1710.38, 0.486913
1710.94, 0.487449
1711.51, 0.487314
1712.07, 0.487114
1712.64, 0.486846
1713.2, 0.487247
1713.77, 0.487114
1714.34, 0.486846
1714.9, 0.486511
1715.47, 0.487114
1716.04, 0.486980
1716.61, 0.487181
1717.18, 0.487181
1717.74, 0.487515
1718.31, 0.487181
1718.88, 0.487582
1719.45, 0.487449
1720.02, 0.487314
1720.59, 0.486980
1721.17, 0.487314
1721.74, 0.487114
1722.31, 0.486980
1722.88, 0.487047
1723.45, 0.487314
1724.03, 0.486779
1724.6, 0.487181
1725.18, 0.487247
1725.75, 0.487515
1726.33, 0.487381
1726.9, 0.487314
1727.48, 0.486980
1728.05, 0.487314
1728.63, 0.487247
1729.2, 0.487381
1729.78, 0.487449
1730.36, 0.487582
1730.94, 0.487114
1731.51, 0.487314
1732.09, 0.487783
1732.67, 0.487917
1733.25, 0.487515
1733.83, 0.487783
1734.41, 0.487582
1734.99, 0.487984
1735.57, 0.487984
1736.15, 0.487917
1736.73, 0.487716
1737.32, 0.488319
1737.9, 0.488453
1738.48, 0.488386
1739.07, 0.488319
1739.65, 0.488520
1740.23, 0.488118
1740.82, 0.488386
1741.4, 0.488252
1741.99, 0.488520
1742.57, 0.488319
1743.16, 0.488520
1743.74, 0.488386
1744.33, 0.488654
1744.92, 0.488453
1745.51, 0.488654
1746.09, 0.488319
1746.68, 0.488453
1747.27, 0.488319
1747.86, 0.488922
1748.45, 0.489190
1749.04, 0.489190
1749.63, 0.488721
1750.22, 0.488922
1750.81, 0.488788
1751.4, 0.489056
1751.99, 0.489458
1752.59, 0.489592
1753.18, 0.489123
1753.77, 0.489257
1754.37, 0.489391
1754.96, 0.489726
1755.56, 0.489793
1756.15, 0.490061
1756.74, 0.489659
1757.34, 0.489525
1757.94, 0.489257
1758.53, 0.489592
1759.13, 0.489659
1759.73, 0.489860
1760.32, 0.489927
1760.92, 0.490195
1761.52, 0.489927
1762.12, 0.489994
1762.72, 0.489793
1763.32, 0.489726
1763.92, 0.489793
1764.52, 0.490195
1765.12, 0.489994
1765.72, 0.490128
1766.32, 0.489860
1766.92, 0.489994
1767.53, 0.490195
1768.13, 0.490530
1768.73, 0.490396
1769.34, 0.490329
1769.94, 0.490195
1770.55, 0.490396
1771.15, 0.490262
1771.76, 0.490530
1772.36, 0.490329
1772.97, 0.490329
1773.57, 0.490195
1774.18, 0.490396
1774.79, 0.490262
1775.4, 0.490463
1776.0, 0.490128
1776.61, 0.490329
1777.22, 0.490061
1777.83, 0.490128
1778.44, 0.489860
1779.05, 0.490195
1779.66, 0.490262
1780.27, 0.490262
1780.88, 0.490061
1781.5, 0.490262
1782.11, 0.490128
1782.72, 0.490396
1783.33, 0.490329
1783.95, 0.490061
1784.56, 0.489592
1785.18, 0.489726
1785.79, 0.489659
1786.41, 0.490061
1787.02, 0.489927
1787.64, 0.489860
1788.26, 0.489726
1788.87, 0.490061
1789.49, 0.490262
1790.11, 0.490329
1790.73, 0.489525
1791.35, 0.489324
1791.96, 0.489391
1792.58, 0.489592
1793.21, 0.489190
1793.83, 0.489458
1794.45, 0.489391
1795.07, 0.489257
1795.69, 0.489123
1796.31, 0.489592
1796.93, 0.489458
1797.56, 0.489525
1798.18, 0.489391
1798.8, 0.489324
1799.43, 0.488989
1800.05, 0.488855
1800.68, 0.488989
1801.3, 0.489324
1801.93, 0.489123
1802.56, 0.489257
1803.18, 0.488721
1803.81, 0.488788
1804.44, 0.488989
1805.07, 0.489391
1805.7, 0.488855
1806.33, 0.488721
1806.95, 0.488721
1807.58, 0.488587
1808.22, 0.488453
1808.85, 0.488922
1809.48, 0.488587
1810.11, 0.488654
1810.74, 0.488520
1811.38, 0.488654
1812.01, 0.488319
1812.64, 0.488118
1813.28, 0.487850
1813.91, 0.488118
1814.55, 0.488051
1815.18, 0.488185
1815.82, 0.488118
1816.45, 0.488520
1817.09, 0.488587
1817.73, 0.488721
1818.36, 0.488386
1819.0, 0.488386
1819.64, 0.488051
1820.28, 0.488252
1820.92, 0.487917
1821.56, 0.487984
1822.2, 0.488118
1822.84, 0.488721
1823.48, 0.488520
1824.12, 0.488453
1824.76, 0.488185
1825.41, 0.488453
1826.05, 0.487917
1826.69, 0.487582
1827.34, 0.487716
1827.98, 0.488319
1828.63, 0.488319
1829.27, 0.488185
1829.92, 0.487917
1830.56, 0.487850
1831.21, 0.487515
1831.86, 0.487917
1832.5, 0.487917
1833.15, 0.487984
1833.8, 0.488051
1834.45, 0.488319
1835.1, 0.488051
1835.75, 0.487917
1836.4, 0.487515
1837.05, 0.487783
1837.7, 0.487783
1838.35, 0.487917
1839.01, 0.488051
1839.66, 0.488118
1840.31, 0.487984
1840.96, 0.488051
1841.62, 0.487515
1842.27, 0.487515
1842.93, 0.487716
1843.58, 0.487850
1844.24, 0.487917
1844.9, 0.488252
1845.55, 0.487917
1846.21, 0.488051
1846.87, 0.487649
1847.53, 0.487582
1848.18, 0.487449
1848.84, 0.487381
1849.5, 0.487247
1850.16, 0.487381
1850.82, 0.487247
1851.48, 0.487181
1852.14, 0.487515
1852.81, 0.487649
1853.47, 0.487114
1854.13, 0.486779
1854.8, 0.486712
1855.46, 0.487047
1856.12, 0.486913
1856.79, 0.486712
1857.45, 0.486578
1858.12, 0.486779
1858.79, 0.486645
1859.45, 0.486779
1860.12, 0.486444
1860.79, 0.486377
1861.46, 0.486243
1862.12, 0.486578
1862.79, 0.486444
1863.46, 0.486444
1864.13, 0.486042
1864.8, 0.486243
1865.48, 0.486377
1866.15, 0.486310
1866.82, 0.485841
1867.49, 0.485640
1868.16, 0.485372
1868.84, 0.485439
1869.51, 0.485372
1870.19, 0.485439
1870.86, 0.484903
1871.54, 0.484836
1872.21, 0.484903
1872.89, 0.484702
1873.56, 0.484300
1874.24, 0.484836
1874.92, 0.484635
1875.6, 0.484300
1876.28, 0.484233
1876.96, 0.484166
1877.64, 0.483965
1878.32, 0.484099
1879.0, 0.483563
1879.68, 0.483764
1880.36, 0.483697
1881.04, 0.483496
1881.73, 0.483161
1882.41, 0.482960
1883.09, 0.482625
1883.78, 0.482357
1884.46, 0.482022
1885.15, 0.481955
1885.83, 0.481888
1886.52, 0.482089
1887.21, 0.481888
1887.89, 0.481486
1888.58, 0.480950
1889.27, 0.481084
1889.96, 0.480481
1890.65, 0.480079
1891.34, 0.479744
1892.03, 0.479543
1892.72, 0.479007
1893.41, 0.478739
1894.1, 0.478404
1894.79, 0.478203
1895.49, 0.477667
1896.18, 0.477667
1896.87, 0.477332
1897.57, 0.477064
1898.26, 0.476193
1898.96, 0.475658
1899.65, 0.475055
1900.35, 0.474854
1901.05, 0.474586
1901.74, 0.474519
1902.44, 0.474117
1903.14, 0.473648
1903.84, 0.473246
1904.54, 0.472911
1905.24, 0.472241
1905.94, 0.471973
1906.64, 0.471571
1907.34, 0.471504
1908.04, 0.471102
1908.75, 0.471169
1909.45, 0.471035
1910.15, 0.470834
1910.86, 0.470499
1911.56, 0.470633
1912.27, 0.470566
1912.97, 0.470298
1913.68, 0.469762
1914.39, 0.469829
1915.09, 0.469829
1915.8, 0.469695
1916.51, 0.469561
1917.22, 0.469695
1917.93, 0.469494
1918.64, 0.469561
1919.35, 0.469360
1920.06, 0.469293
1920.77, 0.469092
1921.48, 0.469427
1922.19, 0.469628
1922.91, 0.469896
1923.62, 0.469762
1924.33, 0.469762
1925.05, 0.469829
1925.76, 0.470231
1926.48, 0.470097
1927.19, 0.470030
1927.91, 0.469963
1928.63, 0.470097
1929.35, 0.470097
1930.07, 0.470365
1930.78, 0.470365
1931.5, 0.470432
1932.22, 0.470499
1932.94, 0.470834
1933.66, 0.470767
1934.39, 0.470700
1935.11, 0.470633
1935.83, 0.471035
1936.55, 0.470901
1937.28, 0.470968
1938.0, 0.471102
1938.73, 0.471504
1939.45, 0.471169
1940.18, 0.471035
1940.9, 0.471102
1941.63, 0.471303
1942.36, 0.471437
1943.09, 0.471705
1943.81, 0.471638
1944.54, 0.471705
1945.27, 0.471437
1946.0, 0.471370
1946.73, 0.471437
1947.47, 0.471772
1948.2, 0.471437
1948.93, 0.471437
1949.66, 0.471504
1950.4, 0.471705
1951.13, 0.471504
1951.86, 0.471504
1952.6, 0.471236
1953.34, 0.471169
1954.07, 0.471169
1954.81, 0.471303
1955.55, 0.471169
1956.29, 0.471236
1957.02, 0.471102
1957.76, 0.471437
1958.5, 0.471370
1959.24, 0.471102
1959.98, 0.470700
1960.72, 0.470968
1961.47, 0.470901
1962.21, 0.470700
1962.95, 0.470432
1963.7, 0.470499
1964.44, 0.470365
1965.18, 0.470432
1965.93, 0.470298
1966.67, 0.470231
1967.42, 0.469963
1968.17, 0.469963
1968.92, 0.469963
1969.66, 0.469963
1970.41, 0.469762
1971.16, 0.469561
1971.91, 0.469159
1972.66, 0.469293
1973.41, 0.469159
1974.16, 0.469226
1974.92, 0.468824
1975.67, 0.468824
1976.42, 0.468690
1977.18, 0.468824
1977.93, 0.468757
1978.69, 0.468757
1979.44, 0.468690
1980.2, 0.468690
1980.95, 0.468221
1981.71, 0.468154
1982.47, 0.467819
1983.23, 0.467953
1983.99, 0.467886
1984.74, 0.467953
1985.51, 0.467819
1986.27, 0.467685
1987.03, 0.467283
1987.79, 0.467216
1988.55, 0.467082
1989.32, 0.467149
1990.08, 0.467082
1990.84, 0.466747
1991.61, 0.466345
1992.37, 0.466412
1993.14, 0.466345
1993.9, 0.466412
1994.67, 0.466278
1995.44, 0.466345
1996.21, 0.466211
1996.98, 0.466278
1997.75, 0.465943
1998.52, 0.466077
1999.29, 0.466144
2000.06, 0.466211
2000.83, 0.466010
2001.6, 0.466077
2002.38, 0.465876
2003.15, 0.465675
2003.93, 0.465474
2004.7, 0.465742
2005.48, 0.465675
2006.25, 0.465675
2007.03, 0.465608
2007.81, 0.465809
2008.58, 0.465608
2009.36, 0.465608
2010.14, 0.465742
2010.92, 0.466077
2011.7, 0.465608
2012.48, 0.465474
2013.26, 0.465541
2014.05, 0.465608
2014.83, 0.465273
2015.61, 0.465407
2016.4, 0.465474
2017.18, 0.465675
2017.97, 0.465742
2018.75, 0.465742
2019.54, 0.465675
2020.32, 0.466010
2021.11, 0.465675
2021.9, 0.465742
2022.69, 0.465675
2023.48, 0.465742
2024.27, 0.465608
2025.06, 0.465675
2025.85, 0.465541
2026.64, 0.465943
2027.44, 0.465943
2028.23, 0.465876
2029.02, 0.465742
2029.82, 0.466010
2030.61, 0.465943
2031.41, 0.465943
2032.2, 0.466010
2033.0, 0.466077
2033.8, 0.465809
2034.6, 0.465675
2035.4, 0.465340
2036.2, 0.465407
2037.0, 0.465474
2037.8, 0.465608
2038.6, 0.465608
2039.4, 0.465541
2040.2, 0.465072
2041.01, 0.464938
2041.81, 0.464872
2042.61, 0.464805
2043.42, 0.464470
2044.22, 0.464336
2045.03, 0.464269
2045.84, 0.464269
2046.65, 0.464135
2047.46, 0.464403
2048.26, 0.464001
2049.07, 0.463800
2049.88, 0.463465
2050.69, 0.463398
2051.51, 0.463331
2052.32, 0.463197
2053.13, 0.462728
2053.94, 0.462862
2054.76, 0.462795
2055.57, 0.462661
2056.39, 0.462259
2057.2, 0.462125
2058.02, 0.461991
2058.84, 0.461857
2059.66, 0.461455
2060.48, 0.461656
2061.29, 0.461455
2062.11, 0.461321
2062.94, 0.460919
2063.76, 0.460919
2064.58, 0.460584
2065.4, 0.460517
2066.22, 0.460316
2067.05, 0.460316
2067.87, 0.459981
2068.7, 0.459914
2069.52, 0.459646
2070.35, 0.459445
2071.18, 0.459311
2072.0, 0.459512
2072.83, 0.459110
2073.66, 0.458775
2074.49, 0.458574
2075.32, 0.458574
2076.15, 0.458373
2076.98, 0.458574
2077.82, 0.458038
2078.65, 0.457770
2079.48, 0.457502
2080.32, 0.457234
2081.15, 0.456899
2081.99, 0.456832
2082.83, 0.456363
2083.66, 0.456162
2084.5, 0.455894
2085.34, 0.455760
2086.18, 0.455559
2087.02, 0.455559
2087.86, 0.455157
2088.7, 0.454755
2089.54, 0.454420
2090.39, 0.454152
2091.23, 0.453616
2092.07, 0.453282
2092.92, 0.452880
2093.76, 0.452813
2094.61, 0.452746
2095.45, 0.452679
2096.3, 0.452210
2097.15, 0.452076
2098.0, 0.451942
2098.85, 0.451942
2099.7, 0.451540
2100.55, 0.451272
2101.4, 0.451004
2102.25, 0.450937
2103.1, 0.450669
2103.96, 0.450334
2104.81, 0.449597
2105.67, 0.449195
2106.52, 0.448458
2107.38, 0.447989
2108.24, 0.447453
2109.09, 0.447051
2109.95, 0.446381
2110.81, 0.446180
2111.67, 0.446046
2112.53, 0.445912
2113.39, 0.445376
2114.25, 0.445309
2115.12, 0.444706
2115.98, 0.444438
2116.84, 0.444304
2117.71, 0.444103
2118.58, 0.443835
2119.44, 0.443969
2120.31, 0.443701
2121.18, 0.443634
2122.04, 0.443567
2122.91, 0.443433
2123.78, 0.443165
2124.65, 0.443366
2125.52, 0.443366
2126.4, 0.443299
2127.27, 0.442897
2128.14, 0.442831
2129.02, 0.442897
2129.89, 0.443098
2130.77, 0.442964
2131.64, 0.442964
2132.52, 0.442897
2133.4, 0.443165
2134.27, 0.443299
2135.15, 0.443433
2136.03, 0.443567
2136.91, 0.443902
2137.79, 0.443902
2138.68, 0.444103
2139.56, 0.443969
2140.44, 0.444036
2141.33, 0.444036
2142.21, 0.444237
2143.1, 0.444237
2143.99, 0.444304
2144.87, 0.444170
2145.76, 0.444371
2146.65, 0.444237
2147.54, 0.444170
2148.43, 0.444170
2149.32, 0.444505
2150.21, 0.444371
2151.1, 0.444371
2151.99, 0.444170
2152.89, 0.444237
2153.78, 0.444304
2154.68, 0.444438
2155.57, 0.444371
2156.47, 0.444505
2157.37, 0.444304
2158.27, 0.444438
2159.16, 0.444371
2160.06, 0.444505
2160.96, 0.444304
2161.86, 0.444170
2162.77, 0.443969
2163.67, 0.444170
2164.57, 0.444036
2165.48, 0.444170
2166.38, 0.444103
2167.29, 0.444170
2168.2, 0.443835
2169.1, 0.443634
2170.01, 0.443366
2170.92, 0.443567
2171.83, 0.443567
2172.74, 0.443433
2173.65, 0.442964
2174.56, 0.442763
2175.47, 0.442429
2176.39, 0.442629
2177.3, 0.442495
2178.22, 0.442361
2179.13, 0.442295
2180.05, 0.442295
2180.96, 0.441893
2181.88, 0.441759
2182.8, 0.441558
2183.72, 0.441491
2184.64, 0.441089
2185.56, 0.441089
2186.48, 0.441022
2187.41, 0.440955
2188.33, 0.440687
2189.25, 0.440754
2190.18, 0.440486
2191.1, 0.440218
2192.03, 0.439816
2192.96, 0.439749
2193.89, 0.439682
2194.82, 0.439682
2195.74, 0.439280
2196.68, 0.439146
2197.61, 0.439146
2198.54, 0.439079
2199.47, 0.438610
2200.4, 0.438208
2201.34, 0.438208
2202.28, 0.438409
2203.21, 0.438141
2204.15, 0.438208
2205.08, 0.437940
2206.02, 0.437739
2206.96, 0.437538
2207.9, 0.437806
2208.84, 0.437806
2209.78, 0.437873
2210.73, 0.437873
2211.67, 0.438141
2212.61, 0.437873
2213.56, 0.438074
2214.5, 0.438074
2215.45, 0.438342
2216.4, 0.438074
2217.35, 0.437940
2218.3, 0.437940
2219.24, 0.437940
2220.2, 0.437739
2221.15, 0.437739
2222.1, 0.437605
2223.05, 0.437404
2224.0, 0.437002
2224.96, 0.436868
2225.91, 0.436533
2226.87, 0.436131
2227.83, 0.435528
2228.79, 0.435260
2229.74, 0.434724
2230.7, 0.434121
2231.66, 0.433317
2232.63, 0.432580
2233.59, 0.431441
2234.55, 0.430035
2235.51, 0.428226
2236.48, 0.426417
2237.44, 0.424072
2238.41, 0.421593
2239.38, 0.418579
2240.34, 0.415631
2241.31, 0.412549
2242.28, 0.409333
2243.25, 0.405649
2244.22, 0.401830
2245.19, 0.397476
2246.17, 0.393456
2247.14, 0.389570
2248.12, 0.386555
2249.09, 0.384546
2250.07, 0.383809
2251.04, 0.383876
2252.02, 0.384680
2253.0, 0.385886
2253.98, 0.387895
2254.96, 0.390039
2255.94, 0.392585
2256.92, 0.394863
2257.91, 0.397141
2258.89, 0.399016
2259.88, 0.401026
2260.86, 0.402567
2261.85, 0.403974
2262.83, 0.404845
2263.82, 0.405515
2264.81, 0.405515
2265.8, 0.405296
2266.79, 0.404914
2267.78, 0.404477
2268.78, 0.403276
2269.77, 0.401692
2270.76, 0.400109
2271.76, 0.398634
2272.75, 0.396778
2273.75, 0.394976
2274.75, 0.392627
2275.75, 0.389952
2276.75, 0.386402
2277.75, 0.382743
2278.75, 0.378866
2279.75, 0.374935
2280.75, 0.371221
2281.76, 0.367508
2282.76, 0.363631
2283.77, 0.359754
2284.77, 0.355822
2285.78, 0.352546
2286.79, 0.349160
2287.8, 0.345665
2288.81, 0.342443
2289.82, 0.339112
2290.83, 0.335399
2291.84, 0.331412
2292.86, 0.326935
2293.87, 0.322511
2294.89, 0.318088
2295.91, 0.314484
2296.92, 0.311262
2297.94, 0.308587
2298.96, 0.306839
2299.98, 0.306020
2301.0, 0.306129
2302.02, 0.306948
2303.04, 0.307494
2304.07, 0.307658
2305.09, 0.307385
2306.12, 0.307112
2307.15, 0.306348
2308.17, 0.305474
2309.2, 0.304436
2310.23, 0.303454
2311.26, 0.302088
2312.29, 0.300723
2313.32, 0.299631
2314.35, 0.298593
2315.39, 0.297829
2316.42, 0.297447
2317.46, 0.297283
2318.5, 0.297392
2319.53, 0.297665
2320.57, 0.298102
2321.61, 0.299030
2322.65, 0.300505
2323.69, 0.302525
2324.73, 0.304873
2325.78, 0.307167
2326.82, 0.309624
2327.86, 0.312409
2328.91, 0.314866
2329.96, 0.317215
2331.01, 0.319945
2332.05, 0.322348
2333.1, 0.324532
2334.15, 0.326989
2335.21, 0.329720
2336.26, 0.332177
2337.31, 0.334361
2338.36, 0.336600
2339.42, 0.339112
2340.48, 0.341187
2341.53, 0.343808
2342.59, 0.346157
2343.65, 0.348122
2344.71, 0.350197
2345.77, 0.352436
2346.83, 0.354238
2347.9, 0.356150
2348.96, 0.357788
2350.02, 0.359426
2351.09, 0.360464
2352.16, 0.361010
2353.23, 0.361720
2354.29, 0.362484
2355.36, 0.363139
2356.43, 0.363576
2357.51, 0.363959
2358.58, 0.364122
2359.65, 0.364177
2360.73, 0.363904
2361.8, 0.363303
2362.88, 0.362648
2363.96, 0.361283
2365.03, 0.359863
2366.11, 0.358825
2367.19, 0.357788
2368.27, 0.355986
2369.36, 0.354020
2370.44, 0.351781
2371.53, 0.349433
2372.61, 0.346976
2373.7, 0.344737
2374.78, 0.342334
2375.87, 0.339767
2376.96, 0.336873
2378.05, 0.333979
2379.14, 0.331358
2380.24, 0.329283
2381.33, 0.326935
2382.42, 0.324750
2383.52, 0.322621
2384.61, 0.320600
2385.71, 0.319126
2386.81, 0.318744
2387.91, 0.318525
2389.01, 0.318907
2390.11, 0.319836
2391.22, 0.320819
2392.32, 0.321419
2393.42, 0.322730
2394.53, 0.324532
2395.64, 0.326443
2396.74, 0.328901
2397.85, 0.331576
2398.96, 0.334143
2400.07, 0.336600
2401.18, 0.338621
2402.3, 0.340805
2403.41, 0.343044
2404.52, 0.345174
2405.64, 0.347139
2406.76, 0.348942
2407.88, 0.350907
2408.99, 0.353037
2410.11, 0.354621
2411.23, 0.355767
2412.36, 0.357187
2413.48, 0.358716
2414.6, 0.359699
2415.73, 0.360464
2416.85, 0.361064
2417.98, 0.362156
2419.11, 0.363358
2420.24, 0.364341
2421.37, 0.365105
2422.5, 0.366143
2423.64, 0.367126
2424.77, 0.368163
2425.9, 0.369310
2427.04, 0.369965
2428.18, 0.370129
2429.31, 0.370730
2430.45, 0.371440
2431.59, 0.372040
2432.73, 0.372368
2433.88, 0.372750
2435.02, 0.372641
2436.16, 0.372532
2437.31, 0.372095
2438.45, 0.371767
2439.6, 0.371385
2440.75, 0.371057
2441.9, 0.370784
2443.05, 0.370675
2444.2, 0.370839
2445.35, 0.370894
2446.51, 0.370948
2447.67, 0.370784
2448.82, 0.370457
2449.98, 0.370511
2451.14, 0.370238
2452.3, 0.369801
2453.46, 0.369419
2454.62, 0.369146
2455.78, 0.368600
2456.94, 0.367890
2458.11, 0.366962
2459.28, 0.366525
2460.44, 0.366252
2461.61, 0.366143
2462.78, 0.366143
2463.95, 0.366252
2465.12, 0.366034
2466.3, 0.365870
2467.47, 0.365924
2468.65, 0.366034
2469.82, 0.366034
2471.0, 0.366307
2472.18, 0.365979
2473.36, 0.365870
2474.54, 0.365651
2475.72, 0.365542
2476.9, 0.365324
2478.08, 0.365324
2479.27, 0.364941
2480.46, 0.364996
2481.64, 0.365269
2482.83, 0.365269
2484.02, 0.365160
2485.21, 0.365269
2486.4, 0.365269
2487.6, 0.365597
2488.79, 0.365761
2489.99, 0.365870
2491.18, 0.365870
2492.38, 0.365651
2493.58, 0.365597
2494.78, 0.365597
2495.98, 0.365597
2497.18, 0.365979
2498.39, 0.366034
2499.59, 0.366252
2500.8, 0.366853
2502.01, 0.367344
2503.21, 0.367508
2504.42, 0.367890
2505.63, 0.367999
2506.84, 0.368272
2508.06, 0.368546
2509.27, 0.368600
2510.49, 0.368436
2511.7, 0.368928
2512.92, 0.369310
2514.14, 0.369474
2515.36, 0.369528
2516.58, 0.369801
2517.8, 0.369965
2519.03, 0.370293
2520.25, 0.370675
2521.48, 0.371549
2522.7, 0.371822
2523.93, 0.372150
2525.16, 0.372313
2526.39, 0.372423
2527.62, 0.372477
2528.86, 0.372641
2530.09, 0.372423
2531.33, 0.372204
2532.56, 0.372368
2533.8, 0.372696
2535.04, 0.372641
2536.28, 0.372532
2537.52, 0.373078
2538.76, 0.373515
2540.01, 0.373187
2541.25, 0.372641
2542.5, 0.371822
2543.75, 0.371986
2544.99, 0.372641
2546.24, 0.372532
2547.49, 0.371767
2548.75, 0.371986
2550.0, 0.371549
2551.26, 0.370511
2552.51, 0.369856
2553.77, 0.370457
2555.03, 0.370894
2556.29, 0.370402
2557.55, 0.369965
2558.81, 0.369310
2560.08, 0.366907
2561.34, 0.364559
2562.61, 0.364286
2563.88, 0.364614
2565.14, 0.366307
2566.41, 0.368272
2567.68, 0.367726
2568.96, 0.365488
2570.23, 0.365542
2571.51, 0.367017
2572.78, 0.364505
2574.06, 0.364996
2575.34, 0.366580
2576.62, 0.365979
2577.9, 0.367563
2579.18, 0.369037
2580.47, 0.367726
2581.75, 0.367235
2583.04, 0.364778
2584.32, 0.364505
2585.61, 0.367399
2586.9, 0.366744
2588.2, 0.367180
2589.49, 0.369092
2590.78, 0.370457
2592.08, 0.369365
2593.37, 0.362703
2594.67, 0.356150
2595.97, 0.361447
2597.27, 0.368709
2598.57, 0.371604
2599.88, 0.371385
2601.18, 0.369965
2602.49, 0.368928
2603.79, 0.367180
2605.1, 0.364395
2606.41, 0.365870
2607.72, 0.368764
2609.03, 0.369911
2610.35, 0.371385
2611.66, 0.372477
2612.98, 0.372532
2614.3, 0.372750
2615.62, 0.369638
2616.94, 0.367344
2618.26, 0.370238
2619.58, 0.369092
2620.91, 0.369419
2622.23, 0.373788
2623.56, 0.375426
2624.89, 0.374225
2626.22, 0.370730
2627.55, 0.371713
2628.88, 0.371276
2630.21, 0.367617
2631.55, 0.369692
2632.89, 0.371549
2634.22, 0.371494
2635.56, 0.372477
2636.9, 0.372423
2638.25, 0.371877
2639.59, 0.371167
2640.93, 0.370348
2642.28, 0.369583
2643.63, 0.368982
2644.98, 0.367235
2646.33, 0.367180
2647.68, 0.368272
2649.03, 0.368272
2650.39, 0.367290
2651.74, 0.364778
2653.1, 0.364013
2654.46, 0.364341
2655.82, 0.364122
2657.18, 0.364832
2658.54, 0.363085
2659.9, 0.361610
2661.27, 0.361392
2662.64, 0.360573
2664.01, 0.355167
2665.38, 0.349651
2666.74, 0.348232
2668.12, 0.349378
2669.49, 0.343153
2670.87, 0.338129
2672.24, 0.339986
2673.62, 0.335399
2675.0, 0.324477
2676.38, 0.310170
2677.76, 0.297010
2679.15, 0.281774
2680.54, 0.265884
2681.92, 0.247317
2683.31, 0.226785
2684.7, 0.206962
2686.09, 0.188942
2687.48, 0.172669
2688.88, 0.159017
2690.27, 0.147768
2691.67, 0.138867
2693.07, 0.130894
2694.47, 0.125652
2695.87, 0.122484
2697.27, 0.120464
2698.67, 0.118444
2700.08, 0.116587
2701.49, 0.115058
2702.9, 0.114621
2704.31, 0.113802
2705.72, 0.113201
2707.13, 0.112382
2708.54, 0.111181
2709.96, 0.109870
2711.38, 0.110089
2712.8, 0.111181
2714.22, 0.111508
2715.64, 0.110416
2717.06, 0.107031
2718.49, 0.0988390
2719.91, 0.0856240
2721.34, 0.0762320
2722.77, 0.0743210
2724.2, 0.0749210
2725.63, 0.0778700
2727.07, 0.0809280
2728.5, 0.0817470
2729.94, 0.0791260
2731.38, 0.0754130
2732.82, 0.0727920
2734.26, 0.0717540
2735.7, 0.0721360
2737.15, 0.0728460
2738.59, 0.0724090
2740.04, 0.0721910
2741.49, 0.0727920
2742.94, 0.0736650
2744.39, 0.0738290
2745.84, 0.0741570
2747.3, 0.0747030
2748.76, 0.0753580
2750.21, 0.0756310
2751.67, 0.0757410
2753.14, 0.0753580
2754.6, 0.0742120
2756.06, 0.0745390
2757.53, 0.0766140
2759.0, 0.0781430
2760.46, 0.0794540
2761.94, 0.0804910
2763.41, 0.0820750
2764.88, 0.0844230
2766.36, 0.0869350
2767.83, 0.0899930
2769.31, 0.0939790
2770.79, 0.0986210
2772.27, 0.104191
2773.76, 0.109761
2775.24, 0.115222
2776.73, 0.120027
2778.22, 0.125215
2779.71, 0.130894
2781.2, 0.136737
2782.69, 0.142853
2784.18, 0.148696
2785.68, 0.152955
2787.18, 0.156778
2788.68, 0.161201
2790.18, 0.164860
2791.68, 0.167208
2793.19, 0.169119
2794.69, 0.170703
2796.2, 0.171850
2797.71, 0.172669
2799.22, 0.173215
2800.73, 0.172887
2802.24, 0.171795
2803.76, 0.171740
2805.28, 0.172396
2806.8, 0.172396
2808.32, 0.172341
2809.84, 0.172341
2811.36, 0.172123
2812.89, 0.171740
2814.42, 0.171358
2815.94, 0.171085
2817.48, 0.170757
2819.01, 0.170266
2820.54, 0.170266
2822.08, 0.170539
2823.61, 0.170976
2825.15, 0.171030
2826.69, 0.170921
2828.23, 0.170976
2829.78, 0.171303
2831.32, 0.171358
2832.87, 0.171413
2834.42, 0.171467
2835.97, 0.171522
2837.52, 0.171577
2839.08, 0.171631
2840.63, 0.171795
2842.19, 0.171850
2843.75, 0.171850
2845.31, 0.171686
2846.87, 0.171577
2848.44, 0.171413
2850.0, 0.171358
2851.57, 0.171358
2853.14, 0.170921
2854.71, 0.170594
2856.28, 0.170539
2857.86, 0.170648
2859.43, 0.170484
2861.01, 0.170321
2862.59, 0.170157
2864.17, 0.170048
2865.76, 0.169720
2867.34, 0.169501
2868.93, 0.169283
2870.52, 0.169228
2872.11, 0.169338
2873.7, 0.169501
2875.29, 0.169611
2876.89, 0.169611
2878.49, 0.169665
2880.08, 0.169829
2881.69, 0.169775
2883.29, 0.169611
2884.89, 0.169611
2886.5, 0.169556
2888.11, 0.169556
2889.72, 0.169938
2891.33, 0.169993
2892.94, 0.169938
2894.56, 0.169993
2896.17, 0.170266
2897.79, 0.170375
2899.42, 0.170430
2901.04, 0.170430
2902.66, 0.170484
2904.29, 0.170703
2905.92, 0.170921
2907.55, 0.170921
2909.18, 0.171249
2910.81, 0.171522
2912.45, 0.171795
2914.08, 0.171904
2915.72, 0.172232
2917.36, 0.172559
2919.01, 0.172942
2920.65, 0.173160
2922.3, 0.173542
2923.94, 0.173979
2925.59, 0.174471
2927.25, 0.174798
2928.9, 0.175235
2930.56, 0.175618
2932.21, 0.176109
2933.87, 0.176491
2935.53, 0.176873
2937.2, 0.177310
2938.86, 0.177856
2940.53, 0.178129
2942.2, 0.178512
2943.87, 0.179112
2945.54, 0.179495
2947.22, 0.179822
2948.89, 0.180314
2950.57, 0.180805
2952.25, 0.181187
2953.93, 0.181515
2955.62, 0.181952
2957.3, 0.182443
2958.99, 0.182771
2960.68, 0.183153
2962.37, 0.183699
2964.07, 0.184191
2965.76, 0.184792
2967.46, 0.185119
2969.16, 0.185501
2970.86, 0.185829
2972.56, 0.186430
2974.27, 0.187030
2975.98, 0.187577
2977.69, 0.188013
2979.4, 0.188559
2981.11, 0.189106
2982.83, 0.189542
2984.54, 0.190143
2986.26, 0.190744
2987.98, 0.191181
2989.71, 0.191781
2991.43, 0.192273
2993.16, 0.192873
2994.89, 0.193420
2996.62, 0.193966
2998.35, 0.194785
3000.09, 0.195440
3001.83, 0.195877
3003.57, 0.196423
3005.31, 0.197133
3007.05, 0.197679
3008.79, 0.198170
3010.54, 0.198826
3012.29, 0.199208
3014.04, 0.199863
3015.8, 0.200573
3017.55, 0.201065
3019.31, 0.201611
3021.07, 0.202102
3022.83, 0.202648
3024.59, 0.203140
3026.36, 0.203631
3028.13, 0.204232
3029.9, 0.204723
3031.67, 0.205269
3033.44, 0.205815
3035.22, 0.206416
3037.0, 0.206744
3038.78, 0.207126
3040.56, 0.207508
3042.34, 0.207836
3044.13, 0.208273
3045.92, 0.208764
3047.71, 0.209310
3049.5, 0.209747
3051.3, 0.210129
3053.09, 0.210512
3054.89, 0.211003
3056.69, 0.211440
3058.5, 0.211713
3060.3, 0.211986
3062.11, 0.212478
3063.92, 0.212969
3065.73, 0.213297
3067.55, 0.213733
3069.36, 0.214280
3071.18, 0.214771
3073.0, 0.215153
3074.82, 0.215645
3076.65, 0.215972
3078.48, 0.216355
3080.31, 0.216682
3082.14, 0.217119
3083.97, 0.217665
3085.8, 0.218211
3087.64, 0.218594
3089.48, 0.219194
3091.33, 0.219740
3093.17, 0.220177
3095.02, 0.220669
3096.87, 0.221324
3098.72, 0.221761
3100.57, 0.222252
3102.43, 0.222689
3104.28, 0.223126
3106.14, 0.223617
3108.01, 0.224218
3109.87, 0.224819
3111.74, 0.225529
3113.61, 0.226075
3115.48, 0.226566
3117.35, 0.227222
3119.23, 0.227822
3121.1, 0.228423
3122.98, 0.229133
3124.87, 0.229788
3126.75, 0.230498
3128.64, 0.231208
3130.53, 0.231972
3132.42, 0.232628
3134.31, 0.233392
3136.21, 0.233938
3138.11, 0.234648
3140.01, 0.235467
3141.91, 0.236177
3143.82, 0.236778
3145.73, 0.237324
3147.64, 0.237925
3149.55, 0.238580
3151.46, 0.239071
3153.38, 0.239508
3155.3, 0.240000
3157.22, 0.240546
3159.14, 0.241201
3161.07, 0.241747
3163.0, 0.242020
3164.93, 0.242239
3166.86, 0.242512
3168.8, 0.243003
3170.74, 0.243495
3172.68, 0.244150
3174.62, 0.244750
3176.56, 0.245460
3178.51, 0.246225
3180.46, 0.246935
3182.42, 0.247645
3184.37, 0.248464
3186.33, 0.249119
3188.29, 0.249884
3190.25, 0.250648
3192.21, 0.251358
3194.18, 0.252232
3196.15, 0.253105
3198.12, 0.253979
3200.09, 0.254689
3202.07, 0.255454
3204.05, 0.256273
3206.03, 0.257037
3208.02, 0.257747
3210.0, 0.258402
3211.99, 0.259221
3213.98, 0.259931
3215.98, 0.260641
3217.97, 0.261460
3219.97, 0.262279
3221.97, 0.262935
3223.98, 0.263590
3225.98, 0.264518
3227.99, 0.265283
3230.0, 0.265938
3232.02, 0.266648
3234.03, 0.267413
3236.05, 0.268341
3238.07, 0.269215
3240.1, 0.270088
3242.12, 0.270962
3244.15, 0.271727
3246.18, 0.272491
3248.22, 0.273419
3250.25, 0.274348
3252.29, 0.275221
3254.33, 0.276041
3256.38, 0.276914
3258.43, 0.277679
3260.47, 0.278498
3262.53, 0.279262
3264.58, 0.280027
3266.64, 0.280682
3268.7, 0.281337
3270.76, 0.281993
3272.82, 0.282703
3274.89, 0.283413
3276.96, 0.283959
3279.04, 0.284341
3281.11, 0.284778
3283.19, 0.285051
3285.27, 0.285269
3287.35, 0.285433
3289.44, 0.285542
3291.53, 0.285651
3293.62, 0.285651
3295.71, 0.285761
3297.81, 0.285870
3299.91, 0.285979
3302.01, 0.286143
3304.11, 0.286034
3306.22, 0.286088
3308.33, 0.286088
3310.44, 0.286307
3312.56, 0.286689
3314.68, 0.286962
3316.8, 0.287126
3318.92, 0.287454
3321.05, 0.287672
3323.18, 0.287890
3325.31, 0.287945
3327.44, 0.288163
3329.58, 0.288327
3331.72, 0.288273
3333.86, 0.288273
3336.01, 0.288436
3338.16, 0.288436
3340.31, 0.288600
3342.46, 0.288819
3344.61, 0.289146
3346.77, 0.289692
3348.94, 0.290512
3351.1, 0.291221
3353.27, 0.291931
3355.44, 0.292696
3357.61, 0.293624
3359.79, 0.294334
3361.97, 0.295044
3364.15, 0.295808
3366.33, 0.296573
3368.52, 0.297174
3370.71, 0.297665
3372.9, 0.298211
3375.1, 0.298757
3377.3, 0.299522
3379.5, 0.300232
3381.71, 0.300942
3383.91, 0.301815
3386.12, 0.302634
3388.34, 0.303399
3390.55, 0.304109
3392.77, 0.304928
3394.99, 0.305529
3397.22, 0.306184
3399.45, 0.306894
3401.68, 0.307604
3403.91, 0.308204
3406.15, 0.308969
3408.39, 0.309679
3410.63, 0.310443
3412.87, 0.311153
3415.12, 0.311918
3417.37, 0.312682
3419.63, 0.313720
3421.88, 0.314703
3424.14, 0.315740
3426.41, 0.316832
3428.67, 0.317815
3430.94, 0.318853
3433.21, 0.319890
3435.49, 0.320764
3437.77, 0.321638
3440.05, 0.322621
3442.33, 0.323658
3444.62, 0.324532
3446.91, 0.325515
3449.2, 0.326443
3451.5, 0.327426
3453.8, 0.328300
3456.1, 0.329174
3458.41, 0.330102
3460.72, 0.330921
3463.03, 0.331740
3465.34, 0.332505
3467.66, 0.333269
3469.98, 0.333979
3472.31, 0.334744
3474.63, 0.335508
3476.96, 0.336163
3479.3, 0.336928
3481.64, 0.337583
3483.97, 0.338293
3486.32, 0.338894
3488.66, 0.339494
3491.01, 0.340040
3493.36, 0.340587
3495.72, 0.341133
3498.08, 0.341679
3500.44, 0.342279
3502.81, 0.342825
3505.18, 0.343317
3507.55, 0.343972
3509.92, 0.344682
3512.3, 0.345283
3514.68, 0.345993
3517.06, 0.346757
3519.45, 0.347249
3521.84, 0.347795
3524.24, 0.348395
3526.64, 0.348723
3529.04, 0.349105
3531.44, 0.349597
3533.85, 0.349979
3536.26, 0.350470
3538.67, 0.350853
3541.09, 0.351235
3543.51, 0.351563
3545.93, 0.352054
3548.36, 0.352436
3550.79, 0.352819
3553.22, 0.353255
3555.66, 0.353692
3558.1, 0.353965
3560.54, 0.354293
3562.99, 0.354621
3565.44, 0.355003
3567.9, 0.355221
3570.35, 0.355549
3572.81, 0.355877
3575.28, 0.356204
3577.75, 0.356532
3580.22, 0.356914
3582.69, 0.357242
3585.17, 0.357679
3587.65, 0.358006
3590.14, 0.358334
3592.62, 0.358662
3595.11, 0.359153
3597.61, 0.359535
3600.11, 0.359863
3602.61, 0.360191
3605.11, 0.360573
3607.62, 0.360955
3610.14, 0.361337
3612.65, 0.361610
3615.17, 0.361829
3617.69, 0.362102
3620.22, 0.362484
3622.75, 0.362812
3625.28, 0.363085
3627.82, 0.363303
3630.36, 0.363631
3632.9, 0.363904
3635.45, 0.364068
3638.0, 0.364232
3640.56, 0.364505
3643.12, 0.364723
3645.68, 0.364941
3648.24, 0.365160
3650.81, 0.365433
3653.39, 0.365542
3655.96, 0.365761
3658.54, 0.366034
3661.13, 0.366252
3663.71, 0.366416
3666.3, 0.366580
3668.9, 0.366689
3671.5, 0.366962
3674.1, 0.367180
3676.7, 0.367453
3679.31, 0.367617
3681.93, 0.367836
3684.54, 0.367945
3687.17, 0.367836
3689.79, 0.367453
3692.42, 0.367453
3695.05, 0.367999
3697.69, 0.368600
3700.32, 0.368764
3702.97, 0.368819
3705.61, 0.368819
3708.27, 0.369037
3710.92, 0.369365
3713.58, 0.369528
3716.24, 0.369692
3718.91, 0.369911
3721.58, 0.370075
3724.25, 0.370348
3726.93, 0.370511
3729.61, 0.370675
3732.29, 0.370839
3734.98, 0.371057
3737.67, 0.371112
3740.37, 0.371331
3743.07, 0.371549
3745.78, 0.371767
3748.49, 0.371931
3751.2, 0.372040
3753.91, 0.372204
3756.63, 0.372313
3759.36, 0.372368
3762.09, 0.372423
3764.82, 0.372532
3767.55, 0.372750
3770.29, 0.372805
3773.04, 0.372750
3775.78, 0.372805
3778.54, 0.372969
3781.29, 0.373078
3784.05, 0.373133
3786.82, 0.373023
3789.59, 0.373078
3792.36, 0.373078
3795.13, 0.373133
3797.92, 0.373023
3800.7, 0.372969
3803.49, 0.372969
3806.28, 0.372969
3809.08, 0.372969
3811.88, 0.373023
3814.68, 0.373023
3817.49, 0.373078
3820.31, 0.373133
3823.12, 0.373187
3825.94, 0.373023
3828.77, 0.373023
3831.6, 0.373023
3834.43, 0.373133
3837.27, 0.373133
3840.11, 0.373187
3842.96, 0.373078
3845.81, 0.372969
3848.67, 0.372914
3851.53, 0.372860
3854.39, 0.372696
3857.26, 0.372532
3860.13, 0.372477
3863.01, 0.372313
3865.89, 0.372150
3868.77, 0.372150
3871.66, 0.371931
3874.55, 0.371822
3877.45, 0.371713
3880.35, 0.371549
3883.26, 0.371385
3886.17, 0.371276
3889.09, 0.371003
3892.01, 0.370894
3894.93, 0.370730
3897.86, 0.370511
3900.79, 0.370238
3903.73, 0.370075
3906.67, 0.369856
3909.62, 0.369638
3912.57, 0.369310
3915.52, 0.369146
3918.48, 0.368819
3921.45, 0.368600
3924.42, 0.368382
3927.39, 0.368054
3930.37, 0.367836
3933.35, 0.367617
3936.34, 0.367399
3939.33, 0.367180
3942.32, 0.366907
3945.32, 0.366689
3948.33, 0.366307
3951.34, 0.366088
3954.35, 0.365815
3957.37, 0.365651
3960.39, 0.365433
3963.42, 0.365160
3966.45, 0.364941
3969.49, 0.364832
3972.53, 0.364614
3975.58, 0.364559
3978.63, 0.364395
3981.68, 0.364341
3984.75, 0.364232
3987.81, 0.364122
3990.88, 0.364068
3993.95, 0.363959
3997.03, 0.363740
4000.12, 0.363685
4003.21, 0.363576
4006.3, 0.363522
4009.4, 0.363249
4012.5, 0.363030
4015.61, 0.362866
4018.72, 0.362757
4021.84, 0.362484
4024.96, 0.362266
4028.09, 0.362102
4031.22, 0.361883
4034.36, 0.361556
4037.5, 0.361337
4040.65, 0.361119
4043.8, 0.360900
4046.96, 0.360628
4050.12, 0.360300
4053.29, 0.360027
4056.46, 0.359808
4059.64, 0.359535
4062.82, 0.359317
4066.0, 0.358989
4069.19, 0.358662
4072.39, 0.358389
4075.59, 0.358170
4078.8, 0.357897
4082.01, 0.357569
4085.23, 0.357133
4088.45, 0.356805
4091.68, 0.356477
4094.91, 0.356204
4098.15, 0.355877
4101.39, 0.355549
4104.63, 0.355167
4107.89, 0.354894
4111.14, 0.354621
4114.41, 0.354293
4117.67, 0.353965
4120.95, 0.353638
4124.23, 0.353255
4127.51, 0.352982
4130.8, 0.352655
4134.09, 0.352382
4137.39, 0.352109
4140.7, 0.351836
4144.01, 0.351453
4147.32, 0.351180
4150.64, 0.350853
4153.97, 0.350580
4157.3, 0.350088
4160.64, 0.349870
4163.98, 0.349651
4167.33, 0.349378
4170.68, 0.349105
4174.04, 0.348778
4177.4, 0.348450
4180.77, 0.348177
4184.14, 0.347849
4187.52, 0.347522
4190.91, 0.347085
4194.3, 0.346757
4197.69, 0.346320
4201.1, 0.345938
4204.5, 0.345283
4207.92, 0.344682
4211.34, 0.343808
4214.76, 0.342989
4218.19, 0.342225
4221.62, 0.341569
4225.06, 0.340805
4228.51, 0.340204
4231.96, 0.339604
4235.42, 0.339221
4238.88, 0.338948
4242.35, 0.338894
4245.83, 0.338894
4249.31, 0.338948
4252.79, 0.338948
4256.28, 0.338730
4259.78, 0.338020
4263.29, 0.337146
4266.79, 0.336054
4270.31, 0.335126
4273.83, 0.334252
4277.35, 0.333542
4280.89, 0.332832
4284.42, 0.332177
4287.97, 0.331412
4291.52, 0.330703
4295.07, 0.330047
4298.63, 0.329392
4302.2, 0.328737
4305.78, 0.328191
4309.35, 0.327535
4312.94, 0.326989
4316.53, 0.326443
4320.13, 0.325897
4323.73, 0.325406
4327.34, 0.325078
4330.96, 0.324477
4334.58, 0.323877
4338.21, 0.323221
4341.84, 0.322566
4345.48, 0.321856
4349.12, 0.321092
4352.77, 0.320327
4356.43, 0.319563
4360.1, 0.318689
4363.76, 0.317815
4367.44, 0.316832
4371.12, 0.315904
4374.81, 0.314976
4378.51, 0.314047
4382.21, 0.312955
4385.92, 0.311863
4389.63, 0.310880
4393.35, 0.309897
4397.08, 0.308860
4400.81, 0.307986
4404.55, 0.307058
4408.29, 0.306238
4412.04, 0.305365
4415.8, 0.304709
4419.57, 0.303945
4423.34, 0.303290
4427.12, 0.302689
4430.9, 0.302034
4434.69, 0.301324
4438.49, 0.300723
4442.29, 0.300232
4446.1, 0.299740
4449.92, 0.299139
4453.74, 0.298757
4457.57, 0.298211
4461.41, 0.297665
4465.25, 0.297174
4469.1, 0.296737
4472.95, 0.296191
4476.82, 0.295754
4480.69, 0.295208
4484.56, 0.294716
4488.44, 0.294225
4492.33, 0.293733
4496.23, 0.293187
4500.13, 0.292641
4504.04, 0.292095
4507.96, 0.291494
4511.88, 0.290894
4515.81, 0.290348
4519.75, 0.289692
4523.69, 0.289092
4527.65, 0.288382
4531.6, 0.287617
4535.57, 0.286689
4539.54, 0.285870
4543.52, 0.284887
4547.5, 0.283740
4551.5, 0.282430
4555.5, 0.281010
4559.5, 0.279426
4563.52, 0.277733
4567.54, 0.275877
4571.56, 0.274020
4575.6, 0.272054
4579.64, 0.270088
4583.69, 0.268068
4587.75, 0.266157
4591.81, 0.264245
4595.88, 0.262334
4599.96, 0.260259
4604.04, 0.257966
4608.14, 0.255727
4612.24, 0.253542
4616.34, 0.251249
4620.46, 0.248846
4624.58, 0.246389
4628.71, 0.243931
4632.84, 0.241529
4636.99, 0.239235
4641.14, 0.236996
4645.3, 0.234812
4649.47, 0.232682
4653.64, 0.230607
4657.82, 0.228751
4662.01, 0.227003
4666.21, 0.225201
4670.41, 0.223454
4674.62, 0.221706
4678.84, 0.219904
4683.07, 0.218047
4687.3, 0.216300
4691.54, 0.214443
4695.79, 0.212641
4700.05, 0.210894
4704.31, 0.209092
4708.59, 0.207235
4712.87, 0.205379
4717.15, 0.203577
4721.45, 0.201665
4725.76, 0.199863
4730.07, 0.198007
4734.39, 0.196205
4738.72, 0.194293
4743.05, 0.192437
4747.39, 0.190525
4751.75, 0.188669
4756.1, 0.186867
4760.47, 0.184955
4764.85, 0.183208
4769.23, 0.181406
4773.62, 0.179713
4778.02, 0.178020
4782.43, 0.176491
4786.85, 0.174798
4791.27, 0.173379
4795.7, 0.171904
4800.14, 0.170484
4804.59, 0.169065
4809.05, 0.167863
4813.51, 0.166662
4817.99, 0.165406
4822.47, 0.164205
4826.96, 0.163222
4831.46, 0.162293
4835.96, 0.161201
4840.48, 0.160054
4845.0, 0.159071
4849.54, 0.158034
4854.08, 0.157051
4858.63, 0.156013
4863.18, 0.154921
4867.75, 0.153829
4872.33, 0.152573
4876.91, 0.151263
4881.5, 0.150007
4886.1, 0.148751
4890.71, 0.147440
4895.33, 0.146075
4899.96, 0.144710
4904.59, 0.143508
4909.24, 0.142252
4913.89, 0.140833
4918.55, 0.139467
4923.22, 0.138157
4927.9, 0.137010
4932.59, 0.135863
4937.29, 0.134771
4942.0, 0.133679
4946.71, 0.132641
4951.44, 0.131713
4956.17, 0.130894
4960.91, 0.130075
4965.67, 0.129201
4970.43, 0.128273
4975.2, 0.127399
4979.98, 0.126471
4984.76, 0.125706
4989.56, 0.124887
4994.37, 0.123959
4999.18, 0.123031
5004.01, 0.122157
5008.84, 0.121174
5013.69, 0.120082
5018.54, 0.118990
5023.4, 0.118061
5028.28, 0.117242
5033.16, 0.116478
5038.05, 0.115659
5042.95, 0.114894
5047.86, 0.114184
5052.78, 0.113474
5057.71, 0.112710
5062.65, 0.112054
5067.6, 0.111563
5072.56, 0.111017
5077.53, 0.110362
5082.5, 0.109761
5087.49, 0.109379
5092.49, 0.108942
5097.5, 0.108396
5102.51, 0.107795
5107.54, 0.107249
5112.58, 0.106867
5117.62, 0.106430
5122.68, 0.106157
5127.75, 0.105829
5132.82, 0.105556
5137.91, 0.105392
5143.01, 0.105283
5148.12, 0.105229
5153.23, 0.105556
5158.36, 0.105775
5163.5, 0.105884
5168.65, 0.105938
5173.81, 0.106211
5178.98, 0.106484
5184.15, 0.106594
5189.34, 0.106539
5194.54, 0.106266
5199.75, 0.105829
5204.98, 0.105556
5210.21, 0.104792
5215.45, 0.104027
5220.7, 0.103426
5225.96, 0.102389
5231.23, 0.101188
5236.52, 0.0999320
5241.81, 0.0987850
5247.12, 0.0976930
5252.44, 0.0966010
5257.76, 0.0956720
5263.1, 0.0949080
5268.45, 0.0942520
5273.81, 0.0935430
5279.18, 0.0929420
5284.56, 0.0922320
5289.95, 0.0913040
5295.36, 0.0907030
5300.77, 0.0901570
5306.2, 0.0893920
5311.63, 0.0886820
5317.08, 0.0879180
5322.54, 0.0872080
5328.01, 0.0866620
5333.49, 0.0861710
5338.98, 0.0857340
5344.49, 0.0850780
5350.0, 0.0845320
5355.53, 0.0846420
5361.07, 0.0848600
5366.62, 0.0848600
5372.18, 0.0847510
5377.75, 0.0846420
5383.34, 0.0844780
5388.93, 0.0843140
5394.54, 0.0840950
5400.16, 0.0838220
5405.79, 0.0834950
5411.44, 0.0831130
5417.09, 0.0822390
5422.76, 0.0815830
5428.43, 0.0818020
5434.12, 0.0816380
5439.83, 0.0810920
5445.54, 0.0805460
5451.26, 0.0799450
5457.0, 0.0792350
5462.75, 0.0783070
5468.52, 0.0780340
5474.29, 0.0778160
5480.08, 0.0775970
5485.88, 0.0777610
5491.69, 0.0778160
5497.51, 0.0777610
5503.35, 0.0777060
5509.2, 0.0776520
5515.06, 0.0774330
5520.93, 0.0771060
5526.82, 0.0768870
5532.71, 0.0766690
5538.63, 0.0762870
5544.55, 0.0755770
5550.49, 0.0746480
5556.44, 0.0738840
5562.4, 0.0732830
5568.37, 0.0725190
5574.36, 0.0712080
5580.36, 0.0702250
5586.37, 0.0700070
5592.4, 0.0695150
5598.44, 0.0685870
5604.49, 0.0678220
5610.56, 0.0671670
5616.63, 0.0664570
5622.73, 0.0659110
5628.83, 0.0654200
5634.95, 0.0644370
5641.08, 0.0633990
5647.23, 0.0633990
5653.39, 0.0633450
5659.56, 0.0632900
5665.74, 0.0632350
5671.94, 0.0626350
5678.15, 0.0623070
5684.38, 0.0624160
5690.62, 0.0621980
5696.87, 0.0622520
5703.14, 0.0619250
5709.42, 0.0612700
5715.72, 0.0612700
5722.03, 0.0614330
5728.35, 0.0613240
5734.69, 0.0609420
5741.03, 0.0604500
5747.4, 0.0599590
5753.78, 0.0597950
5760.17, 0.0587030
5766.58, 0.0573380
5773.0, 0.0577200
5779.44, 0.0578290
5785.88, 0.0574470
5792.35, 0.0569560
5798.83, 0.0563000
5805.32, 0.0557000
5811.83, 0.0548800
5818.35, 0.0534060
5824.89, 0.0525870
5831.45, 0.0525320
5838.01, 0.0523690
5844.59, 0.0517680
5851.19, 0.0510030
5857.8, 0.0501300
5864.43, 0.0493110
5871.07, 0.0486010
5877.73, 0.0469080
5884.4, 0.0462520
5891.09, 0.0460890
5897.79, 0.0454330
5904.5, 0.0458160
5911.23, 0.0455970
5917.98, 0.0452150
5924.75, 0.0447780
5931.53, 0.0437410
5938.32, 0.0430850
5945.13, 0.0439040
5951.96, 0.0441770
5958.8, 0.0440680
5965.65, 0.0434130
5972.53, 0.0434130
5979.42, 0.0435770
5986.32, 0.0432490
5993.24, 0.0433040
6000.18, 0.0436860
6007.13, 0.0434130
6014.1, 0.0430310
6021.08, 0.0430310
6028.09, 0.0429760
6035.1, 0.0424850
6042.14, 0.0411190
6049.19, 0.0399730
6056.25, 0.0408460
6063.34, 0.0410650
6070.44, 0.0403550
6077.55, 0.0401910
6084.69, 0.0404640
6091.84, 0.0402460
6099.0, 0.0398090
6106.19, 0.0390990
6113.39, 0.0384980
6120.61, 0.0388260
6127.84, 0.0390990
6135.09, 0.0388800
6142.36, 0.0386620
6149.65, 0.0386070
6156.95, 0.0384980
6164.27, 0.0384980
6171.61, 0.0386620
6178.97, 0.0383340
6186.34, 0.0382250
6193.73, 0.0388800
6201.14, 0.0393170
6208.57, 0.0394810
6216.01, 0.0397000
6223.47, 0.0399730
6230.95, 0.0403000
6238.45, 0.0405730
6245.97, 0.0409560
6253.5, 0.0412830
6261.06, 0.0416110
6268.63, 0.0420480
6276.21, 0.0424850
6283.82, 0.0429210
6291.45, 0.0433580
6299.1, 0.0437950
6306.76, 0.0442320
6314.44, 0.0447780
6322.14, 0.0453790
6329.86, 0.0459250
6337.6, 0.0458160
6345.35, 0.0460340
6353.13, 0.0472900
6360.92, 0.0478360
6368.74, 0.0480550
6376.57, 0.0489280
6384.43, 0.0496930
6392.3, 0.0501840
6400.19, 0.0503480
6408.1, 0.0492560
6416.03, 0.0492010
6423.98, 0.0507850
6431.95, 0.0516040
6439.94, 0.0523140
6447.95, 0.0529150
6455.98, 0.0532970
6464.03, 0.0535150
6472.1, 0.0532970
6480.19, 0.0531880
6488.31, 0.0527510
6496.44, 0.0531880
6504.59, 0.0547170
6512.76, 0.0552630
6520.95, 0.0552080
6529.16, 0.0558630
6537.4, 0.0561360
6545.65, 0.0559730
6553.92, 0.0558630
6562.22, 0.0557000
6570.54, 0.0549900
6578.88, 0.0552630
6587.23, 0.0555900
6595.61, 0.0557540
6604.02, 0.0558630
6612.44, 0.0555360
6620.89, 0.0550440
6629.35, 0.0538430
6637.84, 0.0529690
6646.35, 0.0537880
6654.88, 0.0543890
6663.44, 0.0540610
6672.01, 0.0533510
6680.61, 0.0528050
6689.23, 0.0530780
6697.88, 0.0531330
6706.54, 0.0524230
6715.23, 0.0520410
6723.94, 0.0520410
6732.67, 0.0520950
6741.42, 0.0518220
6750.2, 0.0513860
6759.0, 0.0510580
6767.82, 0.0504570
6776.67, 0.0496930
6785.54, 0.0488740
6794.44, 0.0486010
6803.35, 0.0487100
6812.29, 0.0484370
6821.26, 0.0478360
6830.24, 0.0475080
6839.25, 0.0473990
6848.29, 0.0467440
6857.35, 0.0455970
6866.43, 0.0451060
6875.54, 0.0456520
6884.67, 0.0455970
6893.82, 0.0452700
6903.0, 0.0447780
6912.2, 0.0445600
6921.43, 0.0442870
6930.69, 0.0439590
6939.96, 0.0435220
6949.27, 0.0428120
6958.59, 0.0417750
6967.95, 0.0416110
6977.33, 0.0415560
6986.73, 0.0411190
6996.16, 0.0405730
7005.61, 0.0400820
7015.09, 0.0396450
7024.6, 0.0392080
7034.13, 0.0384440
7043.69, 0.0375150
7053.27, 0.0372420
7062.88, 0.0371330
7072.52, 0.0366420
7082.18, 0.0360960
7091.87, 0.0356040
7101.58, 0.0351670
7111.32, 0.0345670
7121.09, 0.0340750
7130.88, 0.0336380
7140.71, 0.0329830
7150.56, 0.0323820
7160.43, 0.0318910
7170.33, 0.0313450
7180.27, 0.0311810
7190.23, 0.0307990
7200.21, 0.0301980
7210.23, 0.0296520
7220.27, 0.0293240
7230.34, 0.0289420
7240.44, 0.0284500
7250.56, 0.0279590
7260.72, 0.0275770
7270.9, 0.0270310
7281.12, 0.0264850
7291.36, 0.0260480
7301.63, 0.0256110
7311.93, 0.0251740
7322.25, 0.0247370
7332.61, 0.0242460
7343.0, 0.0239730
7353.41, 0.0237540
7363.86, 0.0234810
7374.33, 0.0230990
7384.83, 0.0227710
7395.37, 0.0224980
7405.93, 0.0222250
7416.53, 0.0219520
7427.15, 0.0216250
7437.81, 0.0213520
7448.5, 0.0212420
7459.22, 0.0209150
7469.96, 0.0206960
7480.74, 0.0204230
7491.55, 0.0203140
7502.39, 0.0201500
7513.27, 0.0199860
7524.17, 0.0197680
7535.11, 0.0195490
7546.08, 0.0193310
7557.08, 0.0191130
7568.11, 0.0188400
7579.17, 0.0185670
7590.27, 0.0183480
7601.4, 0.0180200
7612.56, 0.0176930
7623.76, 0.0174740
7634.98, 0.0172560
7646.24, 0.0169280
7657.54, 0.0164910
7668.87, 0.0161090
7680.23, 0.0158360
7691.62, 0.0155090
7703.05, 0.0150170
7714.51, 0.0147440
7726.01, 0.0145800
7737.54, 0.0143070
7749.11, 0.0138700
7760.71, 0.0135430
7772.35, 0.0132150
7784.02, 0.0129420
7795.72, 0.0127240
7807.46, 0.0125050
7819.23, 0.0120680
7831.04, 0.0117410
7842.89, 0.0115220
7854.77, 0.0113040
7866.69, 0.0108670
7878.65, 0.0105940
7890.64, 0.0103210
7902.67, 0.00999300
7914.74, 0.00966600
7926.84, 0.00928300
7938.98, 0.00895600
7951.16, 0.00868300
7963.37, 0.00824600
7975.62, 0.00797300
7987.91, 0.00775400
8000.24, 0.00748100
8012.6, 0.00709900
8025.01, 0.00682600
8037.45, 0.00666200
8049.93, 0.00649800
8062.45, 0.00622500
8075.01, 0.00595200
8087.61, 0.00562500
8100.24, 0.00551500
8112.91, 0.00529700
8125.63, 0.00513300
8138.39, 0.00496900
8151.18, 0.00486000
8164.02, 0.00475100
8176.9, 0.00464200
8189.81, 0.00458700
8202.77, 0.00458700
8215.77, 0.00453200
8228.82, 0.00453200
8241.9, 0.00464200
8255.02, 0.00486000
8268.19, 0.00507800
8281.39, 0.00529700
8294.65, 0.00562500
8307.94, 0.00611600
8321.28, 0.00666200
8334.66, 0.00737200
8348.08, 0.00819100
8361.54, 0.00895600
8375.05, 0.00977500
8388.6, 0.0107030
8402.2, 0.0117410
8415.84, 0.0129420
8429.52, 0.0144710
8443.25, 0.0163280
8457.02, 0.0182390
8470.84, 0.0204780
8484.7, 0.0230440
8498.61, 0.0259390
8512.57, 0.0291060
8526.57, 0.0324910
8540.62, 0.0363690
8554.71, 0.0408460
8568.85, 0.0457060
8583.04, 0.0507850
8597.27, 0.0559730
8611.55, 0.0606140
8625.88, 0.0640000
8640.26, 0.0660200
8654.68, 0.0668940
8669.16, 0.0668940
8683.68, 0.0662930
8698.25, 0.0654200
8712.87, 0.0643820
8727.53, 0.0632350
8742.25, 0.0621430
8757.02, 0.0610510
8771.83, 0.0596310
8786.7, 0.0582120
8801.62, 0.0566830
8816.59, 0.0549900
8831.61, 0.0532420
8846.68, 0.0518770
8861.8, 0.0507850
8876.97, 0.0500750
8892.2, 0.0501300
8907.48, 0.0511670
8922.81, 0.0528050
8938.2, 0.0544440
8953.63, 0.0558090
8969.13, 0.0569560
8984.67, 0.0579380
9000.27, 0.0589210
9015.92, 0.0599040
9031.63, 0.0610510
9047.39, 0.0623070
9063.21, 0.0635630
9079.08, 0.0648740
9095.01, 0.0665120
9111.0, 0.0683140
9127.04, 0.0701710
9143.13, 0.0720820
9159.28, 0.0742120
9175.49, 0.0765600
9191.76, 0.0790720
9208.09, 0.0815830
9224.47, 0.0840950
9240.92, 0.0865530
9257.42, 0.0890100
9273.98, 0.0910850
9290.6, 0.0928870
9307.28, 0.0944710
9324.02, 0.0957810
9340.82, 0.0969830
9357.68, 0.0978570
9374.6, 0.0985660
9391.58, 0.0991120
9408.62, 0.0997130
9425.73, 0.100532
9442.9, 0.101188
9460.13, 0.101734
9477.42, 0.102116
9494.78, 0.102171
9512.2, 0.101952
9529.69, 0.101843
9547.24, 0.101679
9564.86, 0.101351
9582.54, 0.101078
9600.28, 0.100587
9618.1, 0.0999320
9635.97, 0.0991670
9653.92, 0.0980750
9671.93, 0.0968190
9690.01, 0.0957270
9708.16, 0.0950170
9726.37, 0.0950170
9744.65, 0.0956720
9763.0, 0.0969830
9781.43, 0.0986760
9799.92, 0.100587
9818.48, 0.102771
9837.1, 0.104792
9855.8, 0.106703
9874.58, 0.108560
9893.42, 0.110580
9912.34, 0.112764
9931.33, 0.115003
9950.39, 0.117188
9969.52, 0.119372
9988.74, 0.121447
10008.0, 0.123304
10027.4, 0.124942
10046.8, 0.126307
10066.3, 0.127508
10085.9, 0.128382
10105.6, 0.128874
10125.3, 0.128983
10145.1, 0.128655
10165.0, 0.127781
10185.0, 0.126689
10205.0, 0.125379
10225.2, 0.124123
10245.4, 0.122921
10265.7, 0.121829
10286.0, 0.120901
10306.5, 0.119699
10327.0, 0.118389
10347.6, 0.117133
10368.3, 0.115877
10389.1, 0.114621
10409.9, 0.113201
10430.9, 0.111618
10451.9, 0.109652
10473.0, 0.107522
10494.2, 0.105338
10515.5, 0.102935
10536.9, 0.100259
10558.4, 0.0975290
10579.9, 0.0945250
10601.5, 0.0917400
10623.3, 0.0889010
10645.1, 0.0859520
10667.0, 0.0831130
10689.0, 0.0805460
10711.1, 0.0784160
10733.2, 0.0765050
10755.5, 0.0747580
10777.9, 0.0733920
10800.3, 0.0725730
10822.9, 0.0721360
10845.5, 0.0720270
10868.2, 0.0722460
10891.1, 0.0724090
10914.0, 0.0722460
10937.0, 0.0717540
10960.2, 0.0708260
10983.4, 0.0698430
11006.7, 0.0686420
11030.1, 0.0674950
11053.6, 0.0664570
11077.3, 0.0652010
11101.0, 0.0639450
11124.8, 0.0627440
11148.7, 0.0614880
11172.7, 0.0603960
11196.9, 0.0591940
11221.1, 0.0578290
11245.4, 0.0566280
11269.9, 0.0554810
11294.4, 0.0542800
11319.1, 0.0531880
11343.9, 0.0521500
11368.8, 0.0511130
11393.7, 0.0501300
11418.8, 0.0493110
11444.0, 0.0484910
11469.4, 0.0476720
11494.8, 0.0468530
11520.3, 0.0460340
11546.0, 0.0452700
11571.8, 0.0446140
11597.7, 0.0440680
11623.7, 0.0435220
11649.8, 0.0428670
11676.0, 0.0424300
11702.4, 0.0419930
11728.9, 0.0415560
11755.5, 0.0411740
11782.2, 0.0406830
11809.0, 0.0400820
11836.0, 0.0395900
11863.0, 0.0390440
11890.3, 0.0382250
11917.6, 0.0374610
11945.0, 0.0369150
11972.6, 0.0365320
12000.4, 0.0359860
12028.2, 0.0353310
12056.2, 0.0346210
12084.3, 0.0339660
12112.5, 0.0334740
12140.9, 0.0330370
12169.4, 0.0323820
12198.0, 0.0317270
12226.8, 0.0312350
12255.7, 0.0307440
12284.7, 0.0301430
12313.9, 0.0296520
12343.2, 0.0293240
12372.7, 0.0288870
12402.3, 0.0282870
12432.0, 0.0276310
12461.9, 0.0270850
12491.9, 0.0264850
12522.1, 0.0259930
12552.4, 0.0256110
12582.9, 0.0250650
12613.5, 0.0241360
12644.3, 0.0235900
12675.2, 0.0230990
12706.3, 0.0226070
12737.5, 0.0220070
12768.9, 0.0211330
12800.4, 0.0204780
12832.1, 0.0200960
12863.9, 0.0198770
12895.9, 0.0194400
12928.1, 0.0191130
12960.4, 0.0192760
12992.9, 0.0197680
13025.5, 0.0206960
13058.3, 0.0226070
13091.3, 0.0252830
13124.4, 0.0280140
13157.8, 0.0300890
13191.2, 0.0310170
13224.9, 0.0310720
13258.7, 0.0304160
13292.7, 0.0292700
13326.9, 0.0282320
13361.2, 0.0274680
13395.7, 0.0267580
13430.4, 0.0261020
13465.3, 0.0251190
13500.4, 0.0242460
13535.7, 0.0234270
13571.1, 0.0228260
13606.7, 0.0225530
13642.5, 0.0222800
13678.5, 0.0218430
13714.7, 0.0216250
13751.1, 0.0214610
13787.6, 0.0214060
13824.4, 0.0215700
13861.4, 0.0213520
13898.5, 0.0208600
13935.9, 0.0207510
13973.5, 0.0205870
14011.2, 0.0205870
14049.2, 0.0206420
14087.4, 0.0207510
14125.8, 0.0207510
14164.3, 0.0210240
14203.2, 0.0212420
14242.2, 0.0215150
14281.4, 0.0217340
14320.9, 0.0217340
14360.5, 0.0218430
14400.4, 0.0221710
14440.5, 0.0226070
14480.9, 0.0228810
14521.4, 0.0234810
14562.2, 0.0239180
14603.3, 0.0239730
14644.5, 0.0238090
14686.0, 0.0232080
14727.7, 0.0226620
14769.7, 0.0221710
14811.9, 0.0212420
14854.3, 0.0206960
14897.0, 0.0205320
14939.9, 0.0202050
14983.1, 0.0200960
15026.5, 0.0200960
15070.2, 0.0199320
15114.2, 0.0196590
15158.3, 0.0193860
15202.8, 0.0190030
15247.5, 0.0188400
15292.5, 0.0189490
15337.7, 0.0191130
15383.2, 0.0193860
15429.0, 0.0203690
15475.1, 0.0215700
15521.4, 0.0221710
15568.0, 0.0222250
15614.9, 0.0220610
15662.1, 0.0216790
15709.6, 0.0212420
15757.3, 0.0209690
15805.4, 0.0203690
15853.7, 0.0196040
15902.3, 0.0192760
15951.2, 0.0193310
16000.5, 0.0186760
16050.0, 0.0178570
16099.8, 0.0176930
16150.0, 0.0173650
16200.5, 0.0166550
16251.3, 0.0163820
16302.4, 0.0163820
16353.8, 0.0164370
16405.5, 0.0172560
16457.6, 0.0188400
16510.0, 0.0200960
16562.8, 0.0214060
16615.9, 0.0231540
16669.3, 0.0252830
16723.1, 0.0279040
16777.2, 0.0312900
16831.7, 0.0353860
16886.5, 0.0403000
16941.7, 0.0460890
16997.2, 0.0516590
17053.1, 0.0575560
17109.4, 0.0635630
17166.1, 0.0695150
17223.1, 0.0751400
17280.5, 0.0809280
17338.3, 0.0873720
17396.5, 0.0937610
17455.1, 0.100150
17514.0, 0.106211
17573.4, 0.111672
17633.2, 0.116314
17693.4, 0.120409
17754.0, 0.123085
17815.0, 0.124450
17876.4, 0.125160
17938.3, 0.125761
18000.5, 0.126307
18063.3, 0.126689
18126.4, 0.127672
18190.0, 0.129583
18254.1, 0.132532
18318.6, 0.137065
18383.5, 0.142034
18449.0, 0.146839
18514.9, 0.150935
18581.2, 0.154594
18648.0, 0.157925
18715.4, 0.160109
18783.2, 0.160382
18851.5, 0.160054
18920.3, 0.159891
18989.6, 0.158580
19059.4, 0.157106
19129.7, 0.155631
19200.6, 0.153501
19272.0, 0.151317
19343.9, 0.149078
19416.3, 0.147549
19489.3, 0.145693
19562.8, 0.143945
19637.0, 0.142307
19711.6, 0.141051
19786.8, 0.140833
19862.6, 0.140123
19939.0, 0.139413
20016.0, 0.138867
20093.6, 0.138375
20171.8, 0.138266
20250.6, 0.137392
20330.0, 0.136901
20410.0, 0.136901
20490.7, 0.137010
20572.0, 0.136901
20654.0, 0.136955
20736.6, 0.136628
20819.9, 0.135372
20903.8, 0.134880
20988.5, 0.135426
21073.8, 0.135699
21159.8, 0.137283
21246.5, 0.140013
21334.0, 0.141597
21422.1, 0.141870
21511.0, 0.143508
21600.7, 0.145092
21691.0, 0.144546
21782.1, 0.143836
21874.0, 0.143672
21966.7, 0.143454
22060.2, 0.142034
22154.5, 0.139413
22249.6, 0.135951
22345.5, 0.133915
22442.2, 0.131944
22539.8, 0.131024
22638.2, 0.130168
22737.5, 0.127989
22837.7, 0.125862
22938.7, 0.122309
23040.7, 0.118095
23143.5, 0.114840
23247.3, 0.112195
23352.1, 0.110042
23457.7, 0.106995
23564.4, 0.103701
23672.0, 0.101393
23780.5, 0.0995260
23890.1, 0.0988250
24000.7, 0.0986310
24112.3, 0.0981900
24225.0, 0.0974770
24338.7, 0.0962190
24453.5, 0.0939620
24569.4, 0.0926010
24686.4, 0.0921730
24804.5, 0.0913170
24923.8, 0.0913300
25044.2, 0.0920170
25165.8, 0.0913690
25288.6, 0.0921470
25412.5, 0.0932490
25537.7, 0.0944160
25664.1, 0.0966340
25791.8, 0.0976190
25920.8, 0.0973470
26051.1, 0.0975800
26182.6, 0.0968930
26315.5, 0.0949220
26449.8, 0.0937940
26585.4, 0.0921210
26722.5, 0.0904350
26860.9, 0.0903060
27000.8, 0.0901370
27142.1, 0.0904350
27285.0, 0.0910450
27429.4, 0.0908370
27575.3, 0.0908500
27722.7, 0.0922250
27871.8, 0.0937420
28022.4, 0.0957260
28174.7, 0.0982290
28328.7, 0.0996030
28484.4, 0.0998890
28641.7, 0.0990590
28800.9, 0.0992010
28961.8, 0.0996420
29124.5, 0.0988640
29289.0, 0.0973730
29455.4, 0.0962840
29623.8, 0.0938980
29794.0, 0.0914210
29966.3, 0.0896050
30140.5, 0.0882050
30316.7, 0.0865710
30495.1, 0.0845220
30675.5, 0.0836660
30858.1, 0.0832250
31042.8, 0.0810990
31229.8, 0.0807870
31419.1, 0.0808910
31610.7, 0.0799960
31804.6, 0.0797890
32000.9, 0.0801390
32199.7, 0.0810730
32400.9, 0.0807620
32604.8, 0.0797370
32811.1, 0.0796980
33020.1, 0.0789850
33231.8, 0.0785180
33446.2, 0.0782460
33663.4, 0.0770270
33883.4, 0.0767550
34106.3, 0.0755360
34332.1, 0.0733830
34561.0, 0.0725530
34792.9, 0.0714640
35028.0, 0.0715680
35266.3, 0.0717620
35507.8, 0.0703360
35752.7, 0.0693110
36001.0, 0.0683780
36252.8, 0.0673920
36508.1, 0.0676900
36767.0, 0.0664320
37029.7, 0.0654080
37296.1, 0.0645650
37566.3, 0.0627760
37840.5, 0.0617380
38118.8, 0.0601820
38401.2, 0.0585350
38687.8, 0.0575630
38978.6, 0.0557990
39273.9, 0.0548650
39573.7, 0.0557340
39878.1, 0.0574590
40187.3, 0.0591060
40501.2, 0.0600520
40820.0, 0.0616860
41144.0, 0.0654210
41473.2, 0.0679630
41807.6, 0.0714770
42147.5, 0.0764300
42493.0, 0.0809430
42844.2, 0.0834850
43201.2, 0.0821620
43564.3, 0.0791150
43933.5, 0.0763270
44309.0, 0.0748740
44691.0, 0.0740180
45079.6, 0.0734870
45475.0, 0.0735000
45877.5, 0.0749260
46287.1, 0.0743820
46704.2, 0.0724620
47128.7, 0.0723850
47561.1, 0.0731500
48001.5, 0.0735650
48450.1, 0.0718660
48907.2, 0.0708150
49373.0, 0.0687800
49847.7, 0.0666530
50331.5, 0.0659790
50825.0, 0.0642800
51328.2, 0.0613100
51841.5, 0.0614660
52365.1, 0.0623480
52899.4, 0.0593000
53444.8, 0.0582110
54001.5, 0.0572260
54570.1, 0.0582240
55150.6, 0.0614010
55743.6, 0.0651360
56349.5, 0.0683130
56968.7, 0.0697650
57601.7, 0.0703880
58248.9, 0.0718920
58910.9, 0.0734090
59588.1, 0.0751340
60281.0, 0.0744330
60990.2, 0.0742650
61716.3, 0.0768970
62459.8, 0.0787000
63221.6, 0.0797370
64002.1, 0.0778570
64802.1, 0.0770010
65622.1, 0.0798540
66463.4, 0.0951550
67326.6, 0.0871930
68212.4, 0.0749130
69121.9, 0.0794260
70056.0, 0.0816560
71015.7, 0.0795040
72002.0, 0.0796720
73016.3, 0.0795560
74059.4, 0.0771310
75132.7, 0.0784270
76237.6, 0.0810210
77375.5, 0.0810730
78547.9, 0.0816170
79756.3, 0.0825770
81002.5, 0.0812540
82288.5, 0.0794260
83615.7, 0.0831480
84986.5, 0.0833680
86402.9, 0.0818380
87867.4, 0.0750950
89382.4, 0.0679890
90950.5, 0.0798800
92574.6, 0.0833030
94257.2, 0.0815530
96002.7, 0.0798280
97814.1, 0.0818900
99695.1, 0.0893980
101650.0, 0.0914470
103683.0, 0.0878420
105799.0, 0.0822270
108003.0, 0.0779090
110301.0, 0.0839390
112699.0, 0.0885680
115204.0, 0.0879200
117822.0, 0.0908630
120562.0, 0.0880620
123433.0, 0.0858450
126443.0, 0.0916800
129604.0, 0.0917970
132926.0, 0.0844180
136424.0, 0.0742780
140111.0, 0.0750300
144003.0, 0.0833420
148118.0, 0.0917190
152474.0, 0.108603
157095.0, 0.110301
162004.0, 0.116565
167231.0, 0.127211
172805.0, 0.119288
178764.0, 0.116915
185148.0, 0.105555
192005.0, 0.0872840
199390.0, 0.0919270
207366.0, 0.0995900
216006.0, 0.0857670
