Database of Origin, USGS Spectral Database
Sample Description, See USGS database for additional info
Date Added,2016-08-10 05:16:03.342678

Data ID,USGS_nep02          
Sample ID, nepheline_hs19.15784
Mineral Name, nepheline
Material Class,Tectosilicate

Wavelength
1602.52, 0.405835
1603.02, 0.406062
1603.51, 0.405910
1604.01, 0.406440
1604.5, 0.407273
1605.0, 0.407425
1605.5, 0.407273
1606.0, 0.407500
1606.49, 0.407879
1606.99, 0.408485
1607.49, 0.408636
1607.99, 0.408257
1608.49, 0.408030
1608.99, 0.408409
1609.49, 0.408712
1609.99, 0.408939
1610.49, 0.409317
1610.99, 0.409469
1611.49, 0.409317
1611.99, 0.409242
1612.49, 0.409317
1612.99, 0.409393
1613.49, 0.409923
1614.0, 0.409923
1614.5, 0.410302
1615.0, 0.410756
1615.51, 0.410529
1616.01, 0.410378
1616.51, 0.411059
1617.02, 0.411816
1617.52, 0.411665
1618.03, 0.411362
1618.53, 0.411589
1619.04, 0.411589
1619.54, 0.411740
1620.05, 0.412043
1620.55, 0.412119
1621.06, 0.412346
1621.57, 0.412952
1622.08, 0.413406
1622.58, 0.413330
1623.09, 0.413330
1623.6, 0.413558
1624.11, 0.413936
1624.62, 0.413936
1625.13, 0.414012
1625.64, 0.414012
1626.15, 0.413860
1626.66, 0.414088
1627.17, 0.414769
1627.68, 0.415072
1628.19, 0.414845
1628.7, 0.414920
1629.21, 0.415375
1629.72, 0.415905
1630.24, 0.415829
1630.75, 0.415981
1631.26, 0.415753
1631.78, 0.415981
1632.29, 0.416359
1632.8, 0.416359
1633.32, 0.416132
1633.83, 0.416208
1634.35, 0.416435
1634.86, 0.416662
1635.38, 0.416889
1635.9, 0.416813
1636.41, 0.417192
1636.93, 0.417646
1637.45, 0.417495
1637.96, 0.417419
1638.48, 0.417722
1639.0, 0.417949
1639.52, 0.418328
1640.04, 0.418176
1640.56, 0.418101
1641.08, 0.418403
1641.59, 0.418555
1642.11, 0.418933
1642.63, 0.419388
1643.16, 0.419388
1643.68, 0.419236
1644.2, 0.419766
1644.72, 0.420448
1645.24, 0.420372
1645.76, 0.420069
1646.29, 0.420145
1646.81, 0.420296
1647.33, 0.420145
1647.86, 0.420145
1648.38, 0.420069
1648.9, 0.420221
1649.43, 0.420826
1649.95, 0.421432
1650.48, 0.421659
1651.0, 0.421583
1651.53, 0.421281
1652.06, 0.421281
1652.58, 0.421735
1653.11, 0.421811
1653.64, 0.422416
1654.17, 0.422492
1654.69, 0.422416
1655.22, 0.422643
1655.75, 0.422568
1656.28, 0.422643
1656.81, 0.422871
1657.34, 0.422946
1657.87, 0.423249
1658.4, 0.423628
1658.93, 0.423703
1659.46, 0.423628
1659.99, 0.423779
1660.52, 0.424006
1661.05, 0.424233
1661.59, 0.424309
1662.12, 0.424158
1662.65, 0.424233
1663.19, 0.424536
1663.72, 0.425066
1664.26, 0.425369
1664.79, 0.425218
1665.32, 0.425066
1665.86, 0.425445
1666.39, 0.425899
1666.93, 0.425748
1667.47, 0.425672
1668.0, 0.425899
1668.54, 0.426278
1669.08, 0.426353
1669.61, 0.426581
1670.15, 0.427186
1670.69, 0.427413
1671.23, 0.427186
1671.77, 0.426959
1672.31, 0.426883
1672.85, 0.427111
1673.39, 0.427413
1673.93, 0.427641
1674.47, 0.427641
1675.01, 0.427641
1675.55, 0.427792
1676.09, 0.428019
1676.64, 0.428322
1677.18, 0.428474
1677.72, 0.428398
1678.26, 0.428474
1678.81, 0.428852
1679.35, 0.429382
1679.89, 0.429231
1680.44, 0.429458
1680.98, 0.429912
1681.53, 0.429685
1682.07, 0.429458
1682.62, 0.429836
1683.17, 0.430442
1683.71, 0.430745
1684.26, 0.430821
1684.81, 0.430821
1685.36, 0.430669
1685.9, 0.430594
1686.45, 0.430972
1687.0, 0.431124
1687.55, 0.430896
1688.1, 0.430972
1688.65, 0.431729
1689.2, 0.432108
1689.75, 0.432108
1690.3, 0.432108
1690.85, 0.431956
1691.41, 0.432562
1691.96, 0.433016
1692.51, 0.433244
1693.06, 0.432941
1693.61, 0.432562
1694.17, 0.433016
1694.72, 0.433092
1695.28, 0.433168
1695.83, 0.433092
1696.39, 0.433244
1696.94, 0.433546
1697.5, 0.433698
1698.05, 0.433698
1698.61, 0.433622
1699.17, 0.433774
1699.72, 0.434076
1700.28, 0.434076
1700.84, 0.433849
1701.4, 0.433925
1701.95, 0.434076
1702.51, 0.434379
1703.07, 0.434606
1703.63, 0.434682
1704.19, 0.434758
1704.75, 0.434455
1705.31, 0.434531
1705.88, 0.434985
1706.44, 0.435288
1707.0, 0.435136
1707.56, 0.435061
1708.12, 0.435288
1708.69, 0.435515
1709.25, 0.435288
1709.81, 0.435288
1710.38, 0.435439
1710.94, 0.435667
1711.51, 0.435818
1712.07, 0.435742
1712.64, 0.435894
1713.2, 0.436045
1713.77, 0.436424
1714.34, 0.436575
1714.9, 0.436575
1715.47, 0.436575
1716.04, 0.436272
1716.61, 0.436121
1717.18, 0.436348
1717.74, 0.436802
1718.31, 0.436954
1718.88, 0.436954
1719.45, 0.437029
1720.02, 0.437181
1720.59, 0.437408
1721.17, 0.437332
1721.74, 0.437256
1722.31, 0.437484
1722.88, 0.437559
1723.45, 0.437635
1724.03, 0.437787
1724.6, 0.437938
1725.18, 0.437711
1725.75, 0.437711
1726.33, 0.437862
1726.9, 0.438089
1727.48, 0.438014
1728.05, 0.438014
1728.63, 0.438089
1729.2, 0.438165
1729.78, 0.438165
1730.36, 0.438392
1730.94, 0.438544
1731.51, 0.438544
1732.09, 0.438544
1732.67, 0.438771
1733.25, 0.438922
1733.83, 0.438998
1734.41, 0.438998
1734.99, 0.439225
1735.57, 0.439452
1736.15, 0.439225
1736.73, 0.439377
1737.32, 0.439452
1737.9, 0.439377
1738.48, 0.439452
1739.07, 0.439528
1739.65, 0.439528
1740.23, 0.439831
1740.82, 0.439907
1741.4, 0.440058
1741.99, 0.440209
1742.57, 0.440134
1743.16, 0.440285
1743.74, 0.440664
1744.33, 0.440739
1744.92, 0.440815
1745.51, 0.440664
1746.09, 0.440588
1746.68, 0.440664
1747.27, 0.441194
1747.86, 0.441421
1748.45, 0.441269
1749.04, 0.441194
1749.63, 0.441345
1750.22, 0.441497
1750.81, 0.441421
1751.4, 0.441497
1751.99, 0.441875
1752.59, 0.441875
1753.18, 0.442027
1753.77, 0.442254
1754.37, 0.442254
1754.96, 0.442178
1755.56, 0.442027
1756.15, 0.442254
1756.74, 0.442405
1757.34, 0.442557
1757.94, 0.442859
1758.53, 0.442859
1759.13, 0.443087
1759.73, 0.443314
1760.32, 0.443162
1760.92, 0.443087
1761.52, 0.443314
1762.12, 0.443314
1762.72, 0.443314
1763.32, 0.443768
1763.92, 0.443768
1764.52, 0.443617
1765.12, 0.443617
1765.72, 0.443844
1766.32, 0.443844
1766.92, 0.443768
1767.53, 0.444449
1768.13, 0.444677
1768.73, 0.444298
1769.34, 0.444298
1769.94, 0.444071
1770.55, 0.444222
1771.15, 0.444601
1771.76, 0.444677
1772.36, 0.444904
1772.97, 0.444979
1773.57, 0.445131
1774.18, 0.444904
1774.79, 0.445131
1775.4, 0.445282
1776.0, 0.445358
1776.61, 0.445661
1777.22, 0.445737
1777.83, 0.445737
1778.44, 0.445812
1779.05, 0.445661
1779.66, 0.445434
1780.27, 0.445661
1780.88, 0.446191
1781.5, 0.446494
1782.11, 0.446267
1782.72, 0.446267
1783.33, 0.446267
1783.95, 0.446494
1784.56, 0.446418
1785.18, 0.446418
1785.79, 0.446570
1786.41, 0.446721
1787.02, 0.446494
1787.64, 0.446645
1788.26, 0.446872
1788.87, 0.447251
1789.49, 0.447554
1790.11, 0.447327
1790.73, 0.446872
1791.35, 0.446721
1791.96, 0.447024
1792.58, 0.447251
1793.21, 0.447251
1793.83, 0.447024
1794.45, 0.447024
1795.07, 0.446948
1795.69, 0.447251
1796.31, 0.447554
1796.93, 0.447705
1797.56, 0.447705
1798.18, 0.447781
1798.8, 0.447932
1799.43, 0.447781
1800.05, 0.447781
1800.68, 0.447857
1801.3, 0.448008
1801.93, 0.448160
1802.56, 0.448008
1803.18, 0.448084
1803.81, 0.447857
1804.44, 0.447554
1805.07, 0.447554
1805.7, 0.447554
1806.33, 0.447857
1806.95, 0.448311
1807.58, 0.448462
1808.22, 0.448765
1808.85, 0.448690
1809.48, 0.448614
1810.11, 0.448538
1810.74, 0.448765
1811.38, 0.448614
1812.01, 0.448614
1812.64, 0.448614
1813.28, 0.448765
1813.91, 0.448841
1814.55, 0.448917
1815.18, 0.448765
1815.82, 0.448841
1816.45, 0.448992
1817.09, 0.449220
1817.73, 0.449068
1818.36, 0.449220
1819.0, 0.449598
1819.64, 0.449068
1820.28, 0.448538
1820.92, 0.448992
1821.56, 0.449371
1822.2, 0.449522
1822.84, 0.449750
1823.48, 0.450128
1824.12, 0.450204
1824.76, 0.450204
1825.41, 0.449750
1826.05, 0.449144
1826.69, 0.449825
1827.34, 0.450658
1827.98, 0.450507
1828.63, 0.450128
1829.27, 0.450280
1829.92, 0.450507
1830.56, 0.450204
1831.21, 0.450128
1831.86, 0.450658
1832.5, 0.450734
1833.15, 0.451112
1833.8, 0.451491
1834.45, 0.451037
1835.1, 0.451112
1835.75, 0.450734
1836.4, 0.450582
1837.05, 0.450734
1837.7, 0.450431
1838.35, 0.451340
1839.01, 0.451491
1839.66, 0.450810
1840.31, 0.451340
1840.96, 0.451718
1841.62, 0.450658
1842.27, 0.451037
1842.93, 0.452400
1843.58, 0.452778
1844.24, 0.453005
1844.9, 0.453005
1845.55, 0.452778
1846.21, 0.451718
1846.87, 0.450658
1847.53, 0.450885
1848.18, 0.451718
1848.84, 0.452475
1849.5, 0.452854
1850.16, 0.452930
1850.82, 0.453081
1851.48, 0.453308
1852.14, 0.453157
1852.81, 0.452551
1853.47, 0.451718
1854.13, 0.452097
1854.8, 0.453308
1855.46, 0.453611
1856.12, 0.452778
1856.79, 0.452627
1857.45, 0.453460
1858.12, 0.453990
1858.79, 0.453384
1859.45, 0.452400
1860.12, 0.452778
1860.79, 0.453914
1861.46, 0.454217
1862.12, 0.453762
1862.79, 0.453535
1863.46, 0.453460
1864.13, 0.453308
1864.8, 0.453460
1865.48, 0.453687
1866.15, 0.453762
1866.82, 0.453308
1867.49, 0.452248
1868.16, 0.452551
1868.84, 0.453081
1869.51, 0.453081
1870.19, 0.452400
1870.86, 0.451340
1871.54, 0.452475
1872.21, 0.452627
1872.89, 0.451112
1873.56, 0.451642
1874.24, 0.452400
1874.92, 0.452097
1875.6, 0.452172
1876.28, 0.452021
1876.96, 0.451567
1877.64, 0.451945
1878.32, 0.452324
1879.0, 0.452248
1879.68, 0.452097
1880.36, 0.451870
1881.04, 0.451567
1881.73, 0.451491
1882.41, 0.451340
1883.09, 0.451037
1883.78, 0.450355
1884.46, 0.450280
1885.15, 0.450355
1885.83, 0.449825
1886.52, 0.449447
1887.21, 0.449447
1887.89, 0.448992
1888.58, 0.448462
1889.27, 0.447630
1889.96, 0.446797
1890.65, 0.447024
1891.34, 0.447100
1892.03, 0.446570
1892.72, 0.446191
1893.41, 0.445737
1894.1, 0.445131
1894.79, 0.444752
1895.49, 0.444525
1896.18, 0.444071
1896.87, 0.443087
1897.57, 0.442102
1898.26, 0.441497
1898.96, 0.440361
1899.65, 0.439452
1900.35, 0.439528
1901.05, 0.439377
1901.74, 0.438544
1902.44, 0.436878
1903.14, 0.436121
1903.84, 0.435894
1904.54, 0.434304
1905.24, 0.432259
1905.94, 0.431275
1906.64, 0.430442
1907.34, 0.430064
1908.04, 0.429231
1908.75, 0.428019
1909.45, 0.426883
1910.15, 0.425672
1910.86, 0.424309
1911.56, 0.423552
1912.27, 0.423022
1912.97, 0.421735
1913.68, 0.420826
1914.39, 0.421129
1915.09, 0.420978
1915.8, 0.420448
1916.51, 0.420221
1917.22, 0.420145
1917.93, 0.420296
1918.64, 0.420145
1919.35, 0.419236
1920.06, 0.417949
1920.77, 0.417798
1921.48, 0.418782
1922.19, 0.419160
1922.91, 0.418858
1923.62, 0.418252
1924.33, 0.418025
1925.05, 0.418025
1925.76, 0.417873
1926.48, 0.417722
1927.19, 0.417571
1927.91, 0.417571
1928.63, 0.417571
1929.35, 0.417949
1930.07, 0.418176
1930.78, 0.418555
1931.5, 0.419085
1932.22, 0.419615
1932.94, 0.419993
1933.66, 0.420372
1934.39, 0.421129
1935.11, 0.421659
1935.83, 0.421962
1936.55, 0.422568
1937.28, 0.423249
1938.0, 0.424006
1938.73, 0.424461
1939.45, 0.425066
1940.18, 0.425748
1940.9, 0.426202
1941.63, 0.426883
1942.36, 0.427489
1943.09, 0.428246
1943.81, 0.428776
1944.54, 0.429004
1945.27, 0.429458
1946.0, 0.430064
1946.73, 0.430745
1947.47, 0.431351
1948.2, 0.431654
1948.93, 0.432335
1949.66, 0.433016
1950.4, 0.433546
1951.13, 0.433849
1951.86, 0.434455
1952.6, 0.435591
1953.34, 0.435969
1954.07, 0.436121
1954.81, 0.436727
1955.55, 0.437181
1956.29, 0.437711
1957.02, 0.438392
1957.76, 0.438922
1958.5, 0.439377
1959.24, 0.439831
1959.98, 0.440134
1960.72, 0.440361
1961.47, 0.440815
1962.21, 0.441345
1962.95, 0.441875
1963.7, 0.442027
1964.44, 0.442254
1965.18, 0.442859
1965.93, 0.443314
1966.67, 0.443238
1967.42, 0.443541
1968.17, 0.443768
1968.92, 0.443919
1969.66, 0.444147
1970.41, 0.444374
1971.16, 0.444677
1971.91, 0.445055
1972.66, 0.445282
1973.41, 0.445282
1974.16, 0.445207
1974.92, 0.445434
1975.67, 0.445964
1976.42, 0.446267
1977.18, 0.446267
1977.93, 0.446418
1978.69, 0.446645
1979.44, 0.446721
1980.2, 0.447024
1980.95, 0.447251
1981.71, 0.447327
1982.47, 0.447554
1983.23, 0.447705
1983.99, 0.447705
1984.74, 0.448084
1985.51, 0.448084
1986.27, 0.447932
1987.03, 0.448235
1987.79, 0.448614
1988.55, 0.448765
1989.32, 0.448917
1990.08, 0.449144
1990.84, 0.449144
1991.61, 0.449068
1992.37, 0.448992
1993.14, 0.448992
1993.9, 0.449295
1994.67, 0.449674
1995.44, 0.449750
1996.21, 0.449825
1996.98, 0.449977
1997.75, 0.450052
1998.52, 0.450052
1999.29, 0.450204
2000.06, 0.450355
2000.83, 0.450507
2001.6, 0.450658
2002.38, 0.451037
2003.15, 0.450885
2003.93, 0.450810
2004.7, 0.451037
2005.48, 0.451264
2006.25, 0.451264
2007.03, 0.451415
2007.81, 0.451642
2008.58, 0.451794
2009.36, 0.452097
2010.14, 0.452324
2010.92, 0.452324
2011.7, 0.452172
2012.48, 0.452324
2013.26, 0.452778
2014.05, 0.452930
2014.83, 0.452702
2015.61, 0.452778
2016.4, 0.453005
2017.18, 0.453232
2017.97, 0.453460
2018.75, 0.453535
2019.54, 0.453687
2020.32, 0.453762
2021.11, 0.453762
2021.9, 0.454065
2022.69, 0.454368
2023.48, 0.454444
2024.27, 0.454368
2025.06, 0.454520
2025.85, 0.454747
2026.64, 0.454974
2027.44, 0.455428
2028.23, 0.455277
2029.02, 0.455352
2029.82, 0.455580
2030.61, 0.455958
2031.41, 0.456110
2032.2, 0.456261
2033.0, 0.456564
2033.8, 0.456715
2034.6, 0.456564
2035.4, 0.456412
2036.2, 0.456564
2037.0, 0.456867
2037.8, 0.457170
2038.6, 0.457321
2039.4, 0.457473
2040.2, 0.457397
2041.01, 0.457397
2041.81, 0.457624
2042.61, 0.458003
2043.42, 0.458154
2044.22, 0.458381
2045.03, 0.458381
2045.84, 0.458230
2046.65, 0.458381
2047.46, 0.458608
2048.26, 0.458533
2049.07, 0.458457
2049.88, 0.458533
2050.69, 0.458760
2051.51, 0.458835
2052.32, 0.458835
2053.13, 0.458987
2053.94, 0.459138
2054.76, 0.459138
2055.57, 0.459214
2056.39, 0.459517
2057.2, 0.459668
2058.02, 0.459593
2058.84, 0.459593
2059.66, 0.459517
2060.48, 0.459441
2061.29, 0.459517
2062.11, 0.459820
2062.94, 0.460198
2063.76, 0.459971
2064.58, 0.459744
2065.4, 0.459971
2066.22, 0.460047
2067.05, 0.460047
2067.87, 0.460198
2068.7, 0.460501
2069.52, 0.460198
2070.35, 0.459820
2071.18, 0.459971
2072.0, 0.460350
2072.83, 0.460350
2073.66, 0.460425
2074.49, 0.460577
2075.32, 0.460425
2076.15, 0.460198
2076.98, 0.460198
2077.82, 0.460350
2078.65, 0.460501
2079.48, 0.460577
2080.32, 0.460577
2081.15, 0.460577
2081.99, 0.460501
2082.83, 0.460501
2083.66, 0.460577
2084.5, 0.460653
2085.34, 0.460728
2086.18, 0.460880
2087.02, 0.460804
2087.86, 0.460653
2088.7, 0.460804
2089.54, 0.460804
2090.39, 0.460880
2091.23, 0.460804
2092.07, 0.460880
2092.92, 0.460880
2093.76, 0.460728
2094.61, 0.460728
2095.45, 0.460880
2096.3, 0.460880
2097.15, 0.460880
2098.0, 0.460880
2098.85, 0.460728
2099.7, 0.460501
2100.55, 0.460728
2101.4, 0.460880
2102.25, 0.460804
2103.1, 0.460804
2103.96, 0.460880
2104.81, 0.460880
2105.67, 0.461031
2106.52, 0.461258
2107.38, 0.461107
2108.24, 0.460955
2109.09, 0.461031
2109.95, 0.461258
2110.81, 0.461258
2111.67, 0.461334
2112.53, 0.461410
2113.39, 0.461410
2114.25, 0.461334
2115.12, 0.461258
2115.98, 0.461410
2116.84, 0.461410
2117.71, 0.461258
2118.58, 0.461334
2119.44, 0.461485
2120.31, 0.461637
2121.18, 0.461637
2122.04, 0.461788
2122.91, 0.461637
2123.78, 0.461561
2124.65, 0.461713
2125.52, 0.461864
2126.4, 0.461864
2127.27, 0.461864
2128.14, 0.462167
2129.02, 0.462167
2129.89, 0.462167
2130.77, 0.462167
2131.64, 0.462167
2132.52, 0.462167
2133.4, 0.462243
2134.27, 0.462167
2135.15, 0.462470
2136.03, 0.462621
2136.91, 0.462394
2137.79, 0.462243
2138.68, 0.462318
2139.56, 0.462545
2140.44, 0.462545
2141.33, 0.462394
2142.21, 0.462545
2143.1, 0.462773
2143.99, 0.462924
2144.87, 0.463151
2145.76, 0.463075
2146.65, 0.463151
2147.54, 0.463151
2148.43, 0.463075
2149.32, 0.463151
2150.21, 0.463303
2151.1, 0.463303
2151.99, 0.463530
2152.89, 0.463681
2153.78, 0.463454
2154.68, 0.463303
2155.57, 0.463378
2156.47, 0.463227
2157.37, 0.463303
2158.27, 0.463530
2159.16, 0.463757
2160.06, 0.463833
2160.96, 0.463757
2161.86, 0.463757
2162.77, 0.463757
2163.67, 0.463605
2164.57, 0.463681
2165.48, 0.463833
2166.38, 0.463757
2167.29, 0.463757
2168.2, 0.463757
2169.1, 0.464561
2170.01, 0.464427
2170.92, 0.464159
2171.83, 0.464025
2172.74, 0.463824
2173.65, 0.463623
2174.56, 0.463221
2175.47, 0.463154
2176.39, 0.463355
2177.3, 0.463623
2178.22, 0.463757
2179.13, 0.463288
2180.05, 0.462886
2180.96, 0.462886
2181.88, 0.462886
2182.8, 0.462216
2183.72, 0.461881
2184.64, 0.461881
2185.56, 0.462015
2186.48, 0.461546
2187.41, 0.461010
2188.33, 0.460608
2189.25, 0.460675
2190.18, 0.460809
2191.1, 0.461010
2192.03, 0.460876
2192.96, 0.460474
2193.89, 0.460005
2194.82, 0.460273
2195.74, 0.460273
2196.68, 0.460005
2197.61, 0.460206
2198.54, 0.460407
2199.47, 0.460340
2200.4, 0.460273
2201.34, 0.460809
2202.28, 0.460943
2203.21, 0.461077
2204.15, 0.461345
2205.08, 0.461479
2206.02, 0.461948
2206.96, 0.462350
2207.9, 0.462618
2208.84, 0.462618
2209.78, 0.462953
2210.73, 0.463422
2211.67, 0.463355
2212.61, 0.463355
2213.56, 0.463623
2214.5, 0.463824
2215.45, 0.464159
2216.4, 0.464494
2217.35, 0.464628
2218.3, 0.464628
2219.24, 0.464427
2220.2, 0.464427
2221.15, 0.464762
2222.1, 0.465030
2223.05, 0.465231
2224.0, 0.465633
2224.96, 0.465566
2225.91, 0.465164
2226.87, 0.464829
2227.83, 0.465231
2228.79, 0.465499
2229.74, 0.465566
2230.7, 0.465298
2231.66, 0.465030
2232.63, 0.465164
2233.59, 0.465298
2234.55, 0.465432
2235.51, 0.465298
2236.48, 0.465499
2237.44, 0.465633
2238.41, 0.465566
2239.38, 0.465767
2240.34, 0.465499
2241.31, 0.465298
2242.28, 0.465499
2243.25, 0.465834
2244.22, 0.465365
2245.19, 0.465030
2246.17, 0.464963
2247.14, 0.465030
2248.12, 0.465164
2249.09, 0.465097
2250.07, 0.465231
2251.04, 0.465231
2252.02, 0.465164
2253.0, 0.464762
2253.98, 0.464695
2254.96, 0.464829
2255.94, 0.464829
2256.92, 0.464628
2257.91, 0.465030
2258.89, 0.465499
2259.88, 0.465633
2260.86, 0.465164
2261.85, 0.464963
2262.83, 0.464695
2263.82, 0.464360
2264.81, 0.464226
2265.8, 0.464226
2266.79, 0.464628
2267.78, 0.464896
2268.78, 0.465097
2269.77, 0.464494
2270.76, 0.463891
2271.76, 0.463824
2272.75, 0.464226
2273.75, 0.464360
2274.75, 0.464092
2275.75, 0.464092
2276.75, 0.464226
2277.75, 0.464025
2278.75, 0.464025
2279.75, 0.463824
2280.75, 0.463824
2281.76, 0.463556
2282.76, 0.463355
2283.77, 0.463556
2284.77, 0.463824
2285.78, 0.463690
2286.79, 0.463221
2287.8, 0.463221
2288.81, 0.463288
2289.82, 0.463355
2290.83, 0.463623
2291.84, 0.463623
2292.86, 0.463288
2293.87, 0.463355
2294.89, 0.463087
2295.91, 0.463221
2296.92, 0.463422
2297.94, 0.463087
2298.96, 0.462886
2299.98, 0.462953
2301.0, 0.462819
2302.02, 0.462886
2303.04, 0.463221
2304.07, 0.463154
2305.09, 0.463020
2306.12, 0.462551
2307.15, 0.462417
2308.17, 0.462484
2309.2, 0.462618
2310.23, 0.462551
2311.26, 0.462350
2312.29, 0.462149
2313.32, 0.461680
2314.35, 0.461814
2315.39, 0.462082
2316.42, 0.461948
2317.46, 0.462082
2318.5, 0.462015
2319.53, 0.461613
2320.57, 0.461881
2321.61, 0.462082
2322.65, 0.461948
2323.69, 0.461546
2324.73, 0.461010
2325.78, 0.460474
2326.82, 0.460608
2327.86, 0.460876
2328.91, 0.460809
2329.96, 0.460675
2331.01, 0.460273
2332.05, 0.460340
2333.1, 0.460138
2334.15, 0.459803
2335.21, 0.459870
2336.26, 0.459737
2337.31, 0.459334
2338.36, 0.459066
2339.42, 0.458932
2340.48, 0.458865
2341.53, 0.458664
2342.59, 0.458128
2343.65, 0.457659
2344.71, 0.457525
2345.77, 0.457592
2346.83, 0.457927
2347.9, 0.457726
2348.96, 0.457123
2350.02, 0.456721
2351.09, 0.456520
2352.16, 0.456252
2353.23, 0.455917
2354.29, 0.455582
2355.36, 0.455046
2356.43, 0.455046
2357.51, 0.455381
2358.58, 0.455247
2359.65, 0.455180
2360.73, 0.455247
2361.8, 0.455247
2362.88, 0.455113
2363.96, 0.454845
2365.03, 0.454577
2366.11, 0.454644
2367.19, 0.454577
2368.27, 0.454309
2369.36, 0.454175
2370.44, 0.453974
2371.53, 0.453773
2372.61, 0.453572
2373.7, 0.453103
2374.78, 0.452433
2375.87, 0.452433
2376.96, 0.452701
2378.05, 0.452433
2379.14, 0.452098
2380.24, 0.451696
2381.33, 0.451294
2382.42, 0.451227
2383.52, 0.450892
2384.61, 0.450557
2385.71, 0.450288
2386.81, 0.449953
2387.91, 0.449551
2389.01, 0.449216
2390.11, 0.448747
2391.22, 0.448680
2392.32, 0.448680
2393.42, 0.448211
2394.53, 0.447541
2395.64, 0.447139
2396.74, 0.446871
2397.85, 0.446201
2398.96, 0.445665
2400.07, 0.445397
2401.18, 0.445196
2402.3, 0.444861
2403.41, 0.444124
2404.52, 0.443052
2405.64, 0.442717
2406.76, 0.442248
2407.88, 0.441712
2408.99, 0.441444
2410.11, 0.440907
2411.23, 0.440237
2412.36, 0.439500
2413.48, 0.439165
2414.6, 0.438763
2415.73, 0.438026
2416.85, 0.437088
2417.98, 0.435949
2419.11, 0.435212
2420.24, 0.435145
2421.37, 0.434676
2422.5, 0.434073
2423.64, 0.433135
2424.77, 0.432465
2425.9, 0.432130
2427.04, 0.431459
2428.18, 0.430387
2429.31, 0.429516
2430.45, 0.428913
2431.59, 0.428511
2432.73, 0.427908
2433.88, 0.427238
2435.02, 0.426702
2436.16, 0.426233
2437.31, 0.425764
2438.45, 0.425295
2439.6, 0.424692
2440.75, 0.424089
2441.9, 0.423687
2443.05, 0.423419
2444.2, 0.423017
2445.35, 0.422413
2446.51, 0.421877
2447.67, 0.421810
2448.82, 0.421609
2449.98, 0.421341
2451.14, 0.421274
2452.3, 0.421140
2453.46, 0.420872
2454.62, 0.420805
2455.78, 0.420872
2456.94, 0.420805
2458.11, 0.420671
2459.28, 0.420872
2460.44, 0.421006
2461.61, 0.420872
2462.78, 0.420805
2463.95, 0.420939
2465.12, 0.420939
2466.3, 0.421006
2467.47, 0.421207
2468.65, 0.421073
2469.82, 0.421006
2471.0, 0.421274
2472.18, 0.421274
2473.36, 0.421408
2474.54, 0.421274
2475.72, 0.421207
2476.9, 0.421274
2478.08, 0.421274
2479.27, 0.420805
2480.46, 0.420336
2481.64, 0.420604
2482.83, 0.421006
2484.02, 0.421140
2485.21, 0.421140
2486.4, 0.420872
2487.6, 0.420939
2488.79, 0.420738
2489.99, 0.420537
2491.18, 0.420604
2492.38, 0.420805
2493.58, 0.420738
2494.78, 0.420671
2495.98, 0.420805
2497.18, 0.421207
2498.39, 0.421542
2499.59, 0.421676
2500.8, 0.421207
2502.01, 0.420939
2503.21, 0.420872
2504.42, 0.420939
2505.63, 0.420872
2506.84, 0.420872
2508.06, 0.420872
2509.27, 0.421073
2510.49, 0.421274
2511.7, 0.421609
2512.92, 0.421676
2514.14, 0.421609
2515.36, 0.421408
2516.58, 0.421140
2517.8, 0.420872
2519.03, 0.421207
2520.25, 0.421475
2521.48, 0.421274
2522.7, 0.420939
2523.93, 0.420805
2525.16, 0.420805
2526.39, 0.420872
2527.62, 0.420872
2528.86, 0.420939
2530.09, 0.420403
2531.33, 0.419331
2532.56, 0.419130
2533.8, 0.419465
2535.04, 0.418795
2536.28, 0.418460
2537.52, 0.419532
2538.76, 0.420135
2540.01, 0.420269
2541.25, 0.419331
2542.5, 0.417991
2543.75, 0.418460
2544.99, 0.419264
2546.24, 0.419063
2547.49, 0.418058
2548.75, 0.418594
2550.0, 0.418192
2551.26, 0.417053
2552.51, 0.416517
2553.77, 0.418259
2555.03, 0.419599
2556.29, 0.419934
2557.55, 0.420001
2558.81, 0.418661
2560.08, 0.414708
2561.34, 0.411156
2562.61, 0.410888
2563.88, 0.411759
2565.14, 0.415445
2566.41, 0.418862
2567.68, 0.417991
2568.96, 0.414239
2570.23, 0.414708
2571.51, 0.416450
2572.78, 0.411491
2574.06, 0.412697
2575.34, 0.415177
2576.62, 0.413569
2577.9, 0.415914
2579.18, 0.417522
2580.47, 0.414440
2581.75, 0.413301
2583.04, 0.408677
2584.32, 0.408811
2585.61, 0.413032
2586.9, 0.411089
2588.2, 0.411893
2589.49, 0.414239
2590.78, 0.416316
2592.08, 0.413837
2593.37, 0.400435
2594.67, 0.389312
2595.97, 0.399899
2597.27, 0.412161
2598.57, 0.416316
2599.88, 0.415378
2601.18, 0.412831
2602.49, 0.411089
2603.79, 0.407337
2605.1, 0.402043
2606.41, 0.405059
2607.72, 0.409615
2609.03, 0.410687
2610.35, 0.412362
2611.66, 0.413770
2612.98, 0.412898
2614.3, 0.413099
2615.62, 0.407002
2616.94, 0.403316
2618.26, 0.407739
2619.58, 0.403987
2620.91, 0.404791
2622.23, 0.412429
2623.56, 0.414172
2624.89, 0.411022
2626.22, 0.404992
2627.55, 0.407806
2628.88, 0.405997
2630.21, 0.399564
2631.55, 0.404992
2632.89, 0.408476
2634.22, 0.408476
2635.56, 0.411156
2636.9, 0.412027
2638.25, 0.412094
2639.59, 0.411290
2640.93, 0.410419
2642.28, 0.409548
2643.63, 0.409347
2644.98, 0.406935
2646.33, 0.406868
2647.68, 0.408342
2649.03, 0.408878
2650.39, 0.407002
2651.74, 0.402914
2653.1, 0.402512
2654.46, 0.403316
2655.82, 0.402780
2657.18, 0.403987
2658.54, 0.400636
2659.9, 0.398492
2661.27, 0.398626
2662.64, 0.397822
2664.01, 0.389044
2665.38, 0.381137
2666.74, 0.381204
2668.12, 0.386431
2669.49, 0.378189
2670.87, 0.376715
2672.24, 0.388575
2673.62, 0.390317
2675.0, 0.384621
2676.38, 0.378859
2677.76, 0.379261
2679.15, 0.379730
2680.54, 0.383750
2681.92, 0.383549
2683.31, 0.380802
2684.7, 0.379663
2686.09, 0.378390
2687.48, 0.377452
2688.88, 0.376916
2690.27, 0.376044
2691.67, 0.372225
2693.07, 0.364519
2694.47, 0.361973
2695.87, 0.363983
2697.27, 0.365591
2698.67, 0.364452
2700.08, 0.360030
2701.49, 0.356478
2702.9, 0.356143
2704.31, 0.354066
2705.72, 0.350984
2707.13, 0.346025
2708.54, 0.338252
2709.96, 0.329407
2711.38, 0.326124
2712.8, 0.328402
2714.22, 0.325990
2715.64, 0.321032
2717.06, 0.314733
2718.49, 0.306826
2719.91, 0.295569
2721.34, 0.293559
2722.77, 0.291816
2724.2, 0.284781
2725.63, 0.284178
2727.07, 0.284580
2728.5, 0.281832
2729.94, 0.277611
2731.38, 0.273456
2732.82, 0.268096
2734.26, 0.260926
2735.7, 0.257576
2737.15, 0.253823
2738.59, 0.244643
2740.04, 0.237809
2741.49, 0.236401
2742.94, 0.235932
2744.39, 0.232783
2745.84, 0.228093
2747.3, 0.223201
2748.76, 0.218645
2750.21, 0.213686
2751.67, 0.208794
2753.14, 0.203099
2754.6, 0.194790
2756.06, 0.191440
2757.53, 0.192043
2759.0, 0.189965
2760.46, 0.185811
2761.94, 0.180450
2763.41, 0.177368
2764.88, 0.175961
2766.36, 0.173281
2767.83, 0.170399
2769.31, 0.167786
2770.79, 0.165307
2772.27, 0.164704
2773.76, 0.163900
2775.24, 0.162224
2776.73, 0.160080
2778.22, 0.158338
2779.71, 0.156261
2781.2, 0.154251
2782.69, 0.152508
2784.18, 0.150632
2785.68, 0.147550
2787.18, 0.145004
2788.68, 0.143932
2790.18, 0.142859
2791.68, 0.140983
2793.19, 0.138571
2794.69, 0.136360
2796.2, 0.134416
2797.71, 0.132272
2799.22, 0.130128
2800.73, 0.127448
2802.24, 0.124767
2803.76, 0.123427
2805.28, 0.123092
2806.8, 0.122422
2808.32, 0.121752
2809.84, 0.121417
2811.36, 0.121015
2812.89, 0.120479
2814.42, 0.120412
2815.94, 0.120546
2817.48, 0.120144
2819.01, 0.119608
2820.54, 0.119809
2822.08, 0.120211
2823.61, 0.120546
2825.15, 0.120814
2826.69, 0.121082
2828.23, 0.121484
2829.78, 0.122020
2831.32, 0.122422
2832.87, 0.122690
2834.42, 0.122958
2835.97, 0.123226
2837.52, 0.123159
2839.08, 0.123092
2840.63, 0.122891
2842.19, 0.122556
2843.75, 0.121819
2845.31, 0.120613
2846.87, 0.119139
2848.44, 0.117397
2850.0, 0.115855
2851.57, 0.114180
2853.14, 0.111902
2854.71, 0.109825
2856.28, 0.108150
2857.86, 0.106608
2859.43, 0.105201
2861.01, 0.104196
2862.59, 0.103258
2864.17, 0.102856
2865.76, 0.102722
2867.34, 0.102655
2868.93, 0.103191
2870.52, 0.103794
2872.11, 0.104732
2873.7, 0.106005
2875.29, 0.107145
2876.89, 0.108753
2878.49, 0.110763
2880.08, 0.112572
2881.69, 0.114381
2883.29, 0.116123
2884.89, 0.117799
2886.5, 0.119340
2888.11, 0.120613
2889.72, 0.121618
2891.33, 0.122757
2892.94, 0.123628
2894.56, 0.124231
2896.17, 0.124767
2897.79, 0.125102
2899.42, 0.125371
2901.04, 0.125371
2902.66, 0.125773
2904.29, 0.126577
2905.92, 0.127381
2907.55, 0.128118
2909.18, 0.129190
2910.81, 0.130530
2912.45, 0.132071
2914.08, 0.133746
2915.72, 0.136025
2917.36, 0.138638
2919.01, 0.140983
2920.65, 0.143194
2922.3, 0.145674
2923.94, 0.148287
2925.59, 0.151034
2927.25, 0.153715
2928.9, 0.156060
2930.56, 0.158405
2932.21, 0.160683
2933.87, 0.162694
2935.53, 0.164570
2937.2, 0.166513
2938.86, 0.168255
2940.53, 0.169997
2942.2, 0.171538
2943.87, 0.172812
2945.54, 0.174152
2947.22, 0.175291
2948.89, 0.176430
2950.57, 0.177703
2952.25, 0.178641
2953.93, 0.179713
2955.62, 0.180852
2957.3, 0.181657
2958.99, 0.182394
2960.68, 0.183265
2962.37, 0.184203
2964.07, 0.185074
2965.76, 0.185811
2967.46, 0.186481
2969.16, 0.187218
2970.86, 0.188022
2972.56, 0.188692
2974.27, 0.189429
2975.98, 0.190300
2977.69, 0.190971
2979.4, 0.191708
2981.11, 0.192378
2982.83, 0.192914
2984.54, 0.193517
2986.26, 0.194254
2987.98, 0.194924
2989.71, 0.195460
2991.43, 0.195996
2993.16, 0.196532
2994.89, 0.196934
2996.62, 0.197269
2998.35, 0.197939
3000.09, 0.198341
3001.83, 0.198609
3003.57, 0.199011
3005.31, 0.199212
3007.05, 0.199279
3008.79, 0.199547
3010.54, 0.199816
3012.29, 0.199883
3014.04, 0.199816
3015.8, 0.199749
3017.55, 0.199681
3019.31, 0.199614
3021.07, 0.199346
3022.83, 0.199145
3024.59, 0.199011
3026.36, 0.198609
3028.13, 0.198207
3029.9, 0.197939
3031.67, 0.197470
3033.44, 0.196800
3035.22, 0.196063
3037.0, 0.195661
3038.78, 0.195460
3040.56, 0.195393
3042.34, 0.195192
3044.13, 0.194924
3045.92, 0.194857
3047.71, 0.194924
3049.5, 0.194991
3051.3, 0.195326
3053.09, 0.195929
3054.89, 0.196465
3056.69, 0.197001
3058.5, 0.197537
3060.3, 0.198408
3062.11, 0.199279
3063.92, 0.200151
3065.73, 0.200955
3067.55, 0.201960
3069.36, 0.203032
3071.18, 0.204104
3073.0, 0.205310
3074.82, 0.206449
3076.65, 0.207655
3078.48, 0.208995
3080.31, 0.210068
3082.14, 0.211408
3083.97, 0.212815
3085.8, 0.214155
3087.64, 0.215428
3089.48, 0.216768
3091.33, 0.218242
3093.17, 0.219583
3095.02, 0.220856
3096.87, 0.222397
3098.72, 0.223804
3100.57, 0.225278
3102.43, 0.226752
3104.28, 0.228227
3106.14, 0.229768
3108.01, 0.231309
3109.87, 0.232515
3111.74, 0.233788
3113.61, 0.235262
3115.48, 0.236736
3117.35, 0.238211
3119.23, 0.239551
3121.1, 0.240891
3122.98, 0.242231
3124.87, 0.243370
3126.75, 0.244375
3128.64, 0.245648
3130.53, 0.246855
3132.42, 0.248061
3134.31, 0.249267
3136.21, 0.250540
3138.11, 0.251679
3140.01, 0.252952
3141.91, 0.254225
3143.82, 0.255298
3145.73, 0.256236
3147.64, 0.257308
3149.55, 0.258447
3151.46, 0.259519
3153.38, 0.260457
3155.3, 0.261261
3157.22, 0.262266
3159.14, 0.263204
3161.07, 0.264142
3163.0, 0.265014
3164.93, 0.265885
3166.86, 0.266823
3168.8, 0.267895
3170.74, 0.268833
3172.68, 0.269704
3174.62, 0.270441
3176.56, 0.271312
3178.51, 0.272049
3180.46, 0.272920
3182.42, 0.273993
3184.37, 0.274797
3186.33, 0.275601
3188.29, 0.276539
3190.25, 0.277276
3192.21, 0.277946
3194.18, 0.278750
3196.15, 0.279487
3198.12, 0.280358
3200.09, 0.281162
3202.07, 0.281765
3204.05, 0.282435
3206.03, 0.283038
3208.02, 0.283575
3210.0, 0.284178
3211.99, 0.285049
3213.98, 0.285853
3215.98, 0.286389
3217.97, 0.287059
3219.97, 0.287662
3221.97, 0.288265
3223.98, 0.288868
3225.98, 0.289538
3227.99, 0.290007
3230.0, 0.290409
3232.02, 0.291146
3234.03, 0.291950
3236.05, 0.292554
3238.07, 0.293224
3240.1, 0.293827
3242.12, 0.294564
3244.15, 0.295301
3246.18, 0.295971
3248.22, 0.296842
3250.25, 0.297981
3252.29, 0.298986
3254.33, 0.299790
3256.38, 0.300527
3258.43, 0.301398
3260.47, 0.302337
3262.53, 0.303476
3264.58, 0.304615
3266.64, 0.305486
3268.7, 0.306290
3270.76, 0.307094
3272.82, 0.307965
3274.89, 0.309037
3276.96, 0.309908
3279.04, 0.310779
3281.11, 0.311651
3283.19, 0.312522
3285.27, 0.313460
3287.35, 0.314264
3289.44, 0.315001
3291.53, 0.316140
3293.62, 0.317279
3295.71, 0.318284
3297.81, 0.319021
3299.91, 0.319892
3302.01, 0.320764
3304.11, 0.321568
3306.22, 0.322305
3308.33, 0.323042
3310.44, 0.323913
3312.56, 0.324583
3314.68, 0.325320
3316.8, 0.326124
3318.92, 0.326928
3321.05, 0.327665
3323.18, 0.328402
3325.31, 0.329072
3327.44, 0.329675
3329.58, 0.330413
3331.72, 0.331284
3333.86, 0.332021
3336.01, 0.332691
3338.16, 0.333361
3340.31, 0.333964
3342.46, 0.334634
3344.61, 0.335237
3346.77, 0.335974
3348.94, 0.336778
3351.1, 0.337515
3353.27, 0.338118
3355.44, 0.338922
3357.61, 0.339794
3359.79, 0.340397
3361.97, 0.341067
3364.15, 0.341670
3366.33, 0.342206
3368.52, 0.342742
3370.71, 0.343278
3372.9, 0.343747
3375.1, 0.344283
3377.3, 0.344886
3379.5, 0.345556
3381.71, 0.346293
3383.91, 0.346896
3386.12, 0.347432
3388.34, 0.347968
3390.55, 0.348505
3392.77, 0.349041
3394.99, 0.349510
3397.22, 0.349912
3399.45, 0.350448
3401.68, 0.350850
3403.91, 0.351185
3406.15, 0.351520
3408.39, 0.351922
3410.63, 0.352190
3412.87, 0.352458
3415.12, 0.352726
3417.37, 0.353061
3419.63, 0.353597
3421.88, 0.354200
3424.14, 0.354736
3426.41, 0.355406
3428.67, 0.356143
3430.94, 0.356880
3433.21, 0.357685
3435.49, 0.358221
3437.77, 0.358690
3440.05, 0.359025
3442.33, 0.359427
3444.62, 0.359896
3446.91, 0.360097
3449.2, 0.360432
3451.5, 0.360901
3453.8, 0.361571
3456.1, 0.362241
3458.41, 0.362911
3460.72, 0.363514
3463.03, 0.364251
3465.34, 0.364921
3467.66, 0.365591
3469.98, 0.366261
3472.31, 0.366730
3474.63, 0.367401
3476.96, 0.368138
3479.3, 0.368674
3481.64, 0.369076
3483.97, 0.369545
3486.32, 0.370014
3488.66, 0.370483
3491.01, 0.371019
3493.36, 0.371555
3495.72, 0.372292
3498.08, 0.372962
3500.44, 0.373498
3502.81, 0.374101
3505.18, 0.374704
3507.55, 0.375374
3509.92, 0.376044
3512.3, 0.376849
3514.68, 0.377787
3517.06, 0.378859
3519.45, 0.379797
3521.84, 0.380400
3524.24, 0.381070
3526.64, 0.381874
3529.04, 0.382477
3531.44, 0.383080
3533.85, 0.383750
3536.26, 0.384152
3538.67, 0.384554
3541.09, 0.384956
3543.51, 0.385359
3545.93, 0.386029
3548.36, 0.386431
3550.79, 0.387034
3553.22, 0.387637
3555.66, 0.388173
3558.1, 0.388709
3560.54, 0.389111
3562.99, 0.389446
3565.44, 0.390049
3567.9, 0.390451
3570.35, 0.390585
3572.81, 0.390987
3575.28, 0.391322
3577.75, 0.391724
3580.22, 0.392059
3582.69, 0.392461
3585.17, 0.392796
3587.65, 0.393064
3590.14, 0.393399
3592.62, 0.393734
3595.11, 0.394136
3597.61, 0.394538
3600.11, 0.394739
3602.61, 0.395008
3605.11, 0.395276
3607.62, 0.395544
3610.14, 0.395544
3612.65, 0.395477
3615.17, 0.395410
3617.69, 0.395544
3620.22, 0.395544
3622.75, 0.395410
3625.28, 0.395410
3627.82, 0.395544
3630.36, 0.395879
3632.9, 0.396281
3635.45, 0.396817
3638.0, 0.397420
3640.56, 0.398157
3643.12, 0.398760
3645.68, 0.399430
3648.24, 0.399899
3650.81, 0.400435
3653.39, 0.400904
3655.96, 0.401306
3658.54, 0.401708
3661.13, 0.402110
3663.71, 0.402512
3666.3, 0.402914
3668.9, 0.403115
3671.5, 0.403249
3674.1, 0.403450
3676.7, 0.403651
3679.31, 0.403987
3681.93, 0.404322
3684.54, 0.404456
3687.17, 0.404523
3689.79, 0.404724
3692.42, 0.404925
3695.05, 0.405126
3697.69, 0.405193
3700.32, 0.405327
3702.97, 0.405394
3705.61, 0.405528
3708.27, 0.405662
3710.92, 0.405662
3713.58, 0.405863
3716.24, 0.406064
3718.91, 0.405997
3721.58, 0.405997
3724.25, 0.406131
3726.93, 0.406198
3729.61, 0.406265
3732.29, 0.406265
3734.98, 0.406399
3737.67, 0.406466
3740.37, 0.406466
3743.07, 0.406533
3745.78, 0.406600
3748.49, 0.406734
3751.2, 0.406734
3753.91, 0.406801
3756.63, 0.406801
3759.36, 0.406868
3762.09, 0.406868
3764.82, 0.406868
3767.55, 0.406868
3770.29, 0.406801
3773.04, 0.406801
3775.78, 0.406935
3778.54, 0.407069
3781.29, 0.407002
3784.05, 0.407002
3786.82, 0.407002
3789.59, 0.407002
3792.36, 0.407002
3795.13, 0.406935
3797.92, 0.406935
3800.7, 0.406935
3803.49, 0.406868
3806.28, 0.406868
3809.08, 0.406801
3811.88, 0.406734
3814.68, 0.406667
3817.49, 0.406466
3820.31, 0.406265
3823.12, 0.406198
3825.94, 0.406131
3828.77, 0.405796
3831.6, 0.405461
3834.43, 0.405260
3837.27, 0.405059
3840.11, 0.405059
3842.96, 0.405193
3845.81, 0.405260
3848.67, 0.405461
3851.53, 0.405796
3854.39, 0.406131
3857.26, 0.406466
3860.13, 0.406734
3863.01, 0.407002
3865.89, 0.407136
3868.77, 0.407136
3871.66, 0.407069
3874.55, 0.406868
3877.45, 0.406600
3880.35, 0.406265
3883.26, 0.405863
3886.17, 0.405327
3889.09, 0.404992
3892.01, 0.404992
3894.93, 0.404992
3897.86, 0.404925
3900.79, 0.404992
3903.73, 0.405126
3906.67, 0.404992
3909.62, 0.404523
3912.57, 0.403919
3915.52, 0.403182
3918.48, 0.402445
3921.45, 0.401775
3924.42, 0.401239
3927.39, 0.401038
3930.37, 0.400837
3933.35, 0.400435
3936.34, 0.399899
3939.33, 0.399497
3942.32, 0.398894
3945.32, 0.398358
3948.33, 0.397889
3951.34, 0.397956
3954.35, 0.398425
3957.37, 0.399095
3960.39, 0.399698
3963.42, 0.400234
3966.45, 0.400569
3969.49, 0.400837
3972.53, 0.400904
3975.58, 0.400770
3978.63, 0.400435
3981.68, 0.399966
3984.75, 0.399363
3987.81, 0.398894
3990.88, 0.398492
3993.95, 0.398157
3997.03, 0.397822
4000.12, 0.397487
4003.21, 0.397085
4006.3, 0.396750
4009.4, 0.396616
4012.5, 0.396549
4015.61, 0.396281
4018.72, 0.395879
4021.84, 0.395611
4024.96, 0.395477
4028.09, 0.395276
4031.22, 0.395209
4034.36, 0.395075
4037.5, 0.394672
4040.65, 0.394002
4043.8, 0.393399
4046.96, 0.392796
4050.12, 0.392260
4053.29, 0.391724
4056.46, 0.391188
4059.64, 0.390786
4062.82, 0.390518
4066.0, 0.390451
4069.19, 0.390384
4072.39, 0.390116
4075.59, 0.389647
4078.8, 0.389044
4082.01, 0.388039
4085.23, 0.386967
4088.45, 0.386163
4091.68, 0.385761
4094.91, 0.385828
4098.15, 0.386163
4101.39, 0.386297
4104.63, 0.386431
4107.89, 0.386364
4111.14, 0.386163
4114.41, 0.385828
4117.67, 0.385157
4120.95, 0.384353
4124.23, 0.383750
4127.51, 0.383281
4130.8, 0.382946
4134.09, 0.382879
4137.39, 0.382879
4140.7, 0.383080
4144.01, 0.383214
4147.32, 0.383482
4150.64, 0.384085
4153.97, 0.384621
4157.3, 0.385291
4160.64, 0.386029
4163.98, 0.386565
4167.33, 0.387034
4170.68, 0.387302
4174.04, 0.387369
4177.4, 0.387436
4180.77, 0.387235
4184.14, 0.386967
4187.52, 0.386766
4190.91, 0.386498
4194.3, 0.386163
4197.69, 0.385694
4201.1, 0.385090
4204.5, 0.384353
4207.92, 0.383482
4211.34, 0.382477
4214.76, 0.381271
4218.19, 0.380266
4221.62, 0.379261
4225.06, 0.378189
4228.51, 0.377251
4231.96, 0.376648
4235.42, 0.376245
4238.88, 0.376112
4242.35, 0.376179
4245.83, 0.376514
4249.31, 0.377050
4252.79, 0.377720
4256.28, 0.377988
4259.78, 0.377184
4263.29, 0.375977
4266.79, 0.374838
4270.31, 0.373967
4273.83, 0.373431
4277.35, 0.372962
4280.89, 0.372627
4284.42, 0.372359
4287.97, 0.372091
4291.52, 0.371823
4295.07, 0.371689
4298.63, 0.371689
4302.2, 0.371622
4305.78, 0.371421
4309.35, 0.371354
4312.94, 0.371220
4316.53, 0.371086
4320.13, 0.371019
4323.73, 0.370818
4327.34, 0.370483
4330.96, 0.370014
4334.58, 0.369679
4338.21, 0.369210
4341.84, 0.368741
4345.48, 0.368138
4349.12, 0.367669
4352.77, 0.367066
4356.43, 0.366529
4360.1, 0.365859
4363.76, 0.365122
4367.44, 0.364519
4371.12, 0.363715
4374.81, 0.362978
4378.51, 0.362174
4382.21, 0.361370
4385.92, 0.360633
4389.63, 0.359762
4393.35, 0.358757
4397.08, 0.357886
4400.81, 0.357014
4404.55, 0.356009
4408.29, 0.355071
4412.04, 0.354133
4415.8, 0.352994
4419.57, 0.351721
4423.34, 0.350582
4427.12, 0.349510
4430.9, 0.348437
4434.69, 0.347164
4438.49, 0.345891
4442.29, 0.344484
4446.1, 0.343077
4449.92, 0.341603
4453.74, 0.340196
4457.57, 0.338654
4461.41, 0.337113
4465.25, 0.335572
4469.1, 0.333897
4472.95, 0.332222
4476.82, 0.330547
4480.69, 0.328804
4484.56, 0.326928
4488.44, 0.325052
4492.33, 0.323243
4496.23, 0.321434
4500.13, 0.319490
4504.04, 0.317480
4507.96, 0.315604
4511.88, 0.313795
4515.81, 0.311919
4519.75, 0.309975
4523.69, 0.308166
4527.65, 0.306357
4531.6, 0.304548
4535.57, 0.302672
4539.54, 0.300795
4543.52, 0.298919
4547.5, 0.297110
4551.5, 0.295301
4555.5, 0.293425
4559.5, 0.291548
4563.52, 0.289739
4567.54, 0.287930
4571.56, 0.286054
4575.6, 0.284312
4579.64, 0.282703
4583.69, 0.281028
4587.75, 0.279353
4591.81, 0.277745
4595.88, 0.276338
4599.96, 0.274998
4604.04, 0.273590
4608.14, 0.272183
4612.24, 0.270843
4616.34, 0.269503
4620.46, 0.268297
4624.58, 0.267158
4628.71, 0.265818
4632.84, 0.264343
4636.99, 0.263070
4641.14, 0.261730
4645.3, 0.260256
4649.47, 0.258849
4653.64, 0.257375
4657.82, 0.255901
4662.01, 0.254426
4666.21, 0.252751
4670.41, 0.251076
4674.62, 0.249401
4678.84, 0.247659
4683.07, 0.245916
4687.3, 0.244107
4691.54, 0.242231
4695.79, 0.240221
4700.05, 0.238144
4704.31, 0.236066
4708.59, 0.233855
4712.87, 0.231443
4717.15, 0.228964
4721.45, 0.226350
4725.76, 0.223670
4730.07, 0.220923
4734.39, 0.218108
4738.72, 0.215227
4743.05, 0.212212
4747.39, 0.209197
4751.75, 0.206114
4756.1, 0.203099
4760.47, 0.200084
4764.85, 0.197001
4769.23, 0.193919
4773.62, 0.190971
4778.02, 0.188156
4782.43, 0.185476
4786.85, 0.182930
4791.27, 0.180316
4795.7, 0.177971
4800.14, 0.175693
4804.59, 0.173549
4809.05, 0.171337
4813.51, 0.168925
4817.99, 0.166915
4822.47, 0.164972
4826.96, 0.163096
4831.46, 0.161353
4835.96, 0.159544
4840.48, 0.157869
4845.0, 0.156395
4849.54, 0.154921
4854.08, 0.153447
4858.63, 0.152173
4863.18, 0.151101
4867.75, 0.149962
4872.33, 0.149091
4876.91, 0.148354
4881.5, 0.147818
4886.1, 0.147617
4890.71, 0.147684
4895.33, 0.148086
4899.96, 0.148756
4904.59, 0.149761
4909.24, 0.151034
4913.89, 0.152441
4918.55, 0.153916
4923.22, 0.155390
4927.9, 0.156864
4932.59, 0.158472
4937.29, 0.160013
4942.0, 0.161420
4946.71, 0.162828
4951.44, 0.164101
4956.17, 0.165106
4960.91, 0.165910
4965.67, 0.166379
4970.43, 0.166312
4975.2, 0.165709
4979.98, 0.164771
4984.76, 0.163498
4989.56, 0.161889
4994.37, 0.160147
4999.18, 0.158405
5004.01, 0.156663
5008.84, 0.154988
5013.69, 0.153111
5018.54, 0.151034
5023.4, 0.149359
5028.28, 0.147751
5033.16, 0.145942
5038.05, 0.143864
5042.95, 0.141586
5047.86, 0.139040
5052.78, 0.136427
5057.71, 0.133880
5062.65, 0.131535
5067.6, 0.129257
5072.56, 0.126979
5077.53, 0.125102
5082.5, 0.123494
5087.49, 0.122288
5092.49, 0.121283
5097.5, 0.120345
5102.51, 0.119608
5107.54, 0.119005
5112.58, 0.118536
5117.62, 0.118201
5122.68, 0.118134
5127.75, 0.118469
5132.82, 0.119273
5137.91, 0.120479
5143.01, 0.122154
5148.12, 0.124231
5153.23, 0.127247
5158.36, 0.130262
5163.5, 0.133344
5168.65, 0.136427
5173.81, 0.139509
5178.98, 0.142658
5184.15, 0.146076
5189.34, 0.149761
5194.54, 0.153514
5199.75, 0.157601
5204.98, 0.162291
5210.21, 0.166379
5215.45, 0.171069
5220.7, 0.176363
5225.96, 0.180785
5231.23, 0.184672
5236.52, 0.188089
5241.81, 0.191440
5247.12, 0.194388
5252.44, 0.196666
5257.76, 0.198341
5263.1, 0.199749
5268.45, 0.200754
5273.81, 0.201223
5279.18, 0.201558
5284.56, 0.201558
5289.95, 0.200687
5295.36, 0.200486
5300.77, 0.200352
5306.2, 0.199480
5311.63, 0.198475
5317.08, 0.197269
5322.54, 0.195929
5328.01, 0.194388
5333.49, 0.192646
5338.98, 0.190636
5344.49, 0.187486
5350.0, 0.184069
5355.53, 0.182662
5361.07, 0.181255
5366.62, 0.178976
5372.18, 0.176430
5377.75, 0.173817
5383.34, 0.171203
5388.93, 0.168657
5394.54, 0.166044
5400.16, 0.163498
5405.79, 0.160616
5411.44, 0.157802
5417.09, 0.153782
5422.76, 0.150297
5428.43, 0.149493
5434.12, 0.147684
5439.83, 0.144736
5445.54, 0.141921
5451.26, 0.139308
5457.0, 0.136226
5462.75, 0.132607
5468.52, 0.130329
5474.29, 0.127850
5480.08, 0.125102
5485.88, 0.123293
5491.69, 0.120948
5497.51, 0.118603
5503.35, 0.116258
5509.2, 0.113979
5515.06, 0.111500
5520.93, 0.109088
5526.82, 0.107212
5532.71, 0.105536
5538.63, 0.103660
5544.55, 0.101583
5550.49, 0.0993720
5556.44, 0.0978980
5562.4, 0.0966240
5568.37, 0.0950830
5574.36, 0.0926040
5580.36, 0.0910630
5586.37, 0.0909960
5592.4, 0.0903260
5598.44, 0.0888520
5604.49, 0.0875780
5610.56, 0.0866400
5616.63, 0.0856350
5622.73, 0.0846300
5628.83, 0.0832230
5634.95, 0.0812130
5641.08, 0.0788670
5647.23, 0.0784650
5653.39, 0.0778620
5659.56, 0.0770580
5665.74, 0.0761200
5671.94, 0.0740430
5678.15, 0.0726360
5684.38, 0.0716310
5690.62, 0.0700230
5696.87, 0.0688160
5703.14, 0.0671410
5709.42, 0.0648630
5715.72, 0.0636570
5722.03, 0.0627860
5728.35, 0.0618480
5734.69, 0.0605750
5741.03, 0.0591670
5747.4, 0.0576260
5753.78, 0.0567550
5760.17, 0.0546110
5766.58, 0.0524000
5773.0, 0.0527350
5779.44, 0.0524000
5785.88, 0.0513950
5792.35, 0.0504560
5798.83, 0.0493840
5805.32, 0.0483120
5811.83, 0.0467040
5818.35, 0.0445600
5824.89, 0.0436220
5831.45, 0.0436890
5838.01, 0.0434210
5844.59, 0.0429520
5851.19, 0.0421480
5857.8, 0.0412090
5864.43, 0.0404050
5871.07, 0.0398020
5877.73, 0.0379260
5884.4, 0.0375910
5891.09, 0.0376580
5897.79, 0.0372560
5904.5, 0.0380600
5911.23, 0.0381940
5917.98, 0.0378590
5924.75, 0.0373900
5931.53, 0.0360500
5938.32, 0.0356480
5945.13, 0.0367870
5951.96, 0.0370550
5958.8, 0.0369210
5965.65, 0.0362510
5972.53, 0.0363180
5979.42, 0.0365860
5986.32, 0.0360500
5993.24, 0.0363180
6000.18, 0.0369210
6007.13, 0.0367200
6014.1, 0.0365190
6021.08, 0.0367870
6028.09, 0.0369210
6035.1, 0.0367200
6042.14, 0.0351790
6049.19, 0.0340400
6056.25, 0.0357820
6063.34, 0.0363850
6070.44, 0.0356480
6077.55, 0.0359160
6084.69, 0.0365860
6091.84, 0.0365860
6099.0, 0.0363850
6106.19, 0.0357150
6113.39, 0.0353800
6120.61, 0.0366530
6127.84, 0.0379930
6135.09, 0.0387300
6142.36, 0.0394670
6149.65, 0.0405390
6156.95, 0.0414770
6164.27, 0.0427510
6171.61, 0.0438900
6178.97, 0.0438900
6186.34, 0.0442250
6193.73, 0.0460340
6201.14, 0.0470390
6208.57, 0.0473740
6216.01, 0.0476420
6223.47, 0.0481780
6230.95, 0.0487140
6238.45, 0.0492500
6245.97, 0.0498530
6253.5, 0.0504560
6261.06, 0.0510590
6268.63, 0.0517970
6276.21, 0.0526010
6283.82, 0.0534050
6291.45, 0.0542090
6299.1, 0.0549460
6306.76, 0.0557500
6314.44, 0.0566880
6322.14, 0.0575590
6329.86, 0.0582960
6337.6, 0.0578270
6345.35, 0.0578270
6353.13, 0.0600380
6360.92, 0.0609100
6368.74, 0.0607760
6376.57, 0.0619150
6384.43, 0.0627860
6392.3, 0.0630540
6400.19, 0.0625180
6408.1, 0.0596360
6416.03, 0.0588320
6423.98, 0.0609100
6431.95, 0.0614460
6439.94, 0.0614460
6447.95, 0.0609100
6455.98, 0.0597700
6464.03, 0.0583630
6472.1, 0.0562860
6480.19, 0.0540750
6488.31, 0.0512610
6496.44, 0.0499200
6504.59, 0.0503890
6512.76, 0.0492500
6520.95, 0.0472400
6529.16, 0.0462350
6537.4, 0.0447610
6545.65, 0.0427510
6553.92, 0.0408740
6562.22, 0.0390650
6570.54, 0.0371220
6578.88, 0.0364520
6587.23, 0.0359160
6595.61, 0.0351790
6604.02, 0.0347100
6612.44, 0.0338390
6620.89, 0.0329680
6629.35, 0.0315600
6637.84, 0.0304880
6646.35, 0.0310910
6654.88, 0.0314260
6663.44, 0.0308900
6672.01, 0.0301530
6680.61, 0.0297510
6689.23, 0.0298850
6697.88, 0.0298850
6706.54, 0.0294160
6715.23, 0.0292150
6723.94, 0.0293490
6732.67, 0.0296170
6741.42, 0.0296840
6750.2, 0.0296840
6759.0, 0.0298850
6767.82, 0.0298850
6776.67, 0.0298180
6785.54, 0.0297510
6794.44, 0.0302200
6803.35, 0.0312250
6812.29, 0.0316270
6821.26, 0.0315600
6830.24, 0.0320290
6839.25, 0.0327670
6848.29, 0.0329010
6857.35, 0.0323640
6866.43, 0.0325660
6875.54, 0.0337720
6884.67, 0.0340400
6893.82, 0.0340400
6903.0, 0.0339730
6912.2, 0.0340400
6921.43, 0.0339730
6930.69, 0.0337720
6939.96, 0.0335710
6949.27, 0.0327670
6958.59, 0.0316270
6967.95, 0.0316270
6977.33, 0.0314930
6986.73, 0.0308900
6996.16, 0.0304210
7005.61, 0.0302200
7015.09, 0.0298180
7024.6, 0.0293490
7034.13, 0.0287460
7043.69, 0.0280090
7053.27, 0.0279420
7062.88, 0.0280760
7072.52, 0.0279420
7082.18, 0.0275400
7091.87, 0.0273390
7101.58, 0.0272050
7111.32, 0.0268030
7121.09, 0.0265350
7130.88, 0.0262670
7140.71, 0.0259320
7150.56, 0.0255300
7160.43, 0.0252620
7170.33, 0.0249940
7180.27, 0.0251280
7190.23, 0.0249940
7200.21, 0.0245920
7210.23, 0.0243910
7220.27, 0.0244580
7230.34, 0.0243910
7240.44, 0.0243240
7250.56, 0.0241230
7260.72, 0.0239220
7270.9, 0.0238550
7281.12, 0.0239890
7291.36, 0.0240560
7301.63, 0.0241230
7311.93, 0.0241900
7322.25, 0.0243240
7332.61, 0.0241900
7343.0, 0.0241230
7353.41, 0.0241900
7363.86, 0.0240560
7374.33, 0.0238550
7384.83, 0.0237880
7395.37, 0.0237210
7405.93, 0.0237210
7416.53, 0.0237210
7427.15, 0.0235870
7437.81, 0.0233190
7448.5, 0.0231170
7459.22, 0.0229160
7469.96, 0.0227820
7480.74, 0.0225140
7491.55, 0.0222460
7502.39, 0.0220450
7513.27, 0.0216430
7524.17, 0.0213080
7535.11, 0.0211070
7546.08, 0.0208390
7557.08, 0.0204370
7568.11, 0.0200350
7579.17, 0.0197000
7590.27, 0.0192980
7601.4, 0.0188290
7612.56, 0.0185610
7623.76, 0.0182260
7634.98, 0.0177570
7646.24, 0.0173550
7657.54, 0.0170200
7668.87, 0.0166850
7680.23, 0.0162160
7691.62, 0.0158140
7703.05, 0.0154120
7714.51, 0.0150770
7726.01, 0.0146080
7737.54, 0.0143400
7749.11, 0.0139380
7760.71, 0.0134010
7772.35, 0.0130660
7784.02, 0.0127310
7795.72, 0.0123960
7807.46, 0.0120610
7819.23, 0.0117930
7831.04, 0.0115250
7842.89, 0.0111230
7854.77, 0.0107210
7866.69, 0.0103860
7878.65, 0.0100510
7890.64, 0.00971600
7902.67, 0.00944800
7914.74, 0.00918000
7926.84, 0.00877800
7938.98, 0.00844300
7951.16, 0.00810800
7963.37, 0.00777300
7975.62, 0.00750500
7987.91, 0.00730400
8000.24, 0.00717000
8012.6, 0.00690200
8025.01, 0.00663400
8037.45, 0.00643300
8049.93, 0.00603100
8062.45, 0.00576300
8075.01, 0.00549500
8087.61, 0.00529400
8100.24, 0.00522700
8112.91, 0.00502600
8125.63, 0.00482500
8138.39, 0.00462300
8151.18, 0.00448900
8164.02, 0.00428800
8176.9, 0.00422100
8189.81, 0.00395300
8202.77, 0.00395300
8215.77, 0.00388600
8228.82, 0.00381900
8241.9, 0.00368500
8255.02, 0.00361800
8268.19, 0.00361800
8281.39, 0.00368500
8294.65, 0.00375200
8307.94, 0.00368500
8321.28, 0.00368500
8334.66, 0.00388600
8348.08, 0.00395300
8361.54, 0.00408700
8375.05, 0.00428800
8388.6, 0.00462300
8402.2, 0.00495900
8415.84, 0.00536100
8429.52, 0.00589700
8443.25, 0.00683500
8457.02, 0.00777300
8470.84, 0.00891200
8484.7, 0.0104530
8498.61, 0.0122620
8512.57, 0.0142060
8526.57, 0.0166180
8540.62, 0.0194990
8554.71, 0.0225810
8568.85, 0.0261330
8583.04, 0.0304880
8597.27, 0.0353130
8611.55, 0.0404050
8625.88, 0.0460340
8640.26, 0.0521320
8654.68, 0.0586980
8669.16, 0.0654660
8683.68, 0.0726360
8698.25, 0.0800740
8712.87, 0.0876450
8727.53, 0.0955520
8742.25, 0.103794
8757.02, 0.112036
8771.83, 0.120077
8786.7, 0.127917
8801.62, 0.135757
8816.59, 0.143395
8831.61, 0.150565
8846.68, 0.157199
8861.8, 0.163297
8876.97, 0.168791
8892.2, 0.173951
8907.48, 0.178842
8922.81, 0.183935
8938.2, 0.189362
8953.63, 0.195259
8969.13, 0.201759
8984.67, 0.209130
9000.27, 0.217237
9015.92, 0.225814
9031.63, 0.234391
9047.39, 0.242231
9063.21, 0.248731
9079.08, 0.253287
9095.01, 0.255566
9111.0, 0.255700
9127.04, 0.253689
9143.13, 0.249870
9159.28, 0.244509
9175.49, 0.237742
9191.76, 0.229835
9208.09, 0.221593
9224.47, 0.213619
9240.92, 0.206181
9257.42, 0.199749
9273.98, 0.194522
9290.6, 0.191105
9307.28, 0.189496
9324.02, 0.189563
9340.82, 0.191976
9357.68, 0.197068
9374.6, 0.205243
9391.58, 0.216366
9408.62, 0.230304
9425.73, 0.246386
9442.9, 0.263606
9460.13, 0.281229
9477.42, 0.298919
9494.78, 0.316140
9512.2, 0.332289
9529.69, 0.346025
9547.24, 0.356143
9564.86, 0.362174
9582.54, 0.363581
9600.28, 0.360164
9618.1, 0.352994
9635.97, 0.344082
9653.92, 0.335840
9671.93, 0.330815
9690.01, 0.330212
9708.16, 0.333160
9726.37, 0.338185
9744.65, 0.343412
9763.0, 0.348102
9781.43, 0.351453
9799.92, 0.353664
9818.48, 0.354602
9837.1, 0.354602
9855.8, 0.354267
9874.58, 0.354133
9893.42, 0.354200
9912.34, 0.354200
9931.33, 0.353262
9950.39, 0.351386
9969.52, 0.348974
9988.74, 0.345958
10008.0, 0.342005
10027.4, 0.337314
10046.8, 0.331284
10066.3, 0.324248
10085.9, 0.317212
10105.6, 0.311047
10125.3, 0.305754
10145.1, 0.300996
10165.0, 0.295904
10185.0, 0.289538
10205.0, 0.281765
10225.2, 0.272920
10245.4, 0.263003
10265.7, 0.252818
10286.0, 0.242700
10306.5, 0.233118
10327.0, 0.223804
10347.6, 0.214624
10368.3, 0.205712
10389.1, 0.197202
10409.9, 0.188893
10430.9, 0.180919
10451.9, 0.173616
10473.0, 0.167116
10494.2, 0.161085
10515.5, 0.155457
10536.9, 0.150230
10558.4, 0.145473
10579.9, 0.141184
10601.5, 0.137365
10623.3, 0.133679
10645.1, 0.130195
10667.0, 0.126979
10689.0, 0.123963
10711.1, 0.121216
10733.2, 0.118536
10755.5, 0.115989
10777.9, 0.113577
10800.3, 0.111299
10822.9, 0.109021
10845.5, 0.106742
10868.2, 0.104732
10891.1, 0.102923
10914.0, 0.101181
10937.0, 0.0995060
10960.2, 0.0979650
10983.4, 0.0966240
11006.7, 0.0953510
11030.1, 0.0941450
11053.6, 0.0930730
11077.3, 0.0919340
11101.0, 0.0905940
11124.8, 0.0893210
11148.7, 0.0879800
11172.7, 0.0866400
11196.9, 0.0855680
11221.1, 0.0846300
11245.4, 0.0837590
11269.9, 0.0826870
11294.4, 0.0816820
11319.1, 0.0808780
11343.9, 0.0800740
11368.8, 0.0793370
11393.7, 0.0785320
11418.8, 0.0781300
11444.0, 0.0775270
11469.4, 0.0766560
11494.8, 0.0755840
11520.3, 0.0746460
11546.0, 0.0738420
11571.8, 0.0730380
11597.7, 0.0724350
11623.7, 0.0717650
11649.8, 0.0710280
11676.0, 0.0704920
11702.4, 0.0699560
11728.9, 0.0694190
11755.5, 0.0688160
11782.2, 0.0682130
11809.0, 0.0676100
11836.0, 0.0670070
11863.0, 0.0663370
11890.3, 0.0656000
11917.6, 0.0649970
11945.0, 0.0644610
11972.6, 0.0637910
12000.4, 0.0631880
12028.2, 0.0623840
12056.2, 0.0615130
12084.3, 0.0607760
12112.5, 0.0602390
12140.9, 0.0596360
12169.4, 0.0589660
12198.0, 0.0583630
12226.8, 0.0576930
12255.7, 0.0568220
12284.7, 0.0560850
12313.9, 0.0553480
12343.2, 0.0545440
12372.7, 0.0536730
12402.3, 0.0528690
12432.0, 0.0517970
12461.9, 0.0507240
12491.9, 0.0498530
12522.1, 0.0488480
12552.4, 0.0477760
12582.9, 0.0463020
12613.5, 0.0451630
12644.3, 0.0439570
12675.2, 0.0427510
12706.3, 0.0416110
12737.5, 0.0404050
12768.9, 0.0390650
12800.4, 0.0377920
12832.1, 0.0367870
12863.9, 0.0356480
12895.9, 0.0347100
12928.1, 0.0341070
12960.4, 0.0335710
12992.9, 0.0329010
13025.5, 0.0318950
13058.3, 0.0309570
13091.3, 0.0298850
13124.4, 0.0288130
13157.8, 0.0280760
13191.2, 0.0269370
13224.9, 0.0259320
13258.7, 0.0249940
13292.7, 0.0238550
13326.9, 0.0229160
13361.2, 0.0220450
13395.7, 0.0213080
13430.4, 0.0208390
13465.3, 0.0199680
13500.4, 0.0192980
13535.7, 0.0189630
13571.1, 0.0186950
13606.7, 0.0186950
13642.5, 0.0192980
13678.5, 0.0203030
13714.7, 0.0223130
13751.1, 0.0260660
13787.6, 0.0316270
13824.4, 0.0385960
13861.4, 0.0455650
13898.5, 0.0515290
13935.9, 0.0569560
13973.5, 0.0615800
14011.2, 0.0652650
14049.2, 0.0692850
14087.4, 0.0744450
14125.8, 0.0802750
14164.3, 0.0865730
14203.2, 0.0927380
14242.2, 0.0978980
14281.4, 0.101985
14320.9, 0.104531
14360.5, 0.105268
14400.4, 0.104330
14440.5, 0.101985
14480.9, 0.0983670
14521.4, 0.0942120
14562.2, 0.0901920
14603.3, 0.0865730
14644.5, 0.0834240
14686.0, 0.0804090
14727.7, 0.0781970
14769.7, 0.0761200
14811.9, 0.0733730
14854.3, 0.0706260
14897.0, 0.0684140
14939.9, 0.0660690
14983.1, 0.0640590
15026.5, 0.0624510
15070.2, 0.0605750
15114.2, 0.0588990
15158.3, 0.0572910
15202.8, 0.0561520
15247.5, 0.0547450
15292.5, 0.0534050
15337.7, 0.0524000
15383.2, 0.0516630
15429.0, 0.0508580
15475.1, 0.0496520
15521.4, 0.0483790
15568.0, 0.0473740
15614.9, 0.0468380
15662.1, 0.0463690
15709.6, 0.0453640
15757.3, 0.0442250
15805.4, 0.0438230
15853.7, 0.0432200
15902.3, 0.0428180
15951.2, 0.0429520
16000.5, 0.0430190
16050.0, 0.0423490
16099.8, 0.0415440
16150.0, 0.0410750
16200.5, 0.0405390
16251.3, 0.0400030
16302.4, 0.0394000
16353.8, 0.0389980
16405.5, 0.0383280
16457.6, 0.0373900
16510.0, 0.0368540
16562.8, 0.0363850
16615.9, 0.0351120
16669.3, 0.0337720
16723.1, 0.0332360
16777.2, 0.0322300
16831.7, 0.0311580
16886.5, 0.0303540
16941.7, 0.0290810
16997.2, 0.0276740
17053.1, 0.0266690
17109.4, 0.0253960
17166.1, 0.0247260
17223.1, 0.0249940
17280.5, 0.0248600
17338.3, 0.0243910
17396.5, 0.0242570
17455.1, 0.0235870
17514.0, 0.0221790
17573.4, 0.0207720
17633.2, 0.0195660
17693.4, 0.0184940
17754.0, 0.0171540
17815.0, 0.0159480
17876.4, 0.0154120
17938.3, 0.0143400
18000.5, 0.0130660
18063.3, 0.0123290
18126.4, 0.0121280
18190.0, 0.0121280
18254.1, 0.0122620
18318.6, 0.0142060
18383.5, 0.0185610
18449.0, 0.0246590
18514.9, 0.0329680
18581.2, 0.0437560
18648.0, 0.0564200
18715.4, 0.0721000
18783.2, 0.0893210
18851.5, 0.108619
18920.3, 0.128453
18989.6, 0.145406
19059.4, 0.158539
19129.7, 0.166044
19200.6, 0.168188
19272.0, 0.166245
19343.9, 0.161219
19416.3, 0.153581
19489.3, 0.143797
19562.8, 0.132339
19637.0, 0.118938
19711.6, 0.105402
19786.8, 0.0945470
19862.6, 0.0861710
19939.0, 0.0814810
20016.0, 0.0841610
20093.6, 0.0955520
20171.8, 0.116459
20250.6, 0.149761
20330.0, 0.197939
20410.0, 0.254225
20490.7, 0.302605
20572.0, 0.335773
20654.0, 0.357886
20736.6, 0.371890
20819.9, 0.377854
20903.8, 0.379060
20988.5, 0.376715
21073.8, 0.368473
21159.8, 0.355607
21246.5, 0.340732
21334.0, 0.320361
21422.1, 0.297043
21511.0, 0.274596
21600.7, 0.253823
21691.0, 0.235932
21782.1, 0.219583
21874.0, 0.207253
21966.7, 0.203032
22060.2, 0.198408
22154.5, 0.191172
22249.6, 0.181858
22345.5, 0.171337
22442.2, 0.161889
22539.8, 0.152843
22638.2, 0.145473
22737.5, 0.139375
22837.7, 0.132339
22938.7, 0.127314
23040.7, 0.122824
23143.5, 0.117866
23247.3, 0.114783
23352.1, 0.113845
23457.7, 0.113242
23564.4, 0.113577
23672.0, 0.114515
23780.5, 0.114180
23890.1, 0.114113
24000.7, 0.115788
24112.3, 0.116123
24225.0, 0.114046
24338.7, 0.112304
24453.5, 0.112036
24569.4, 0.110227
24686.4, 0.110361
24804.5, 0.111098
