Database of Origin, USGS Spectral Database
Sample Description, See USGS database for additional info
Date Added,2016-08-03 21:10:10.626565

Data ID,USGS_byt04          
Sample ID, bytownite_hs106.4071
Mineral Name, bytownite
Material Class,Tectosilicate

Wavelength
1562.9, 0.458886
1563.38, 0.458805
1563.85, 0.458967
1564.32, 0.459452
1564.79, 0.459694
1565.26, 0.459452
1565.74, 0.459856
1566.21, 0.460745
1566.68, 0.461069
1567.16, 0.461554
1567.63, 0.461796
1568.1, 0.462039
1568.58, 0.461877
1569.05, 0.462524
1569.53, 0.462928
1570.0, 0.462847
1570.48, 0.463332
1570.96, 0.463737
1571.43, 0.463979
1571.91, 0.463656
1572.39, 0.464060
1572.86, 0.464868
1573.34, 0.465192
1573.82, 0.465354
1574.3, 0.465434
1574.77, 0.465354
1575.25, 0.465758
1575.73, 0.466890
1576.21, 0.467294
1576.69, 0.466890
1577.17, 0.467536
1577.65, 0.468264
1578.13, 0.468183
1578.61, 0.468183
1579.09, 0.469153
1579.57, 0.469800
1580.05, 0.469881
1580.54, 0.470043
1581.02, 0.470447
1581.5, 0.470770
1581.98, 0.470932
1582.47, 0.471336
1582.95, 0.471660
1583.43, 0.472387
1583.92, 0.472872
1584.4, 0.473034
1584.88, 0.472953
1585.37, 0.473276
1585.85, 0.473681
1586.34, 0.473681
1586.82, 0.474004
1587.31, 0.474327
1587.8, 0.474489
1588.28, 0.474893
1588.77, 0.474813
1589.26, 0.475379
1589.74, 0.475783
1590.23, 0.476349
1590.72, 0.476510
1591.21, 0.476430
1591.7, 0.477319
1592.19, 0.477723
1592.67, 0.477481
1593.16, 0.478046
1593.65, 0.478774
1594.14, 0.479178
1594.63, 0.479178
1595.12, 0.479744
1595.61, 0.480229
1596.11, 0.480310
1596.6, 0.480553
1597.09, 0.481038
1597.58, 0.481361
1598.08, 0.482008
1598.57, 0.481846
1599.06, 0.482251
1599.55, 0.482736
1600.05, 0.483382
1600.54, 0.483867
1601.04, 0.483706
1601.53, 0.483948
1602.03, 0.484433
1602.52, 0.484918
1603.02, 0.485323
1603.51, 0.485242
1604.01, 0.485646
1604.5, 0.485727
1605.0, 0.485808
1605.5, 0.486131
1606.0, 0.486616
1606.49, 0.486778
1606.99, 0.487344
1607.49, 0.487748
1607.99, 0.487667
1608.49, 0.487748
1608.99, 0.488395
1609.49, 0.488799
1609.99, 0.489122
1610.49, 0.489527
1610.99, 0.489769
1611.49, 0.490254
1611.99, 0.490497
1612.49, 0.490416
1612.99, 0.490739
1613.49, 0.490820
1614.0, 0.490820
1614.5, 0.491144
1615.0, 0.492114
1615.51, 0.492599
1616.01, 0.492680
1616.51, 0.493165
1617.02, 0.493731
1617.52, 0.493650
1618.03, 0.493892
1618.53, 0.493892
1619.04, 0.494054
1619.54, 0.494458
1620.05, 0.494782
1620.55, 0.495105
1621.06, 0.495428
1621.57, 0.495752
1622.08, 0.496237
1622.58, 0.496560
1623.09, 0.496641
1623.6, 0.496803
1624.11, 0.497450
1624.62, 0.497611
1625.13, 0.497530
1625.64, 0.497854
1626.15, 0.498177
1626.66, 0.498420
1627.17, 0.498501
1627.68, 0.498339
1628.19, 0.498986
1628.7, 0.499633
1629.21, 0.499794
1629.72, 0.500037
1630.24, 0.500279
1630.75, 0.500684
1631.26, 0.500926
1631.78, 0.501088
1632.29, 0.501007
1632.8, 0.501169
1633.32, 0.501492
1633.83, 0.501654
1634.35, 0.501735
1634.86, 0.502300
1635.38, 0.502705
1635.9, 0.503028
1636.41, 0.503109
1636.93, 0.503109
1637.45, 0.502866
1637.96, 0.503190
1638.48, 0.503432
1639.0, 0.503432
1639.52, 0.503917
1640.04, 0.504160
1640.56, 0.504322
1641.08, 0.504726
1641.59, 0.505211
1642.11, 0.505615
1642.63, 0.505534
1643.16, 0.505453
1643.68, 0.505858
1644.2, 0.506585
1644.72, 0.507151
1645.24, 0.507151
1645.76, 0.507475
1646.29, 0.507475
1646.81, 0.507151
1647.33, 0.507313
1647.86, 0.507879
1648.38, 0.508121
1648.9, 0.508526
1649.43, 0.508526
1649.95, 0.508849
1650.48, 0.509172
1651.0, 0.509738
1651.53, 0.509819
1652.06, 0.509577
1652.58, 0.510062
1653.11, 0.510709
1653.64, 0.511113
1654.17, 0.511032
1654.69, 0.511194
1655.22, 0.511436
1655.75, 0.511679
1656.28, 0.511517
1656.81, 0.511355
1657.34, 0.511921
1657.87, 0.512487
1658.4, 0.512487
1658.93, 0.512568
1659.46, 0.512810
1659.99, 0.512891
1660.52, 0.513134
1661.05, 0.513538
1661.59, 0.514427
1662.12, 0.514993
1662.65, 0.515074
1663.19, 0.515155
1663.72, 0.515074
1664.26, 0.515155
1664.79, 0.515802
1665.32, 0.515964
1665.86, 0.516206
1666.39, 0.516287
1666.93, 0.516206
1667.47, 0.516610
1668.0, 0.517419
1668.54, 0.517581
1669.08, 0.517500
1669.61, 0.517742
1670.15, 0.518227
1670.69, 0.518470
1671.23, 0.518712
1671.77, 0.519117
1672.31, 0.518955
1672.85, 0.518955
1673.39, 0.519359
1673.93, 0.519521
1674.47, 0.519844
1675.01, 0.520168
1675.55, 0.520410
1676.09, 0.520814
1676.64, 0.520976
1677.18, 0.521380
1677.72, 0.521623
1678.26, 0.521865
1678.81, 0.522431
1679.35, 0.522593
1679.89, 0.522431
1680.44, 0.522593
1680.98, 0.522836
1681.53, 0.523240
1682.07, 0.523401
1682.62, 0.523321
1683.17, 0.523482
1683.71, 0.523887
1684.26, 0.524048
1684.81, 0.524129
1685.36, 0.524372
1685.9, 0.524614
1686.45, 0.525018
1687.0, 0.525099
1687.55, 0.525503
1688.1, 0.525989
1688.65, 0.526312
1689.2, 0.526150
1689.75, 0.525827
1690.3, 0.526150
1690.85, 0.526474
1691.41, 0.526554
1691.96, 0.526878
1692.51, 0.527282
1693.06, 0.527767
1693.61, 0.527525
1694.17, 0.527363
1694.72, 0.527686
1695.28, 0.528010
1695.83, 0.528171
1696.39, 0.528414
1696.94, 0.528333
1697.5, 0.528495
1698.05, 0.528818
1698.61, 0.528818
1699.17, 0.529142
1699.72, 0.529384
1700.28, 0.529546
1700.84, 0.529950
1701.4, 0.530516
1701.95, 0.530759
1702.51, 0.530759
1703.07, 0.530920
1703.63, 0.530839
1704.19, 0.530597
1704.75, 0.530597
1705.31, 0.531001
1705.88, 0.531324
1706.44, 0.531324
1707.0, 0.531648
1707.56, 0.531890
1708.12, 0.531971
1708.69, 0.531810
1709.25, 0.532052
1709.81, 0.532537
1710.38, 0.532618
1710.94, 0.532537
1711.51, 0.533022
1712.07, 0.533346
1712.64, 0.533184
1713.2, 0.533346
1713.77, 0.533750
1714.34, 0.533507
1714.9, 0.533750
1715.47, 0.533992
1716.04, 0.534073
1716.61, 0.534154
1717.18, 0.534316
1717.74, 0.534397
1718.31, 0.534720
1718.88, 0.534801
1719.45, 0.534882
1720.02, 0.534882
1720.59, 0.534963
1721.17, 0.535124
1721.74, 0.535124
1722.31, 0.535043
1722.88, 0.535124
1723.45, 0.535609
1724.03, 0.536175
1724.6, 0.536337
1725.18, 0.536094
1725.75, 0.536337
1726.33, 0.536741
1726.9, 0.536903
1727.48, 0.536903
1728.05, 0.536984
1728.63, 0.536984
1729.2, 0.537307
1729.78, 0.537469
1730.36, 0.537873
1730.94, 0.538196
1731.51, 0.538520
1732.09, 0.538196
1732.67, 0.538035
1733.25, 0.538196
1733.83, 0.538277
1734.41, 0.538520
1734.99, 0.538843
1735.57, 0.538924
1736.15, 0.539005
1736.73, 0.539247
1737.32, 0.539247
1737.9, 0.539328
1738.48, 0.539652
1739.07, 0.539813
1739.65, 0.540137
1740.23, 0.540137
1740.82, 0.540379
1741.4, 0.540703
1741.99, 0.541026
1742.57, 0.540784
1743.16, 0.540622
1743.74, 0.540864
1744.33, 0.541349
1744.92, 0.541511
1745.51, 0.541430
1746.09, 0.541754
1746.68, 0.542158
1747.27, 0.542158
1747.86, 0.542239
1748.45, 0.542724
1749.04, 0.542885
1749.63, 0.543128
1750.22, 0.543209
1750.81, 0.543047
1751.4, 0.543047
1751.99, 0.543371
1752.59, 0.543694
1753.18, 0.543532
1753.77, 0.543775
1754.37, 0.544260
1754.96, 0.544502
1755.56, 0.544745
1756.15, 0.544583
1756.74, 0.544583
1757.34, 0.544987
1757.94, 0.545149
1758.53, 0.545473
1759.13, 0.545715
1759.73, 0.545796
1760.32, 0.545958
1760.92, 0.546119
1761.52, 0.546443
1762.12, 0.546685
1762.72, 0.546928
1763.32, 0.547009
1763.92, 0.547009
1764.52, 0.547170
1765.12, 0.547170
1765.72, 0.547251
1766.32, 0.547413
1766.92, 0.547817
1767.53, 0.548141
1768.13, 0.548383
1768.73, 0.548383
1769.34, 0.548545
1769.94, 0.548787
1770.55, 0.548706
1771.15, 0.548706
1771.76, 0.548787
1772.36, 0.549111
1772.97, 0.549272
1773.57, 0.549030
1774.18, 0.549111
1774.79, 0.549515
1775.4, 0.549838
1776.0, 0.550162
1776.61, 0.550081
1777.22, 0.550000
1777.83, 0.550243
1778.44, 0.550404
1779.05, 0.550485
1779.66, 0.550566
1780.27, 0.550728
1780.88, 0.550728
1781.5, 0.551374
1782.11, 0.551294
1782.72, 0.550728
1783.33, 0.551213
1783.95, 0.551940
1784.56, 0.551779
1785.18, 0.551698
1785.79, 0.551940
1786.41, 0.551940
1787.02, 0.551859
1787.64, 0.552264
1788.26, 0.552587
1788.87, 0.552587
1789.49, 0.552425
1790.11, 0.552506
1790.73, 0.552506
1791.35, 0.552264
1791.96, 0.552506
1792.58, 0.553072
1793.21, 0.552991
1793.83, 0.552911
1794.45, 0.553557
1795.07, 0.553476
1795.69, 0.553476
1796.31, 0.553396
1796.93, 0.553396
1797.56, 0.553638
1798.18, 0.553800
1798.8, 0.553800
1799.43, 0.554042
1800.05, 0.554123
1800.68, 0.554042
1801.3, 0.553881
1801.93, 0.553961
1802.56, 0.554285
1803.18, 0.554366
1803.81, 0.554285
1804.44, 0.554608
1805.07, 0.555093
1805.7, 0.555255
1806.33, 0.555013
1806.95, 0.554527
1807.58, 0.554527
1808.22, 0.554932
1808.85, 0.555093
1809.48, 0.555174
1810.11, 0.555417
1810.74, 0.555578
1811.38, 0.555578
1812.01, 0.555902
1812.64, 0.556063
1813.28, 0.556144
1813.91, 0.556063
1814.55, 0.556387
1815.18, 0.556791
1815.82, 0.556791
1816.45, 0.556710
1817.09, 0.556872
1817.73, 0.557034
1818.36, 0.556953
1819.0, 0.556872
1819.64, 0.557680
1820.28, 0.558327
1820.92, 0.557923
1821.56, 0.557761
1822.2, 0.557842
1822.84, 0.557761
1823.48, 0.558004
1824.12, 0.558489
1824.76, 0.558893
1825.41, 0.559136
1826.05, 0.559378
1826.69, 0.558893
1827.34, 0.558651
1827.98, 0.558893
1828.63, 0.558974
1829.27, 0.559136
1829.92, 0.559540
1830.56, 0.559702
1831.21, 0.559782
1831.86, 0.559782
1832.5, 0.559782
1833.15, 0.559944
1833.8, 0.560348
1834.45, 0.560672
1835.1, 0.560753
1835.75, 0.561076
1836.4, 0.561076
1837.05, 0.561076
1837.7, 0.561319
1838.35, 0.561238
1839.01, 0.561480
1839.66, 0.561804
1840.31, 0.561642
1840.96, 0.561804
1841.62, 0.562289
1842.27, 0.562046
1842.93, 0.561965
1843.58, 0.561965
1844.24, 0.561642
1844.9, 0.561642
1845.55, 0.562046
1846.21, 0.562855
1846.87, 0.563501
1847.53, 0.563421
1848.18, 0.563421
1848.84, 0.562855
1849.5, 0.562693
1850.16, 0.562774
1850.82, 0.562855
1851.48, 0.562855
1852.14, 0.562693
1852.81, 0.563016
1853.47, 0.563906
1854.13, 0.563825
1854.8, 0.563421
1855.46, 0.563259
1856.12, 0.563825
1856.79, 0.564148
1857.45, 0.563744
1858.12, 0.563501
1858.79, 0.563744
1859.45, 0.564148
1860.12, 0.563744
1860.79, 0.563744
1861.46, 0.563744
1862.12, 0.563663
1862.79, 0.563744
1863.46, 0.563906
1864.13, 0.563825
1864.8, 0.563582
1865.48, 0.563259
1866.15, 0.563340
1866.82, 0.563825
1867.49, 0.564229
1868.16, 0.563663
1868.84, 0.563259
1869.51, 0.563501
1870.19, 0.563986
1870.86, 0.564310
1871.54, 0.563259
1872.21, 0.563016
1872.89, 0.563744
1873.56, 0.563582
1874.24, 0.562531
1874.92, 0.562289
1875.6, 0.562370
1876.28, 0.562289
1876.96, 0.562046
1877.64, 0.561319
1878.32, 0.560995
1879.0, 0.560914
1879.68, 0.560591
1880.36, 0.560268
1881.04, 0.560025
1881.73, 0.559782
1882.41, 0.559702
1883.09, 0.559702
1883.78, 0.559782
1884.46, 0.559055
1885.15, 0.558327
1885.83, 0.557600
1886.52, 0.557114
1887.21, 0.556629
1887.89, 0.556144
1888.58, 0.555578
1889.27, 0.554932
1889.96, 0.554770
1890.65, 0.553800
1891.34, 0.552911
1892.03, 0.552749
1892.72, 0.551940
1893.41, 0.550970
1894.1, 0.549838
1894.79, 0.549192
1895.49, 0.548383
1896.18, 0.547494
1896.87, 0.546766
1897.57, 0.546119
1898.26, 0.545553
1898.96, 0.545068
1899.65, 0.544664
1900.35, 0.543532
1901.05, 0.542320
1901.74, 0.541592
1902.44, 0.541349
1903.14, 0.540460
1903.84, 0.539571
1904.54, 0.539247
1905.24, 0.538843
1905.94, 0.537954
1906.64, 0.537145
1907.34, 0.536013
1908.04, 0.535367
1908.75, 0.535205
1909.45, 0.534720
1910.15, 0.534477
1910.86, 0.534154
1911.56, 0.533346
1912.27, 0.532780
1912.97, 0.533022
1913.68, 0.532537
1914.39, 0.531405
1915.09, 0.530839
1915.8, 0.530435
1916.51, 0.529950
1917.22, 0.529384
1917.93, 0.528818
1918.64, 0.528414
1919.35, 0.528252
1920.06, 0.527848
1920.77, 0.526878
1921.48, 0.525827
1922.19, 0.525503
1922.91, 0.525342
1923.62, 0.525099
1924.33, 0.524452
1925.05, 0.523725
1925.76, 0.522916
1926.48, 0.522512
1927.19, 0.521946
1927.91, 0.521461
1928.63, 0.520734
1929.35, 0.519844
1930.07, 0.519359
1930.78, 0.518955
1931.5, 0.518551
1932.22, 0.517985
1932.94, 0.517338
1933.66, 0.516529
1934.39, 0.515721
1935.11, 0.515074
1935.83, 0.514670
1936.55, 0.514104
1937.28, 0.513619
1938.0, 0.513377
1938.73, 0.513134
1939.45, 0.512891
1940.18, 0.512730
1940.9, 0.512972
1941.63, 0.513053
1942.36, 0.513134
1943.09, 0.513457
1943.81, 0.514023
1944.54, 0.514347
1945.27, 0.514347
1946.0, 0.514508
1946.73, 0.514913
1947.47, 0.515155
1948.2, 0.515317
1948.93, 0.515802
1949.66, 0.516125
1950.4, 0.516206
1951.13, 0.516287
1951.86, 0.516368
1952.6, 0.516691
1953.34, 0.517257
1954.07, 0.517661
1954.81, 0.518066
1955.55, 0.518470
1956.29, 0.518874
1957.02, 0.519359
1957.76, 0.519602
1958.5, 0.519844
1959.24, 0.520329
1959.98, 0.520895
1960.72, 0.521219
1961.47, 0.521542
1962.21, 0.521784
1962.95, 0.522108
1963.7, 0.522512
1964.44, 0.522916
1965.18, 0.522916
1965.93, 0.522916
1966.67, 0.523078
1967.42, 0.523482
1968.17, 0.523725
1968.92, 0.523967
1969.66, 0.524291
1970.41, 0.524614
1971.16, 0.524614
1971.91, 0.524614
1972.66, 0.524614
1973.41, 0.524857
1974.16, 0.525180
1974.92, 0.525584
1975.67, 0.525989
1976.42, 0.526231
1977.18, 0.526150
1977.93, 0.526069
1978.69, 0.526393
1979.44, 0.526959
1980.2, 0.527282
1980.95, 0.527605
1981.71, 0.528091
1982.47, 0.528333
1983.23, 0.528414
1983.99, 0.528576
1984.74, 0.529142
1985.51, 0.529627
1986.27, 0.529869
1987.03, 0.530516
1987.79, 0.531244
1988.55, 0.531648
1989.32, 0.531810
1990.08, 0.532052
1990.84, 0.532295
1991.61, 0.532537
1992.37, 0.533022
1993.14, 0.533669
1993.9, 0.534316
1994.67, 0.534639
1995.44, 0.534720
1996.21, 0.535205
1996.98, 0.535609
1997.75, 0.536013
1998.52, 0.536499
1999.29, 0.536903
2000.06, 0.537145
2000.83, 0.537550
2001.6, 0.538116
2002.38, 0.538682
2003.15, 0.539167
2003.93, 0.539732
2004.7, 0.540218
2005.48, 0.540703
2006.25, 0.541107
2007.03, 0.541349
2007.81, 0.541511
2008.58, 0.541754
2009.36, 0.542400
2010.14, 0.543047
2010.92, 0.543532
2011.7, 0.543937
2012.48, 0.544260
2013.26, 0.544583
2014.05, 0.545068
2014.83, 0.545311
2015.61, 0.545877
2016.4, 0.546443
2017.18, 0.546524
2017.97, 0.546928
2018.75, 0.547494
2019.54, 0.547817
2020.32, 0.548302
2021.11, 0.548706
2021.9, 0.549030
2022.69, 0.549434
2023.48, 0.549596
2024.27, 0.550000
2025.06, 0.550243
2025.85, 0.550404
2026.64, 0.550808
2027.44, 0.551374
2028.23, 0.551940
2029.02, 0.552183
2029.82, 0.552345
2030.61, 0.552425
2031.41, 0.552830
2032.2, 0.553396
2033.0, 0.553800
2033.8, 0.554042
2034.6, 0.553961
2035.4, 0.554204
2036.2, 0.554447
2037.0, 0.554608
2037.8, 0.555255
2038.6, 0.555578
2039.4, 0.555740
2040.2, 0.556063
2041.01, 0.556468
2041.81, 0.556468
2042.61, 0.556387
2043.42, 0.556710
2044.22, 0.556872
2045.03, 0.557357
2045.84, 0.558004
2046.65, 0.557842
2047.46, 0.557842
2048.26, 0.558166
2049.07, 0.558327
2049.88, 0.558489
2050.69, 0.558812
2051.51, 0.559136
2052.32, 0.559216
2053.13, 0.559297
2053.94, 0.559540
2054.76, 0.559944
2055.57, 0.560510
2056.39, 0.560591
2057.2, 0.560429
2058.02, 0.560672
2058.84, 0.560995
2059.66, 0.561319
2060.48, 0.561480
2061.29, 0.561642
2062.11, 0.561965
2062.94, 0.562046
2063.76, 0.561965
2064.58, 0.562046
2065.4, 0.562046
2066.22, 0.562289
2067.05, 0.562450
2067.87, 0.562935
2068.7, 0.563421
2069.52, 0.563501
2070.35, 0.563501
2071.18, 0.563582
2072.0, 0.563744
2072.83, 0.563825
2073.66, 0.564067
2074.49, 0.564229
2075.32, 0.564310
2076.15, 0.564229
2076.98, 0.564472
2077.82, 0.564795
2078.65, 0.564876
2079.48, 0.564795
2080.32, 0.564876
2081.15, 0.564795
2081.99, 0.564957
2082.83, 0.565361
2083.66, 0.565684
2084.5, 0.565684
2085.34, 0.565603
2086.18, 0.565603
2087.02, 0.565846
2087.86, 0.566088
2088.7, 0.566169
2089.54, 0.566331
2090.39, 0.566654
2091.23, 0.566735
2092.07, 0.566816
2092.92, 0.566978
2093.76, 0.567059
2094.61, 0.567059
2095.45, 0.567140
2096.3, 0.567140
2097.15, 0.566978
2098.0, 0.567059
2098.85, 0.567382
2099.7, 0.567463
2100.55, 0.567463
2101.4, 0.567544
2102.25, 0.567625
2103.1, 0.567786
2103.96, 0.567948
2104.81, 0.568191
2105.67, 0.568191
2106.52, 0.568271
2107.38, 0.568514
2108.24, 0.568352
2109.09, 0.568433
2109.95, 0.568676
2110.81, 0.568837
2111.67, 0.568837
2112.53, 0.568756
2113.39, 0.569080
2114.25, 0.569322
2115.12, 0.569403
2115.98, 0.569646
2116.84, 0.569807
2117.71, 0.569888
2118.58, 0.570131
2119.44, 0.570292
2120.31, 0.570292
2121.18, 0.570454
2122.04, 0.570616
2122.91, 0.570778
2123.78, 0.570778
2124.65, 0.570858
2125.52, 0.571263
2126.4, 0.571344
2127.27, 0.571263
2128.14, 0.571344
2129.02, 0.571505
2129.89, 0.571424
2130.77, 0.571505
2131.64, 0.571990
2132.52, 0.572314
2133.4, 0.572637
2134.27, 0.572556
2135.15, 0.572475
2136.03, 0.572799
2136.91, 0.573122
2137.79, 0.573203
2138.68, 0.573365
2139.56, 0.573688
2140.44, 0.573688
2141.33, 0.573607
2142.21, 0.573607
2143.1, 0.573850
2143.99, 0.574254
2144.87, 0.574577
2145.76, 0.574739
2146.65, 0.574658
2147.54, 0.574658
2148.43, 0.574901
2149.32, 0.574982
2150.21, 0.575143
2151.1, 0.575386
2151.99, 0.575467
2152.89, 0.575467
2153.78, 0.575628
2154.68, 0.575628
2155.57, 0.575790
2156.47, 0.576114
2157.37, 0.576275
2158.27, 0.576275
2159.16, 0.576275
2160.06, 0.576356
2160.96, 0.576599
2161.86, 0.576518
2162.77, 0.576679
2163.67, 0.576599
2164.57, 0.576841
2165.48, 0.577003
2166.38, 0.576922
2167.29, 0.576841
2168.2, 0.577084
2169.1, 0.577245
2170.01, 0.577164
2170.92, 0.576922
2171.83, 0.576922
2172.74, 0.577326
2173.65, 0.577245
2174.56, 0.577084
2175.47, 0.577245
2176.39, 0.577407
2177.3, 0.577407
2178.22, 0.577488
2179.13, 0.577650
2180.05, 0.577569
2180.96, 0.577488
2181.88, 0.577488
2182.8, 0.577488
2183.72, 0.577650
2184.64, 0.577650
2185.56, 0.577407
2186.48, 0.577407
2187.41, 0.577488
2188.33, 0.577569
2189.25, 0.577650
2190.18, 0.577488
2191.1, 0.577730
2192.03, 0.577650
2192.96, 0.577407
2193.89, 0.577164
2194.82, 0.577164
2195.74, 0.577084
2196.68, 0.577164
2197.61, 0.577407
2198.54, 0.577569
2199.47, 0.577326
2200.4, 0.577326
2201.34, 0.577164
2202.28, 0.577245
2203.21, 0.577245
2204.15, 0.577084
2205.08, 0.577003
2206.02, 0.576922
2206.96, 0.577003
2207.9, 0.577084
2208.84, 0.576760
2209.78, 0.576599
2210.73, 0.576679
2211.67, 0.576760
2212.61, 0.576760
2213.56, 0.576599
2214.5, 0.576679
2215.45, 0.576760
2216.4, 0.576679
2217.35, 0.576679
2218.3, 0.576841
2219.24, 0.576760
2220.2, 0.576518
2221.15, 0.576518
2222.1, 0.577269
2223.05, 0.577473
2224.0, 0.577064
2224.96, 0.576654
2225.91, 0.576723
2226.87, 0.576654
2227.83, 0.576586
2228.79, 0.576176
2229.74, 0.575903
2230.7, 0.575767
2231.66, 0.575562
2232.63, 0.575699
2233.59, 0.575562
2234.55, 0.575084
2235.51, 0.574811
2236.48, 0.574880
2237.44, 0.574743
2238.41, 0.574880
2239.38, 0.574948
2240.34, 0.575153
2241.31, 0.574811
2242.28, 0.574265
2243.25, 0.574333
2244.22, 0.574197
2245.19, 0.573583
2246.17, 0.573856
2247.14, 0.573924
2248.12, 0.573856
2249.09, 0.573719
2250.07, 0.573992
2251.04, 0.573992
2252.02, 0.573856
2253.0, 0.573856
2253.98, 0.574129
2254.96, 0.574538
2255.94, 0.574333
2256.92, 0.574129
2257.91, 0.574538
2258.89, 0.574402
2259.88, 0.573992
2260.86, 0.573992
2261.85, 0.574265
2262.83, 0.574265
2263.82, 0.574265
2264.81, 0.574402
2265.8, 0.574265
2266.79, 0.574333
2267.78, 0.574470
2268.78, 0.574606
2269.77, 0.574060
2270.76, 0.573856
2271.76, 0.574197
2272.75, 0.573992
2273.75, 0.573583
2274.75, 0.573514
2275.75, 0.573787
2276.75, 0.573583
2277.75, 0.573310
2278.75, 0.572900
2279.75, 0.572559
2280.75, 0.572491
2281.76, 0.572627
2282.76, 0.572559
2283.77, 0.572013
2284.77, 0.571194
2285.78, 0.570579
2286.79, 0.570511
2287.8, 0.570579
2288.81, 0.569965
2289.82, 0.569146
2290.83, 0.568600
2291.84, 0.568804
2292.86, 0.568736
2293.87, 0.568531
2294.89, 0.567985
2295.91, 0.567371
2296.92, 0.566825
2297.94, 0.566552
2298.96, 0.566825
2299.98, 0.566620
2301.0, 0.566211
2302.02, 0.565938
2303.04, 0.565391
2304.07, 0.565118
2305.09, 0.565255
2306.12, 0.565391
2307.15, 0.565118
2308.17, 0.564641
2309.2, 0.564163
2310.23, 0.563890
2311.26, 0.563753
2312.29, 0.563617
2313.32, 0.563344
2314.35, 0.563207
2315.39, 0.563071
2316.42, 0.562456
2317.46, 0.562047
2318.5, 0.562047
2319.53, 0.561979
2320.57, 0.561569
2321.61, 0.561432
2322.65, 0.561637
2323.69, 0.561159
2324.73, 0.561091
2325.78, 0.561569
2326.82, 0.561432
2327.86, 0.561296
2328.91, 0.561432
2329.96, 0.561364
2331.01, 0.561432
2332.05, 0.561706
2333.1, 0.561569
2334.15, 0.561023
2335.21, 0.560886
2336.26, 0.561228
2337.31, 0.561091
2338.36, 0.561091
2339.42, 0.561501
2340.48, 0.561432
2341.53, 0.561432
2342.59, 0.561637
2343.65, 0.561637
2344.71, 0.561501
2345.77, 0.561432
2346.83, 0.561364
2347.9, 0.561296
2348.96, 0.561296
2350.02, 0.561296
2351.09, 0.561228
2352.16, 0.560886
2353.23, 0.560613
2354.29, 0.560545
2355.36, 0.560545
2356.43, 0.560545
2357.51, 0.560136
2358.58, 0.560340
2359.65, 0.560477
2360.73, 0.560204
2361.8, 0.559931
2362.88, 0.559794
2363.96, 0.559999
2365.03, 0.559999
2366.11, 0.559726
2367.19, 0.559794
2368.27, 0.559658
2369.36, 0.559248
2370.44, 0.558770
2371.53, 0.558293
2372.61, 0.558020
2373.7, 0.557746
2374.78, 0.557405
2375.87, 0.557200
2376.96, 0.556996
2378.05, 0.556723
2379.14, 0.556108
2380.24, 0.555426
2381.33, 0.554880
2382.42, 0.554470
2383.52, 0.553992
2384.61, 0.553514
2385.71, 0.552968
2386.81, 0.552559
2387.91, 0.551876
2389.01, 0.551603
2390.11, 0.551194
2391.22, 0.550716
2392.32, 0.550238
2393.42, 0.549487
2394.53, 0.549078
2395.64, 0.548736
2396.74, 0.548258
2397.85, 0.547781
2398.96, 0.547166
2400.07, 0.546825
2401.18, 0.546552
2402.3, 0.546006
2403.41, 0.545323
2404.52, 0.544572
2405.64, 0.543958
2406.76, 0.543549
2407.88, 0.542661
2408.99, 0.542047
2410.11, 0.541979
2411.23, 0.541569
2412.36, 0.541023
2413.48, 0.540545
2414.6, 0.539863
2415.73, 0.539248
2416.85, 0.538770
2417.98, 0.538224
2419.11, 0.537815
2420.24, 0.537678
2421.37, 0.537473
2422.5, 0.537132
2423.64, 0.536586
2424.77, 0.536313
2425.9, 0.535835
2427.04, 0.535084
2428.18, 0.534470
2429.31, 0.534265
2430.45, 0.534197
2431.59, 0.534197
2432.73, 0.533787
2433.88, 0.533378
2435.02, 0.532764
2436.16, 0.532491
2437.31, 0.532354
2438.45, 0.532149
2439.6, 0.532013
2440.75, 0.532149
2441.9, 0.531603
2443.05, 0.530989
2444.2, 0.530784
2445.35, 0.530784
2446.51, 0.530238
2447.67, 0.529828
2448.82, 0.529624
2449.98, 0.529624
2451.14, 0.529419
2452.3, 0.529009
2453.46, 0.528941
2454.62, 0.528805
2455.78, 0.528668
2456.94, 0.528600
2458.11, 0.528190
2459.28, 0.527985
2460.44, 0.527917
2461.61, 0.527644
2462.78, 0.527303
2463.95, 0.527166
2465.12, 0.527030
2466.3, 0.526825
2467.47, 0.526893
2468.65, 0.526552
2469.82, 0.526552
2471.0, 0.526347
2472.18, 0.526074
2473.36, 0.526006
2474.54, 0.525869
2475.72, 0.526006
2476.9, 0.526142
2478.08, 0.526211
2479.27, 0.526006
2480.46, 0.525665
2481.64, 0.525392
2482.83, 0.525323
2484.02, 0.525187
2485.21, 0.525323
2486.4, 0.525596
2487.6, 0.525665
2488.79, 0.525528
2489.99, 0.525528
2491.18, 0.525528
2492.38, 0.525528
2493.58, 0.525187
2494.78, 0.525187
2495.98, 0.525119
2497.18, 0.525119
2498.39, 0.525119
2499.59, 0.525255
2500.8, 0.524914
2502.01, 0.524845
2503.21, 0.524845
2504.42, 0.524709
2505.63, 0.524641
2506.84, 0.524777
2508.06, 0.524845
2509.27, 0.524572
2510.49, 0.524436
2511.7, 0.524368
2512.92, 0.524504
2514.14, 0.524641
2515.36, 0.524299
2516.58, 0.524095
2517.8, 0.523958
2519.03, 0.523890
2520.25, 0.523890
2521.48, 0.523890
2522.7, 0.523685
2523.93, 0.523753
2525.16, 0.523753
2526.39, 0.523549
2527.62, 0.523412
2528.86, 0.523753
2530.09, 0.523344
2531.33, 0.522525
2532.56, 0.522320
2533.8, 0.522661
2535.04, 0.522047
2536.28, 0.521910
2537.52, 0.522798
2538.76, 0.522934
2540.01, 0.522798
2541.25, 0.521979
2542.5, 0.520955
2543.75, 0.521023
2544.99, 0.521774
2546.24, 0.521979
2547.49, 0.521433
2548.75, 0.521569
2550.0, 0.521023
2551.26, 0.520272
2552.51, 0.519726
2553.77, 0.520613
2555.03, 0.521979
2556.29, 0.522388
2557.55, 0.522183
2558.81, 0.521091
2560.08, 0.518156
2561.34, 0.515084
2562.61, 0.514538
2563.88, 0.515289
2565.14, 0.517542
2566.41, 0.520136
2567.68, 0.519726
2568.96, 0.516996
2570.23, 0.517064
2571.51, 0.518566
2572.78, 0.515357
2574.06, 0.515630
2575.34, 0.517269
2576.62, 0.516313
2577.9, 0.517815
2579.18, 0.519316
2580.47, 0.517337
2581.75, 0.516245
2583.04, 0.512354
2584.32, 0.511535
2585.61, 0.514675
2586.9, 0.513583
2588.2, 0.514060
2589.49, 0.515767
2590.78, 0.517132
2592.08, 0.515357
2593.37, 0.505392
2594.67, 0.496040
2595.97, 0.503071
2597.27, 0.512968
2598.57, 0.516518
2599.88, 0.516040
2601.18, 0.513992
2602.49, 0.512286
2603.79, 0.509282
2605.1, 0.504709
2606.41, 0.506347
2607.72, 0.509965
2609.03, 0.510579
2610.35, 0.511398
2611.66, 0.512218
2612.98, 0.511125
2614.3, 0.510989
2615.62, 0.506825
2616.94, 0.503412
2618.26, 0.505733
2619.58, 0.503071
2620.91, 0.503139
2622.23, 0.508736
2623.56, 0.510101
2624.89, 0.507576
2626.22, 0.502525
2627.55, 0.503685
2628.88, 0.502798
2630.21, 0.497405
2631.55, 0.500409
2632.89, 0.503344
2634.22, 0.503344
2635.56, 0.504845
2636.9, 0.505187
2638.25, 0.505119
2639.59, 0.504231
2640.93, 0.503139
2642.28, 0.502047
2643.63, 0.501637
2644.98, 0.499726
2646.33, 0.499112
2647.68, 0.499590
2649.03, 0.499453
2650.39, 0.497883
2651.74, 0.494538
2653.1, 0.493378
2654.46, 0.493514
2655.82, 0.492764
2657.18, 0.493037
2658.54, 0.490511
2659.9, 0.488600
2661.27, 0.487917
2662.64, 0.486757
2664.01, 0.479726
2665.38, 0.472695
2666.74, 0.471330
2668.12, 0.473992
2669.49, 0.467712
2670.87, 0.464982
2672.24, 0.472422
2673.62, 0.473310
2675.0, 0.468463
2676.38, 0.462934
2677.76, 0.461706
2679.15, 0.460409
2680.54, 0.461433
2681.92, 0.460204
2683.31, 0.456518
2684.7, 0.453515
2686.09, 0.450375
2687.48, 0.447440
2688.88, 0.444641
2690.27, 0.440955
2691.67, 0.435153
2693.07, 0.425733
2694.47, 0.419317
2695.87, 0.416382
2697.27, 0.412969
2698.67, 0.407030
2700.08, 0.398429
2701.49, 0.389692
2702.9, 0.382730
2704.31, 0.375221
2705.72, 0.367098
2707.13, 0.357883
2708.54, 0.347167
2709.96, 0.335836
2711.38, 0.328122
2712.8, 0.324914
2714.22, 0.319795
2715.64, 0.313515
2717.06, 0.307030
2718.49, 0.300068
2719.91, 0.291058
2721.34, 0.287645
2722.77, 0.285733
2724.2, 0.280341
2725.63, 0.278703
2727.07, 0.278225
2728.5, 0.275972
2729.94, 0.272969
2731.38, 0.270102
2732.82, 0.266552
2734.26, 0.261843
2735.7, 0.259249
2737.15, 0.257133
2738.59, 0.251740
2740.04, 0.247235
2741.49, 0.246416
2742.94, 0.246689
2744.39, 0.245256
2745.84, 0.242662
2747.3, 0.240204
2748.76, 0.237884
2750.21, 0.235290
2751.67, 0.232628
2753.14, 0.229488
2754.6, 0.224232
2756.06, 0.221843
2757.53, 0.222867
2759.0, 0.222116
2760.46, 0.220000
2761.94, 0.216791
2763.41, 0.214948
2764.88, 0.214334
2766.36, 0.212559
2767.83, 0.210716
2769.31, 0.209215
2770.79, 0.207576
2772.27, 0.206894
2773.76, 0.206484
2775.24, 0.205597
2776.73, 0.204163
2778.22, 0.202867
2779.71, 0.201638
2781.2, 0.200477
2782.69, 0.199590
2784.18, 0.198839
2785.68, 0.196791
2787.18, 0.195017
2788.68, 0.194675
2790.18, 0.194539
2791.68, 0.193652
2793.19, 0.192628
2794.69, 0.191672
2796.2, 0.190716
2797.71, 0.189966
2799.22, 0.189146
2800.73, 0.187849
2802.24, 0.185938
2803.76, 0.185119
2805.28, 0.185324
2806.8, 0.185051
2808.32, 0.184710
2809.84, 0.184300
2811.36, 0.183686
2812.89, 0.182662
2814.42, 0.181911
2815.94, 0.181297
2817.48, 0.180955
2819.01, 0.180273
2820.54, 0.179522
2822.08, 0.179044
2823.61, 0.178771
2825.15, 0.178088
2826.69, 0.177542
2828.23, 0.177201
2829.78, 0.177065
2831.32, 0.176928
2832.87, 0.176723
2834.42, 0.176723
2835.97, 0.177065
2837.52, 0.176996
2839.08, 0.177338
2840.63, 0.177679
2842.19, 0.177815
2843.75, 0.177747
2845.31, 0.177679
2846.87, 0.177747
2848.44, 0.177679
2850.0, 0.177679
2851.57, 0.177884
2853.14, 0.177679
2854.71, 0.177406
2856.28, 0.177269
2857.86, 0.177133
2859.43, 0.177065
2861.01, 0.176928
2862.59, 0.176723
2864.17, 0.176587
2865.76, 0.176382
2867.34, 0.176109
2868.93, 0.175904
2870.52, 0.175699
2872.11, 0.175426
2873.7, 0.175495
2875.29, 0.175495
2876.89, 0.175290
2878.49, 0.175017
2880.08, 0.174812
2881.69, 0.174744
2883.29, 0.174675
2884.89, 0.174675
2886.5, 0.174607
2888.11, 0.174471
2889.72, 0.174402
2891.33, 0.174471
2892.94, 0.174471
2894.56, 0.174675
2896.17, 0.174607
2897.79, 0.174471
2899.42, 0.174402
2901.04, 0.174266
2902.66, 0.174471
2904.29, 0.174539
2905.92, 0.174266
2907.55, 0.174061
2909.18, 0.174334
2910.81, 0.174334
2912.45, 0.174266
2914.08, 0.174129
2915.72, 0.174061
2917.36, 0.173856
2919.01, 0.173856
2920.65, 0.173720
2922.3, 0.173583
2923.94, 0.173447
2925.59, 0.173242
2927.25, 0.172969
2928.9, 0.172764
2930.56, 0.172491
2932.21, 0.172355
2933.87, 0.172491
2935.53, 0.172491
2937.2, 0.172286
2938.86, 0.172013
2940.53, 0.171877
2942.2, 0.172013
2943.87, 0.172013
2945.54, 0.172082
2947.22, 0.172150
2948.89, 0.172286
2950.57, 0.172355
2952.25, 0.172491
2953.93, 0.172628
2955.62, 0.172696
2957.3, 0.172969
2958.99, 0.173242
2960.68, 0.173515
2962.37, 0.173788
2964.07, 0.173993
2965.76, 0.174334
2967.46, 0.174675
2969.16, 0.175017
2970.86, 0.175017
2972.56, 0.175222
2974.27, 0.175495
2975.98, 0.175972
2977.69, 0.176450
2979.4, 0.176655
2981.11, 0.177269
2982.83, 0.177747
2984.54, 0.178020
2986.26, 0.178430
2987.98, 0.178703
2989.71, 0.178976
2991.43, 0.179454
2993.16, 0.179795
2994.89, 0.180136
2996.62, 0.180546
2998.35, 0.181024
3000.09, 0.181501
3001.83, 0.181774
3003.57, 0.181979
3005.31, 0.182320
3007.05, 0.182525
3008.79, 0.182662
3010.54, 0.182662
3012.29, 0.182867
3014.04, 0.183140
3015.8, 0.183071
3017.55, 0.182867
3019.31, 0.182867
3021.07, 0.182935
3022.83, 0.182935
3024.59, 0.182730
3026.36, 0.182594
3028.13, 0.182525
3029.9, 0.182457
3031.67, 0.182320
3033.44, 0.182184
3035.22, 0.181979
3037.0, 0.181706
3038.78, 0.181433
3040.56, 0.181160
3042.34, 0.181024
3044.13, 0.181160
3045.92, 0.181228
3047.71, 0.181092
3049.5, 0.181024
3051.3, 0.180955
3053.09, 0.180887
3054.89, 0.181024
3056.69, 0.181297
3058.5, 0.181433
3060.3, 0.181638
3062.11, 0.181843
3063.92, 0.182047
3065.73, 0.182389
3067.55, 0.182798
3069.36, 0.183140
3071.18, 0.183481
3073.0, 0.184027
3074.82, 0.184505
3076.65, 0.184983
3078.48, 0.185392
3080.31, 0.185665
3082.14, 0.186006
3083.97, 0.186553
3085.8, 0.187099
3087.64, 0.187713
3089.48, 0.188191
3091.33, 0.188737
3093.17, 0.189351
3095.02, 0.189966
3096.87, 0.190443
3098.72, 0.190921
3100.57, 0.191672
3102.43, 0.192218
3104.28, 0.192832
3106.14, 0.193379
3108.01, 0.193788
3109.87, 0.194266
3111.74, 0.194812
3113.61, 0.195495
3115.48, 0.196109
3117.35, 0.196723
3119.23, 0.197269
3121.1, 0.197747
3122.98, 0.198225
3124.87, 0.199044
3126.75, 0.199863
3128.64, 0.200546
3130.53, 0.201365
3132.42, 0.202184
3134.31, 0.203071
3136.21, 0.203890
3138.11, 0.204710
3140.01, 0.205733
3141.91, 0.206553
3143.82, 0.207508
3145.73, 0.208259
3147.64, 0.209215
3149.55, 0.210239
3151.46, 0.211331
3153.38, 0.212355
3155.3, 0.213242
3157.22, 0.214402
3159.14, 0.215426
3161.07, 0.216177
3163.0, 0.217064
3164.93, 0.218088
3166.86, 0.219180
3168.8, 0.220204
3170.74, 0.221160
3172.68, 0.221979
3174.62, 0.222935
3176.56, 0.223959
3178.51, 0.224983
3180.46, 0.225938
3182.42, 0.226757
3184.37, 0.227781
3186.33, 0.228737
3188.29, 0.229488
3190.25, 0.230443
3192.21, 0.231399
3194.18, 0.232491
3196.15, 0.233378
3198.12, 0.234266
3200.09, 0.235290
3202.07, 0.236245
3204.05, 0.237133
3206.03, 0.238088
3208.02, 0.239044
3210.0, 0.240068
3211.99, 0.241092
3213.98, 0.242047
3215.98, 0.242935
3217.97, 0.243959
3219.97, 0.245119
3221.97, 0.246006
3223.98, 0.246757
3225.98, 0.247576
3227.99, 0.248532
3230.0, 0.249556
3232.02, 0.250580
3234.03, 0.251604
3236.05, 0.252559
3238.07, 0.253651
3240.1, 0.254539
3242.12, 0.255631
3244.15, 0.256723
3246.18, 0.257610
3248.22, 0.258430
3250.25, 0.259453
3252.29, 0.260614
3254.33, 0.261706
3256.38, 0.262730
3258.43, 0.263549
3260.47, 0.264368
3262.53, 0.265460
3264.58, 0.266621
3266.64, 0.267576
3268.7, 0.268532
3270.76, 0.269556
3272.82, 0.270580
3274.89, 0.271535
3276.96, 0.272423
3279.04, 0.273515
3281.11, 0.274675
3283.19, 0.275699
3285.27, 0.276723
3287.35, 0.277747
3289.44, 0.278703
3291.53, 0.279726
3293.62, 0.280819
3295.71, 0.281911
3297.81, 0.283071
3299.91, 0.284095
3302.01, 0.285187
3304.11, 0.286348
3306.22, 0.287440
3308.33, 0.288737
3310.44, 0.289965
3312.56, 0.291126
3314.68, 0.292218
3316.8, 0.293447
3318.92, 0.294675
3321.05, 0.295904
3323.18, 0.297064
3325.31, 0.298361
3327.44, 0.299658
3329.58, 0.301023
3331.72, 0.302320
3333.86, 0.303412
3336.01, 0.304641
3338.16, 0.306075
3340.31, 0.307371
3342.46, 0.308668
3344.61, 0.310034
3346.77, 0.311262
3348.94, 0.312286
3351.1, 0.313583
3353.27, 0.314812
3355.44, 0.315836
3357.61, 0.316996
3359.79, 0.318225
3361.97, 0.319249
3364.15, 0.320341
3366.33, 0.321433
3368.52, 0.322662
3370.71, 0.323890
3372.9, 0.325119
3375.1, 0.326279
3377.3, 0.327371
3379.5, 0.328600
3381.71, 0.329897
3383.91, 0.331057
3386.12, 0.332286
3388.34, 0.333651
3390.55, 0.334880
3392.77, 0.336177
3394.99, 0.337337
3397.22, 0.338566
3399.45, 0.339658
3401.68, 0.340955
3403.91, 0.342252
3406.15, 0.343617
3408.39, 0.344846
3410.63, 0.345733
3412.87, 0.346825
3415.12, 0.348054
3417.37, 0.349419
3419.63, 0.350580
3421.88, 0.351808
3424.14, 0.353242
3426.41, 0.354743
3428.67, 0.356040
3430.94, 0.357337
3433.21, 0.358566
3435.49, 0.359726
3437.77, 0.360955
3440.05, 0.362184
3442.33, 0.363481
3444.62, 0.364778
3446.91, 0.365801
3449.2, 0.367030
3451.5, 0.368327
3453.8, 0.369487
3456.1, 0.370580
3458.41, 0.371808
3460.72, 0.372900
3463.03, 0.373856
3465.34, 0.375016
3467.66, 0.376177
3469.98, 0.377201
3472.31, 0.378156
3474.63, 0.379112
3476.96, 0.380068
3479.3, 0.380887
3481.64, 0.381842
3483.97, 0.382934
3486.32, 0.383890
3488.66, 0.384777
3491.01, 0.385665
3493.36, 0.386552
3495.72, 0.387440
3498.08, 0.388190
3500.44, 0.389078
3502.81, 0.390102
3505.18, 0.391262
3507.55, 0.392286
3509.92, 0.393310
3512.3, 0.394470
3514.68, 0.395631
3517.06, 0.396723
3519.45, 0.397883
3521.84, 0.399044
3524.24, 0.400272
3526.64, 0.401364
3529.04, 0.402252
3531.44, 0.403276
3533.85, 0.404300
3536.26, 0.405324
3538.67, 0.406279
3541.09, 0.407235
3543.51, 0.408259
3545.93, 0.409214
3548.36, 0.409965
3550.79, 0.410853
3553.22, 0.411876
3555.66, 0.412900
3558.1, 0.413583
3560.54, 0.414334
3562.99, 0.415289
3565.44, 0.416177
3567.9, 0.416928
3570.35, 0.417610
3572.81, 0.418361
3575.28, 0.419112
3577.75, 0.419931
3580.22, 0.420750
3582.69, 0.421569
3585.17, 0.422184
3587.65, 0.423003
3590.14, 0.423822
3592.62, 0.424436
3595.11, 0.425119
3597.61, 0.425870
3600.11, 0.426484
3602.61, 0.427166
3605.11, 0.427917
3607.62, 0.428600
3610.14, 0.429078
3612.65, 0.429624
3615.17, 0.430306
3617.69, 0.430921
3620.22, 0.431330
3622.75, 0.431945
3625.28, 0.432559
3627.82, 0.433037
3630.36, 0.433719
3632.9, 0.434334
3635.45, 0.434948
3638.0, 0.435562
3640.56, 0.436040
3643.12, 0.436655
3645.68, 0.437201
3648.24, 0.437747
3650.81, 0.438361
3653.39, 0.438975
3655.96, 0.439453
3658.54, 0.440067
3661.13, 0.440545
3663.71, 0.441023
3666.3, 0.441637
3668.9, 0.442183
3671.5, 0.442661
3674.1, 0.443207
3676.7, 0.443822
3679.31, 0.444368
3681.93, 0.445050
3684.54, 0.445665
3687.17, 0.446074
3689.79, 0.446484
3692.42, 0.447030
3695.05, 0.447576
3697.69, 0.448190
3700.32, 0.448736
3702.97, 0.449282
3705.61, 0.449692
3708.27, 0.450238
3710.92, 0.450716
3713.58, 0.451194
3716.24, 0.451603
3718.91, 0.452149
3721.58, 0.452764
3724.25, 0.453242
3726.93, 0.453583
3729.61, 0.453992
3732.29, 0.454470
3734.98, 0.454948
3737.67, 0.455494
3740.37, 0.455904
3743.07, 0.456245
3745.78, 0.456723
3748.49, 0.457405
3751.2, 0.457815
3753.91, 0.458224
3756.63, 0.458634
3759.36, 0.459044
3762.09, 0.459590
3764.82, 0.459863
3767.55, 0.460136
3770.29, 0.460545
3773.04, 0.460818
3775.78, 0.461160
3778.54, 0.461706
3781.29, 0.462183
3784.05, 0.462525
3786.82, 0.462798
3789.59, 0.463207
3792.36, 0.463549
3795.13, 0.463822
3797.92, 0.464095
3800.7, 0.464436
3803.49, 0.464641
3806.28, 0.464846
3809.08, 0.465119
3811.88, 0.465323
3814.68, 0.465665
3817.49, 0.465938
3820.31, 0.466006
3823.12, 0.466142
3825.94, 0.466347
3828.77, 0.466552
3831.6, 0.466689
3834.43, 0.466962
3837.27, 0.467098
3840.11, 0.467371
3842.96, 0.467508
3845.81, 0.467644
3848.67, 0.467781
3851.53, 0.467986
3854.39, 0.468054
3857.26, 0.468190
3860.13, 0.468327
3863.01, 0.468327
3865.89, 0.468463
3868.77, 0.468532
3871.66, 0.468600
3874.55, 0.468805
3877.45, 0.469009
3880.35, 0.469009
3883.26, 0.469078
3886.17, 0.469146
3889.09, 0.469009
3892.01, 0.469078
3894.93, 0.469214
3897.86, 0.469214
3900.79, 0.469214
3903.73, 0.469146
3906.67, 0.469078
3909.62, 0.469214
3912.57, 0.469282
3915.52, 0.469146
3918.48, 0.469214
3921.45, 0.469351
3924.42, 0.469282
3927.39, 0.469146
3930.37, 0.469009
3933.35, 0.469009
3936.34, 0.468941
3939.33, 0.468941
3942.32, 0.469009
3945.32, 0.468941
3948.33, 0.468873
3951.34, 0.468873
3954.35, 0.468668
3957.37, 0.468395
3960.39, 0.468395
3963.42, 0.468395
3966.45, 0.468259
3969.49, 0.468190
3972.53, 0.468190
3975.58, 0.468122
3978.63, 0.467917
3981.68, 0.467712
3984.75, 0.467781
3987.81, 0.467644
3990.88, 0.467371
3993.95, 0.467166
3997.03, 0.467030
4000.12, 0.466962
4003.21, 0.466825
4006.3, 0.466757
4009.4, 0.466552
4012.5, 0.466347
4015.61, 0.466074
4018.72, 0.465801
4021.84, 0.465665
4024.96, 0.465528
4028.09, 0.465050
4031.22, 0.464709
4034.36, 0.464436
4037.5, 0.464095
4040.65, 0.463822
4043.8, 0.463549
4046.96, 0.463139
4050.12, 0.462730
4053.29, 0.462252
4056.46, 0.461910
4059.64, 0.461364
4062.82, 0.460750
4066.0, 0.460204
4069.19, 0.459794
4072.39, 0.459248
4075.59, 0.458566
4078.8, 0.458020
4082.01, 0.457337
4085.23, 0.456791
4088.45, 0.456245
4091.68, 0.455631
4094.91, 0.454811
4098.15, 0.454129
4101.39, 0.453515
4104.63, 0.452832
4107.89, 0.452149
4111.14, 0.451603
4114.41, 0.450852
4117.67, 0.450033
4120.95, 0.449351
4124.23, 0.448668
4127.51, 0.448054
4130.8, 0.447303
4134.09, 0.446552
4137.39, 0.445870
4140.7, 0.445187
4144.01, 0.444300
4147.32, 0.443412
4150.64, 0.442593
4153.97, 0.441637
4157.3, 0.440818
4160.64, 0.439999
4163.98, 0.439112
4167.33, 0.438156
4170.68, 0.437201
4174.04, 0.436177
4177.4, 0.435221
4180.77, 0.434265
4184.14, 0.433173
4187.52, 0.432149
4190.91, 0.431125
4194.3, 0.430033
4197.69, 0.428873
4201.1, 0.427781
4204.5, 0.426757
4207.92, 0.425597
4211.34, 0.424368
4214.76, 0.423071
4218.19, 0.421706
4221.62, 0.420477
4225.06, 0.419112
4228.51, 0.417678
4231.96, 0.416313
4235.42, 0.415085
4238.88, 0.413651
4242.35, 0.411945
4245.83, 0.410306
4249.31, 0.408873
4252.79, 0.407371
4256.28, 0.405733
4259.78, 0.403958
4263.29, 0.402115
4266.79, 0.400204
4270.31, 0.398225
4273.83, 0.396313
4277.35, 0.394402
4280.89, 0.392286
4284.42, 0.390102
4287.97, 0.387986
4291.52, 0.386006
4295.07, 0.383890
4298.63, 0.381501
4302.2, 0.379248
4305.78, 0.377201
4309.35, 0.375085
4312.94, 0.372969
4316.53, 0.370853
4320.13, 0.368600
4323.73, 0.366416
4327.34, 0.364504
4330.96, 0.362525
4334.58, 0.360545
4338.21, 0.358634
4341.84, 0.356791
4345.48, 0.355153
4349.12, 0.353651
4352.77, 0.352013
4356.43, 0.350511
4360.1, 0.349078
4363.76, 0.347713
4367.44, 0.346552
4371.12, 0.345324
4374.81, 0.344300
4378.51, 0.343276
4382.21, 0.342252
4385.92, 0.341433
4389.63, 0.340682
4393.35, 0.339863
4397.08, 0.339112
4400.81, 0.338566
4404.55, 0.337952
4408.29, 0.337337
4412.04, 0.336586
4415.8, 0.336109
4419.57, 0.335631
4423.34, 0.335221
4427.12, 0.334812
4430.9, 0.334402
4434.69, 0.333788
4438.49, 0.333242
4442.29, 0.332832
4446.1, 0.332491
4449.92, 0.332081
4453.74, 0.331603
4457.57, 0.330989
4461.41, 0.330443
4465.25, 0.330034
4469.1, 0.329556
4472.95, 0.329010
4476.82, 0.328464
4480.69, 0.327781
4484.56, 0.327030
4488.44, 0.326348
4492.33, 0.325733
4496.23, 0.324914
4500.13, 0.324095
4504.04, 0.323208
4507.96, 0.322252
4511.88, 0.321365
4515.81, 0.320409
4519.75, 0.319249
4523.69, 0.318088
4527.65, 0.316928
4531.6, 0.315836
4535.57, 0.314539
4539.54, 0.313378
4543.52, 0.312013
4547.5, 0.310648
4551.5, 0.309283
4555.5, 0.307781
4559.5, 0.306348
4563.52, 0.304914
4567.54, 0.303344
4571.56, 0.301911
4575.6, 0.300477
4579.64, 0.299044
4583.69, 0.297474
4587.75, 0.295836
4591.81, 0.294266
4595.88, 0.292969
4599.96, 0.291604
4604.04, 0.290102
4608.14, 0.288600
4612.24, 0.287235
4616.34, 0.285938
4620.46, 0.284641
4624.58, 0.283276
4628.71, 0.281774
4632.84, 0.280409
4636.99, 0.279317
4641.14, 0.277952
4645.3, 0.276723
4649.47, 0.275426
4653.64, 0.274129
4657.82, 0.272901
4662.01, 0.271535
4666.21, 0.270238
4670.41, 0.269215
4674.62, 0.268054
4678.84, 0.266825
4683.07, 0.265597
4687.3, 0.264505
4691.54, 0.263276
4695.79, 0.261911
4700.05, 0.260750
4704.31, 0.259658
4708.59, 0.258430
4712.87, 0.257269
4717.15, 0.256109
4721.45, 0.254948
4725.76, 0.253720
4730.07, 0.252628
4734.39, 0.251604
4738.72, 0.250511
4743.05, 0.249351
4747.39, 0.248327
4751.75, 0.247303
4756.1, 0.246211
4760.47, 0.245051
4764.85, 0.244027
4769.23, 0.243071
4773.62, 0.242116
4778.02, 0.241160
4782.43, 0.240068
4786.85, 0.239044
4791.27, 0.238020
4795.7, 0.237064
4800.14, 0.236245
4804.59, 0.235221
4809.05, 0.234198
4813.51, 0.233310
4817.99, 0.232355
4822.47, 0.231331
4826.96, 0.230512
4831.46, 0.229692
4835.96, 0.228805
4840.48, 0.227918
4845.0, 0.227099
4849.54, 0.226348
4854.08, 0.225529
4858.63, 0.224709
4863.18, 0.223890
4867.75, 0.223003
4872.33, 0.222184
4876.91, 0.221433
4881.5, 0.220614
4886.1, 0.219795
4890.71, 0.218976
4895.33, 0.218088
4899.96, 0.217133
4904.59, 0.216245
4909.24, 0.215290
4913.89, 0.214334
4918.55, 0.213378
4923.22, 0.212355
4927.9, 0.211331
4932.59, 0.210307
4937.29, 0.209215
4942.0, 0.208191
4946.71, 0.207167
4951.44, 0.206006
4956.17, 0.204846
4960.91, 0.203686
4965.67, 0.202662
4970.43, 0.201570
4975.2, 0.200409
4979.98, 0.199249
4984.76, 0.198088
4989.56, 0.196996
4994.37, 0.195699
4999.18, 0.194539
5004.01, 0.193447
5008.84, 0.192355
5013.69, 0.191194
5018.54, 0.189761
5023.4, 0.188600
5028.28, 0.187576
5033.16, 0.186484
5038.05, 0.185324
5042.95, 0.184095
5047.86, 0.183003
5052.78, 0.181911
5057.71, 0.180751
5062.65, 0.179522
5067.6, 0.178361
5072.56, 0.177133
5077.53, 0.175904
5082.5, 0.174607
5087.49, 0.173310
5092.49, 0.172013
5097.5, 0.170853
5102.51, 0.169624
5107.54, 0.168396
5112.58, 0.167167
5117.62, 0.165802
5122.68, 0.164300
5127.75, 0.163003
5132.82, 0.161638
5137.91, 0.160136
5143.01, 0.158635
5148.12, 0.157133
5153.23, 0.156041
5158.36, 0.154949
5163.5, 0.153720
5168.65, 0.152491
5173.81, 0.151194
5178.98, 0.149829
5184.15, 0.148669
5189.34, 0.147577
5194.54, 0.146280
5199.75, 0.144846
5204.98, 0.143822
5210.21, 0.142525
5215.45, 0.141365
5220.7, 0.140682
5225.96, 0.139658
5231.23, 0.138498
5236.52, 0.137269
5241.81, 0.136382
5247.12, 0.135426
5252.44, 0.134471
5257.76, 0.133447
5263.1, 0.132491
5268.45, 0.131604
5273.81, 0.130580
5279.18, 0.129693
5284.56, 0.128805
5289.95, 0.127713
5295.36, 0.126894
5300.77, 0.126280
5306.2, 0.125461
5311.63, 0.124573
5317.08, 0.123618
5322.54, 0.122867
5328.01, 0.122048
5333.49, 0.121160
5338.98, 0.120341
5344.49, 0.119044
5350.0, 0.117747
5355.53, 0.117065
5361.07, 0.116450
5366.62, 0.115699
5372.18, 0.114812
5377.75, 0.113993
5383.34, 0.113037
5388.93, 0.112150
5394.54, 0.111263
5400.16, 0.110443
5405.79, 0.109556
5411.44, 0.108600
5417.09, 0.107235
5422.76, 0.106007
5428.43, 0.106007
5434.12, 0.105734
5439.83, 0.104983
5445.54, 0.104368
5451.26, 0.103891
5457.0, 0.103140
5462.75, 0.102184
5468.52, 0.101911
5474.29, 0.101775
5480.08, 0.101365
5485.88, 0.101297
5491.69, 0.101092
5497.51, 0.100819
5503.35, 0.100614
5509.2, 0.100682
5515.06, 0.100409
5520.93, 0.100068
5526.82, 0.100000
5532.71, 0.0998630
5538.63, 0.0996590
5544.55, 0.0992490
5550.49, 0.0987030
5556.44, 0.0985660
5562.4, 0.0984980
5568.37, 0.0981570
5574.36, 0.0970650
5580.36, 0.0963820
5586.37, 0.0965870
5592.4, 0.0966550
5598.44, 0.0960410
5604.49, 0.0954260
5610.56, 0.0949490
5616.63, 0.0942660
5622.73, 0.0938560
5628.83, 0.0933790
5634.95, 0.0922870
5641.08, 0.0908530
5647.23, 0.0909210
5653.39, 0.0908530
5659.56, 0.0905800
5665.74, 0.0903070
5671.94, 0.0892150
5678.15, 0.0886010
5684.38, 0.0883960
5690.62, 0.0877130
5696.87, 0.0873720
5703.14, 0.0866210
5709.42, 0.0853240
5715.72, 0.0848460
5722.03, 0.0847100
5728.35, 0.0844370
5734.69, 0.0836860
5741.03, 0.0827980
5747.4, 0.0818430
5753.78, 0.0816380
5760.17, 0.0802730
5766.58, 0.0783620
5773.0, 0.0787710
5779.44, 0.0789760
5785.88, 0.0784300
5792.35, 0.0776790
5798.83, 0.0767920
5805.32, 0.0760410
5811.83, 0.0748800
5818.35, 0.0728330
5824.89, 0.0716720
5831.45, 0.0716720
5838.01, 0.0713310
5844.59, 0.0706480
5851.19, 0.0696240
5857.8, 0.0683280
5864.43, 0.0670310
5871.07, 0.0659380
5877.73, 0.0635490
5884.4, 0.0623210
5891.09, 0.0616380
5897.79, 0.0602050
5904.5, 0.0600680
5911.23, 0.0591130
5917.98, 0.0577470
5924.75, 0.0564500
5931.53, 0.0544710
5938.32, 0.0531060
5945.13, 0.0535150
5951.96, 0.0534470
5958.8, 0.0531060
5965.65, 0.0521500
5972.53, 0.0518770
5979.42, 0.0520140
5986.32, 0.0514670
5993.24, 0.0511940
6000.18, 0.0513310
6007.13, 0.0509210
6014.1, 0.0505800
6021.08, 0.0508530
6028.09, 0.0509210
6035.1, 0.0507170
6042.14, 0.0494200
6049.19, 0.0480550
6056.25, 0.0491470
6063.34, 0.0498980
6070.44, 0.0494200
6077.55, 0.0494880
6084.69, 0.0501710
6091.84, 0.0505800
6099.0, 0.0506480
6106.19, 0.0502390
6113.39, 0.0497610
6120.61, 0.0505800
6127.84, 0.0511260
6135.09, 0.0509900
6142.36, 0.0509210
6149.65, 0.0509210
6156.95, 0.0507170
6164.27, 0.0508530
6171.61, 0.0510580
6178.97, 0.0504440
6186.34, 0.0500340
6193.73, 0.0507170
6201.14, 0.0509900
6208.57, 0.0509210
6216.01, 0.0507850
6223.47, 0.0508530
6230.95, 0.0509210
6238.45, 0.0508530
6245.97, 0.0509210
6253.5, 0.0509900
6261.06, 0.0511260
6268.63, 0.0512630
6276.21, 0.0513990
6283.82, 0.0516040
6291.45, 0.0518090
6299.1, 0.0520820
6306.76, 0.0522180
6314.44, 0.0523550
6322.14, 0.0525600
6329.86, 0.0526280
6337.6, 0.0520820
6345.35, 0.0517410
6353.13, 0.0526960
6360.92, 0.0530370
6368.74, 0.0527640
6376.57, 0.0531060
6384.43, 0.0535150
6392.3, 0.0536520
6400.19, 0.0532420
6408.1, 0.0517410
6416.03, 0.0511260
6423.98, 0.0522870
6431.95, 0.0528330
6439.94, 0.0532420
6447.95, 0.0534470
6455.98, 0.0534470
6464.03, 0.0532420
6472.1, 0.0528330
6480.19, 0.0522180
6488.31, 0.0511940
6496.44, 0.0511260
6504.59, 0.0522180
6512.76, 0.0524910
6520.95, 0.0522180
6529.16, 0.0524910
6537.4, 0.0526280
6545.65, 0.0522870
6553.92, 0.0518090
6562.22, 0.0515360
6570.54, 0.0508530
6578.88, 0.0510580
6587.23, 0.0513310
6595.61, 0.0511940
6604.02, 0.0511940
6612.44, 0.0509900
6620.89, 0.0507850
6629.35, 0.0498290
6637.84, 0.0490780
6646.35, 0.0498290
6654.88, 0.0505120
6663.44, 0.0503750
6672.01, 0.0499660
6680.61, 0.0495560
6689.23, 0.0497610
6697.88, 0.0498980
6706.54, 0.0493510
6715.23, 0.0492830
6723.94, 0.0495560
6732.67, 0.0496930
6741.42, 0.0496240
6750.2, 0.0494200
6759.0, 0.0493510
6767.82, 0.0490100
6776.67, 0.0486010
6785.54, 0.0480550
6794.44, 0.0479860
6803.35, 0.0483280
6812.29, 0.0483960
6821.26, 0.0479860
6830.24, 0.0477130
6839.25, 0.0477810
6848.29, 0.0473040
6857.35, 0.0462800
6866.43, 0.0460070
6875.54, 0.0468260
6884.67, 0.0468940
6893.82, 0.0468940
6903.0, 0.0466210
6912.2, 0.0464160
6921.43, 0.0463480
6930.69, 0.0462800
6939.96, 0.0460750
6949.27, 0.0453920
6958.59, 0.0446420
6967.95, 0.0447780
6977.33, 0.0447780
6986.73, 0.0443690
6996.16, 0.0442320
7005.61, 0.0440950
7015.09, 0.0436180
7024.6, 0.0432080
7034.13, 0.0427300
7043.69, 0.0420480
7053.27, 0.0417750
7062.88, 0.0417060
7072.52, 0.0414330
7082.18, 0.0410920
7091.87, 0.0407510
7101.58, 0.0404090
7111.32, 0.0399320
7121.09, 0.0395220
7130.88, 0.0391810
7140.71, 0.0387030
7150.56, 0.0381570
7160.43, 0.0377470
7170.33, 0.0373380
7180.27, 0.0369280
7190.23, 0.0365190
7200.21, 0.0359730
7210.23, 0.0355630
7220.27, 0.0353580
7230.34, 0.0349490
7240.44, 0.0344030
7250.56, 0.0339250
7260.72, 0.0335150
7270.9, 0.0329010
7281.12, 0.0322180
7291.36, 0.0317410
7301.63, 0.0313990
7311.93, 0.0308530
7322.25, 0.0303750
7332.61, 0.0298290
7343.0, 0.0293510
7353.41, 0.0288050
7363.86, 0.0282590
7374.33, 0.0277130
7384.83, 0.0272350
7395.37, 0.0268940
7405.93, 0.0264850
7416.53, 0.0259390
7427.15, 0.0253240
7437.81, 0.0249150
7448.5, 0.0243690
7459.22, 0.0238910
7469.96, 0.0233450
7480.74, 0.0229350
7491.55, 0.0225940
7502.39, 0.0221160
7513.27, 0.0215020
7524.17, 0.0208870
7535.11, 0.0204780
7546.08, 0.0200000
7557.08, 0.0194540
7568.11, 0.0189760
7579.17, 0.0185670
7590.27, 0.0180200
7601.4, 0.0175430
7612.56, 0.0171330
7623.76, 0.0165870
7634.98, 0.0161090
7646.24, 0.0157680
7657.54, 0.0152900
7668.87, 0.0148810
7680.23, 0.0143340
7691.62, 0.0138570
7703.05, 0.0134470
7714.51, 0.0129010
7726.01, 0.0124230
7737.54, 0.0120140
7749.11, 0.0116040
7760.71, 0.0111950
7772.35, 0.0107850
7784.02, 0.0103750
7795.72, 0.00982900
7807.46, 0.00948800
7819.23, 0.00921500
7831.04, 0.00873700
7842.89, 0.00839600
7854.77, 0.00798600
7866.69, 0.00764500
7878.65, 0.00730400
7890.64, 0.00716700
7902.67, 0.00696200
7914.74, 0.00662100
7926.84, 0.00634800
7938.98, 0.00614300
7951.16, 0.00600700
7963.37, 0.00580200
7975.62, 0.00566600
7987.91, 0.00552900
8000.24, 0.00539200
8012.6, 0.00539200
8025.01, 0.00552900
8037.45, 0.00573400
8049.93, 0.00580200
8062.45, 0.00600700
8075.01, 0.00641600
8087.61, 0.00689400
8100.24, 0.00757700
8112.91, 0.00860100
8125.63, 0.00969300
8138.39, 0.0108530
8151.18, 0.0125600
8164.02, 0.0147440
8176.9, 0.0170650
8189.81, 0.0198630
8202.77, 0.0232080
8215.77, 0.0270990
8228.82, 0.0312630
8241.9, 0.0359040
8255.02, 0.0407510
8268.19, 0.0455970
8281.39, 0.0502390
8294.65, 0.0546760
8307.94, 0.0585660
8321.28, 0.0616380
8334.66, 0.0640950
8348.08, 0.0662110
8361.54, 0.0679860
8375.05, 0.0694200
8388.6, 0.0707850
8402.2, 0.0720820
8415.84, 0.0733100
8429.52, 0.0744030
8443.25, 0.0755630
8457.02, 0.0766550
8470.84, 0.0777470
8484.7, 0.0786350
8498.61, 0.0793170
8512.57, 0.0800000
8526.57, 0.0807510
8540.62, 0.0814330
8554.71, 0.0823210
8568.85, 0.0832080
8583.04, 0.0838220
8597.27, 0.0847780
8611.55, 0.0858020
8625.88, 0.0866890
8640.26, 0.0875080
8654.68, 0.0885320
8669.16, 0.0895560
8683.68, 0.0906480
8698.25, 0.0918090
8712.87, 0.0930370
8727.53, 0.0941980
8742.25, 0.0953580
8757.02, 0.0966550
8771.83, 0.0978840
8786.7, 0.0990440
8801.62, 0.100341
8816.59, 0.101775
8831.61, 0.102935
8846.68, 0.103891
8861.8, 0.104710
8876.97, 0.105256
8892.2, 0.105665
8907.48, 0.105870
8922.81, 0.105665
8938.2, 0.105119
8953.63, 0.104437
8969.13, 0.103549
8984.67, 0.102389
9000.27, 0.101024
9015.92, 0.0995220
9031.63, 0.0978160
9047.39, 0.0961770
9063.21, 0.0945390
9079.08, 0.0927640
9095.01, 0.0909900
9111.0, 0.0891470
9127.04, 0.0871670
9143.13, 0.0853240
9159.28, 0.0835490
9175.49, 0.0821160
9191.76, 0.0810920
9208.09, 0.0803410
9224.47, 0.0797270
9240.92, 0.0794540
9257.42, 0.0795220
9273.98, 0.0798630
9290.6, 0.0804780
9307.28, 0.0812970
9324.02, 0.0823890
9340.82, 0.0836180
9357.68, 0.0847100
9374.6, 0.0860070
9391.58, 0.0873040
9408.62, 0.0883960
9425.73, 0.0895560
9442.9, 0.0909900
9460.13, 0.0924230
9477.42, 0.0937880
9494.78, 0.0952900
9512.2, 0.0969280
9529.69, 0.0988390
9547.24, 0.100887
9564.86, 0.103345
9582.54, 0.105734
9600.28, 0.107986
9618.1, 0.110512
9635.97, 0.113106
9653.92, 0.115563
9671.93, 0.118020
9690.01, 0.120000
9708.16, 0.121638
9726.37, 0.123481
9744.65, 0.124914
9763.0, 0.125802
9781.43, 0.126553
9799.92, 0.127099
9818.48, 0.127645
9837.1, 0.128123
9855.8, 0.128805
9874.58, 0.128942
9893.42, 0.128942
9912.34, 0.128873
9931.33, 0.128669
9950.39, 0.128259
9969.52, 0.128259
9988.74, 0.128532
10008.0, 0.128464
10027.4, 0.128191
10046.8, 0.128191
10066.3, 0.127986
10085.9, 0.127235
10105.6, 0.126689
10125.3, 0.126348
10145.1, 0.126007
10165.0, 0.125597
10185.0, 0.125392
10205.0, 0.124983
10225.2, 0.124641
10245.4, 0.124983
10265.7, 0.125734
10286.0, 0.126621
10306.5, 0.127781
10327.0, 0.129283
10347.6, 0.130921
10368.3, 0.132150
10389.1, 0.133242
10409.9, 0.134334
10430.9, 0.135153
10451.9, 0.136109
10473.0, 0.136860
10494.2, 0.137406
10515.5, 0.138020
10536.9, 0.138771
10558.4, 0.139863
10579.9, 0.140614
10601.5, 0.141160
10623.3, 0.141638
10645.1, 0.141774
10667.0, 0.141774
10689.0, 0.141501
10711.1, 0.141297
10733.2, 0.141297
10755.5, 0.141092
10777.9, 0.140887
10800.3, 0.140614
10822.9, 0.140068
10845.5, 0.139112
10868.2, 0.137747
10891.1, 0.136450
10914.0, 0.134880
10937.0, 0.132764
10960.2, 0.130648
10983.4, 0.128805
11006.7, 0.127099
11030.1, 0.125324
11053.6, 0.123618
11077.3, 0.121706
11101.0, 0.119863
11124.8, 0.118089
11148.7, 0.116041
11172.7, 0.113925
11196.9, 0.111809
11221.1, 0.109761
11245.4, 0.107440
11269.9, 0.105119
11294.4, 0.102798
11319.1, 0.100546
11343.9, 0.0983620
11368.8, 0.0961090
11393.7, 0.0942660
11418.8, 0.0925600
11444.0, 0.0906480
11469.4, 0.0886010
11494.8, 0.0867580
11520.3, 0.0851880
11546.0, 0.0837540
11571.8, 0.0823210
11597.7, 0.0806820
11623.7, 0.0791810
11649.8, 0.0780890
11676.0, 0.0772010
11702.4, 0.0761770
11728.9, 0.0750850
11755.5, 0.0739250
11782.2, 0.0727640
11809.0, 0.0718770
11836.0, 0.0711940
11863.0, 0.0703750
11890.3, 0.0696930
11917.6, 0.0689420
11945.0, 0.0683280
11972.6, 0.0677130
12000.4, 0.0670990
12028.2, 0.0664160
12056.2, 0.0656650
12084.3, 0.0647100
12112.5, 0.0636860
12140.9, 0.0627990
12169.4, 0.0617750
12198.0, 0.0607510
12226.8, 0.0597950
12255.7, 0.0587710
12284.7, 0.0573380
12313.9, 0.0557000
12343.2, 0.0543340
12372.7, 0.0529010
12402.3, 0.0513990
12432.0, 0.0498980
12461.9, 0.0484640
12491.9, 0.0468940
12522.1, 0.0454610
12552.4, 0.0442320
12582.9, 0.0432080
12613.5, 0.0423890
12644.3, 0.0415700
12675.2, 0.0407510
12706.3, 0.0401360
12737.5, 0.0397270
12768.9, 0.0395220
12800.4, 0.0396590
12832.1, 0.0401360
12863.9, 0.0408870
12895.9, 0.0412970
12928.1, 0.0412290
12960.4, 0.0410920
12992.9, 0.0413650
13025.5, 0.0417060
13058.3, 0.0419790
13091.3, 0.0419790
13124.4, 0.0423210
13157.8, 0.0430720
13191.2, 0.0433450
13224.9, 0.0434810
13258.7, 0.0436860
13292.7, 0.0438910
13326.9, 0.0437540
13361.2, 0.0436180
13395.7, 0.0433450
13430.4, 0.0428670
13465.3, 0.0426620
13500.4, 0.0427990
13535.7, 0.0428670
13571.1, 0.0431400
13606.7, 0.0434130
13642.5, 0.0436180
13678.5, 0.0438220
13714.7, 0.0440270
13751.1, 0.0441640
13787.6, 0.0438910
13824.4, 0.0432080
13861.4, 0.0429350
13898.5, 0.0424570
13935.9, 0.0415020
13973.5, 0.0406140
14011.2, 0.0397270
14049.2, 0.0390440
14087.4, 0.0382930
14125.8, 0.0372700
14164.3, 0.0369280
14203.2, 0.0368600
14242.2, 0.0365870
14281.4, 0.0365190
14320.9, 0.0361770
14360.5, 0.0357000
14400.4, 0.0355630
14440.5, 0.0355630
14480.9, 0.0359040
14521.4, 0.0365190
14562.2, 0.0371330
14603.3, 0.0376110
14644.5, 0.0376110
14686.0, 0.0376790
14727.7, 0.0378160
14769.7, 0.0376790
14811.9, 0.0374060
14854.3, 0.0379520
14897.0, 0.0385660
14939.9, 0.0391810
14983.1, 0.0400000
15026.5, 0.0404780
15070.2, 0.0404090
15114.2, 0.0405460
15158.3, 0.0410240
15202.8, 0.0419790
15247.5, 0.0436180
15292.5, 0.0464160
15337.7, 0.0509210
15383.2, 0.0561770
15429.0, 0.0623210
15475.1, 0.0687370
15521.4, 0.0740610
15568.0, 0.0789080
15614.9, 0.0836860
15662.1, 0.0875080
15709.6, 0.0901700
15757.3, 0.0924910
15805.4, 0.0945390
15853.7, 0.0960410
15902.3, 0.0970650
15951.2, 0.0977470
16000.5, 0.0972010
16050.0, 0.0956310
16099.8, 0.0937880
16150.0, 0.0920130
16200.5, 0.0906480
16251.3, 0.0902390
16302.4, 0.0907850
16353.8, 0.0918770
16405.5, 0.0935150
16457.6, 0.0961090
16510.0, 0.0988390
16562.8, 0.101365
16615.9, 0.104027
16669.3, 0.106280
16723.1, 0.108532
16777.2, 0.110375
16831.7, 0.111877
16886.5, 0.112286
16941.7, 0.112150
16997.2, 0.111399
17053.1, 0.109283
17109.4, 0.106621
17166.1, 0.104846
17223.1, 0.102730
17280.5, 0.100819
17338.3, 0.100068
17396.5, 0.100205
17455.1, 0.100273
17514.0, 0.0999320
17573.4, 0.0984980
17633.2, 0.0961770
17693.4, 0.0930370
17754.0, 0.0897610
17815.0, 0.0870310
17876.4, 0.0843000
17938.3, 0.0819790
18000.5, 0.0817060
18063.3, 0.0832760
18126.4, 0.0859380
18190.0, 0.0906480
18254.1, 0.0964500
18318.6, 0.103003
18383.5, 0.109010
18449.0, 0.113583
18514.9, 0.116414
18581.2, 0.104069
18648.0, 0.112261
18715.4, 0.103471
18783.2, 0.0946240
18851.5, 0.0883950
18920.3, 0.0868610
18989.6, 0.0846170
19059.4, 0.0795670
19129.7, 0.0678580
19200.6, 0.0764990
19272.0, 0.0777900
19343.9, 0.0753400
19416.3, 0.0717670
19489.3, 0.0701400
19562.8, 0.0710380
19637.0, 0.0699720
19711.6, 0.0616980
19786.8, 0.0643040
19862.6, 0.0606760
19939.0, 0.0595540
20016.0, 0.0572340
20093.6, 0.0564860
20171.8, 0.0561310
20250.6, 0.0545410
20330.0, 0.0505510
20410.0, 0.0553450
20490.7, 0.0558500
20572.0, 0.0583380
20654.0, 0.0605640
20736.6, 0.0613300
20819.9, 0.0627330
20903.8, 0.0628270
20988.5, 0.0553890
21073.8, 0.0637060
21159.8, 0.0665490
21246.5, 0.0672600
21334.0, 0.0664930
21422.1, 0.0667920
21511.0, 0.0672970
21600.7, 0.0684190
21691.0, 0.0636190
21782.1, 0.0656880
21874.0, 0.0638550
21966.7, 0.0604140
22060.2, 0.0565230
22154.5, 0.0559060
22249.6, 0.0568410
22345.5, 0.0583750
22442.2, 0.0555880
22539.8, 0.0635940
22638.2, 0.0699530
22737.5, 0.0761810
22837.7, 0.0837190
22938.7, 0.0919860
23040.7, 0.100852
23143.5, 0.108090
23247.3, 0.107161
23352.1, 0.118677
23457.7, 0.121913
23564.4, 0.123858
23672.0, 0.123372
23780.5, 0.122287
23890.1, 0.119350
24000.7, 0.114618
24112.3, 0.105366
24225.0, 0.108913
24338.7, 0.107642
24453.5, 0.108203
24569.4, 0.109830
24686.4, 0.113328
24804.5, 0.116002
24923.8, 0.120061
25044.2, 0.118733
25165.8, 0.131508
25288.6, 0.137044
25412.5, 0.144657
25537.7, 0.152213
25664.1, 0.154196
25791.8, 0.155037
25920.8, 0.156702
26051.1, 0.149333
26182.6, 0.159321
26315.5, 0.158124
26449.8, 0.157170
26585.4, 0.156646
26722.5, 0.155449
26860.9, 0.153017
27000.8, 0.150997
27142.1, 0.141203
27285.0, 0.149258
27429.4, 0.147275
27575.3, 0.144919
27722.7, 0.143179
27871.8, 0.140953
28022.4, 0.137718
28174.7, 0.138054
28328.7, 0.127985
28484.4, 0.137886
28641.7, 0.136951
28800.9, 0.135941
28961.8, 0.135249
29124.5, 0.134164
29289.0, 0.131433
29455.4, 0.128328
29623.8, 0.116588
29794.0, 0.121688
29966.3, 0.118415
30140.5, 0.115796
30316.7, 0.115030
30495.1, 0.114375
30675.5, 0.112018
30858.1, 0.111887
31042.8, 0.102573
31229.8, 0.109306
31419.1, 0.109998
31610.7, 0.112430
31804.6, 0.114637
32000.9, 0.115684
32199.7, 0.116881
32400.9, 0.119967
32604.8, 0.110379
32811.1, 0.122418
33020.1, 0.122081
33231.8, 0.119388
33446.2, 0.115310
33663.4, 0.113010
33883.4, 0.110354
34106.3, 0.107361
34332.1, 0.0972860
34561.0, 0.103695
34792.9, 0.104368
35028.0, 0.101600
35266.3, 0.0989630
35507.8, 0.100197
35752.7, 0.100066
36001.0, 0.0976350
36252.8, 0.0873600
36508.1, 0.0937070
36767.0, 0.0917240
37029.7, 0.0877970
37296.1, 0.0853840
37566.3, 0.0844490
37840.5, 0.0819240
38118.8, 0.0798660
38401.2, 0.0763870
38687.8, 0.0810440
38978.6, 0.0801280
39273.9, 0.0790620
39573.7, 0.0796600
39878.1, 0.0850840
40187.3, 0.0938750
40501.2, 0.102124
40820.0, 0.106289
41144.0, 0.114917
41473.2, 0.118116
41807.6, 0.124363
42147.5, 0.129488
42493.0, 0.131358
42844.2, 0.134631
43201.2, 0.139139
43564.3, 0.140405
43933.5, 0.145087
44309.0, 0.142730
44691.0, 0.138933
45079.6, 0.135772
45475.0, 0.131695
45877.5, 0.130423
46287.1, 0.129488
46704.2, 0.129955
47128.7, 0.136651
47561.1, 0.141645
48001.5, 0.147144
48450.1, 0.145667
48907.2, 0.142169
49373.0, 0.141963
49847.7, 0.137269
50331.5, 0.132674
50825.0, 0.131844
51328.2, 0.126308
51841.5, 0.122156
52365.1, 0.121071
52899.4, 0.118770
53444.8, 0.114824
54001.5, 0.113440
54570.1, 0.117561
55150.6, 0.117311
55743.6, 0.118022
56349.5, 0.119238
56968.7, 0.118602
57601.7, 0.116881
58248.9, 0.118434
58910.9, 0.121015
59588.1, 0.120928
60281.0, 0.121857
60990.2, 0.120903
61716.3, 0.122642
62459.8, 0.122848
63221.6, 0.126009
64002.1, 0.127225
64802.1, 0.127599
65622.1, 0.131651
66463.4, 0.132424
67326.6, 0.136782
68212.4, 0.136203
69121.9, 0.132424
70056.0, 0.132929
71015.7, 0.137119
72002.0, 0.136184
73016.3, 0.134320
74059.4, 0.131975
75132.7, 0.136165
76237.6, 0.135024
77375.5, 0.133790
78547.9, 0.137755
79756.3, 0.141309
81002.5, 0.143441
82288.5, 0.147113
83615.7, 0.138316
84986.5, 0.133229
86402.9, 0.136651
87867.4, 0.135754
89382.4, 0.132985
90950.5, 0.132985
92574.6, 0.131040
94257.2, 0.129008
96002.7, 0.126084
97814.1, 0.123315
99695.1, 0.122137
101650.0, 0.122324
103683.0, 0.125074
105799.0, 0.131339
108003.0, 0.132237
110301.0, 0.133821
112699.0, 0.131246
115204.0, 0.126869
117822.0, 0.124849
120562.0, 0.131788
123433.0, 0.133023
126443.0, 0.131882
129604.0, 0.133341
132926.0, 0.138684
136424.0, 0.126607
140111.0, 0.140635
144003.0, 0.143460
148118.0, 0.137886
152474.0, 0.142543
157095.0, 0.158928
162004.0, 0.163174
167231.0, 0.172177
172805.0, 0.133734
178764.0, 0.124344
185148.0, 0.121613
192005.0, 0.121034
199390.0, 0.104911
207366.0, 0.134014
216006.0, 0.0963440
