Database of Origin,USGS Spectral Database
Sample Description,See USGS database for additional info
Date Added,2017-02-22 02:48:43.144872

Data ID,USGS_ura02          
Sample ID,uralite_hs345.23337
Mineral Name,uralite

Wavelength
1599.06, 0.511404
1599.55, 0.510952
1600.05, 0.512532
1600.54, 0.513134
1601.04, 0.513285
1601.53, 0.512833
1602.03, 0.512382
1602.52, 0.512231
1603.02, 0.512758
1603.51, 0.511930
1604.01, 0.512231
1604.5, 0.512382
1605.0, 0.512608
1605.5, 0.512909
1606.0, 0.513661
1606.49, 0.513586
1606.99, 0.513887
1607.49, 0.513887
1607.99, 0.514037
1608.49, 0.513962
1608.99, 0.513812
1609.49, 0.513586
1609.99, 0.514639
1610.49, 0.515166
1610.99, 0.514940
1611.49, 0.513887
1611.99, 0.514489
1612.49, 0.515166
1612.99, 0.515166
1613.49, 0.514715
1614.0, 0.515542
1614.5, 0.515768
1615.0, 0.516144
1615.51, 0.515241
1616.01, 0.515392
1616.51, 0.515241
1617.02, 0.515768
1617.52, 0.515768
1618.03, 0.516144
1618.53, 0.516220
1619.04, 0.516746
1619.54, 0.516295
1620.05, 0.515768
1620.55, 0.515768
1621.06, 0.516596
1621.57, 0.516671
1622.08, 0.517123
1622.58, 0.516822
1623.09, 0.517273
1623.6, 0.516972
1624.11, 0.516822
1624.62, 0.516521
1625.13, 0.516746
1625.64, 0.516445
1626.15, 0.516445
1626.66, 0.516746
1627.17, 0.517273
1627.68, 0.517649
1628.19, 0.517875
1628.7, 0.517424
1629.21, 0.517725
1629.72, 0.517499
1630.24, 0.517574
1630.75, 0.517574
1631.26, 0.518477
1631.78, 0.518402
1632.29, 0.518628
1632.8, 0.518778
1633.32, 0.518628
1633.83, 0.518251
1634.35, 0.518552
1634.86, 0.518101
1635.38, 0.518026
1635.9, 0.517424
1636.41, 0.518176
1636.93, 0.518628
1637.45, 0.518703
1637.96, 0.518853
1638.48, 0.518778
1639.0, 0.518703
1639.52, 0.519305
1640.04, 0.519230
1640.56, 0.519230
1641.08, 0.518929
1641.59, 0.519154
1642.11, 0.519004
1642.63, 0.519455
1643.16, 0.519756
1643.68, 0.519907
1644.2, 0.519531
1644.72, 0.519606
1645.24, 0.519230
1645.76, 0.520133
1646.29, 0.520358
1646.81, 0.520659
1647.33, 0.520208
1647.86, 0.520358
1648.38, 0.520358
1648.9, 0.520358
1649.43, 0.519982
1649.95, 0.520208
1650.48, 0.520133
1651.0, 0.520659
1651.53, 0.520810
1652.06, 0.521638
1652.58, 0.521261
1653.11, 0.520735
1653.64, 0.520735
1654.17, 0.521186
1654.69, 0.520960
1655.22, 0.521261
1655.75, 0.521412
1656.28, 0.521788
1656.81, 0.521412
1657.34, 0.521562
1657.87, 0.521562
1658.4, 0.521412
1658.93, 0.521261
1659.46, 0.521788
1659.99, 0.521939
1660.52, 0.521713
1661.05, 0.521638
1661.59, 0.522541
1662.12, 0.522315
1662.65, 0.522616
1663.19, 0.522616
1663.72, 0.523293
1664.26, 0.523368
1664.79, 0.522766
1665.32, 0.523067
1665.86, 0.523594
1666.39, 0.523519
1666.93, 0.523970
1667.47, 0.523444
1668.0, 0.523218
1668.54, 0.522917
1669.08, 0.522992
1669.61, 0.523368
1670.15, 0.523895
1670.69, 0.523669
1671.23, 0.524196
1671.77, 0.524121
1672.31, 0.524648
1672.85, 0.524648
1673.39, 0.524046
1673.93, 0.523218
1674.47, 0.524046
1675.01, 0.524949
1675.55, 0.525250
1676.09, 0.524723
1676.64, 0.525024
1677.18, 0.525400
1677.72, 0.525852
1678.26, 0.525551
1678.81, 0.525476
1679.35, 0.525325
1679.89, 0.525852
1680.44, 0.525701
1680.98, 0.526002
1681.53, 0.526077
1682.07, 0.526529
1682.62, 0.526378
1683.17, 0.526378
1683.71, 0.526454
1684.26, 0.526905
1684.81, 0.526529
1685.36, 0.527056
1685.9, 0.527056
1686.45, 0.527206
1687.0, 0.527206
1687.55, 0.527281
1688.1, 0.527056
1688.65, 0.527883
1689.2, 0.527959
1689.75, 0.527658
1690.3, 0.527733
1690.85, 0.528786
1691.41, 0.528786
1691.96, 0.528561
1692.51, 0.528561
1693.06, 0.529012
1693.61, 0.528410
1694.17, 0.528410
1694.72, 0.528485
1695.28, 0.528937
1695.83, 0.529087
1696.39, 0.529614
1696.94, 0.529388
1697.5, 0.529313
1698.05, 0.529012
1698.61, 0.528862
1699.17, 0.528937
1699.72, 0.529238
1700.28, 0.529388
1700.84, 0.529539
1701.4, 0.529388
1701.95, 0.530517
1702.51, 0.530593
1703.07, 0.530291
1703.63, 0.530291
1704.19, 0.530517
1704.75, 0.530141
1705.31, 0.530066
1705.88, 0.529915
1706.44, 0.529840
1707.0, 0.529614
1707.56, 0.530291
1708.12, 0.530442
1708.69, 0.530216
1709.25, 0.529765
1709.81, 0.530141
1710.38, 0.530291
1710.94, 0.530517
1711.51, 0.530517
1712.07, 0.530668
1712.64, 0.530668
1713.2, 0.530969
1713.77, 0.530743
1714.34, 0.531044
1714.9, 0.530969
1715.47, 0.530969
1716.04, 0.530894
1716.61, 0.531195
1717.18, 0.530894
1717.74, 0.531119
1718.31, 0.531044
1718.88, 0.531496
1719.45, 0.531195
1720.02, 0.531195
1720.59, 0.531420
1721.17, 0.531797
1721.74, 0.532173
1722.31, 0.532173
1722.88, 0.531797
1723.45, 0.531646
1724.03, 0.531496
1724.6, 0.531797
1725.18, 0.531496
1725.75, 0.531571
1726.33, 0.531420
1726.9, 0.531646
1727.48, 0.531646
1728.05, 0.532173
1728.63, 0.532098
1729.2, 0.531947
1729.78, 0.531496
1730.36, 0.532323
1730.94, 0.532925
1731.51, 0.533000
1732.09, 0.532624
1732.67, 0.533000
1733.25, 0.532925
1733.83, 0.533000
1734.41, 0.532775
1734.99, 0.533076
1735.57, 0.533226
1736.15, 0.533151
1736.73, 0.532700
1737.32, 0.532775
1737.9, 0.533000
1738.48, 0.533377
1739.07, 0.533302
1739.65, 0.533226
1740.23, 0.533226
1740.82, 0.533753
1741.4, 0.533828
1741.99, 0.533753
1742.57, 0.533377
1743.16, 0.534280
1743.74, 0.534506
1744.33, 0.534506
1744.92, 0.534355
1745.51, 0.535032
1746.09, 0.534957
1746.68, 0.534807
1747.27, 0.534731
1747.86, 0.535108
1748.45, 0.535108
1749.04, 0.535258
1749.63, 0.535333
1750.22, 0.535634
1750.81, 0.535108
1751.4, 0.535258
1751.99, 0.535634
1752.59, 0.536236
1753.18, 0.536236
1753.77, 0.536161
1754.37, 0.535785
1754.96, 0.535785
1755.56, 0.536086
1756.15, 0.536613
1756.74, 0.536537
1757.34, 0.536763
1757.94, 0.536763
1758.53, 0.537139
1759.13, 0.537064
1759.73, 0.537365
1760.32, 0.537290
1760.92, 0.537516
1761.52, 0.537290
1762.12, 0.537440
1762.72, 0.537892
1763.32, 0.538494
1763.92, 0.538644
1764.52, 0.538644
1765.12, 0.538343
1765.72, 0.538644
1766.32, 0.538494
1766.92, 0.539021
1767.53, 0.538569
1768.13, 0.538569
1768.73, 0.538720
1769.34, 0.539472
1769.94, 0.539623
1770.55, 0.539698
1771.15, 0.539472
1771.76, 0.539322
1772.36, 0.539397
1772.97, 0.539698
1773.57, 0.539773
1774.18, 0.539924
1774.79, 0.539773
1775.4, 0.539848
1776.0, 0.539623
1776.61, 0.539924
1777.22, 0.540074
1777.83, 0.540225
1778.44, 0.539999
1779.05, 0.540225
1779.66, 0.540225
1780.27, 0.540375
1780.88, 0.539999
1781.5, 0.540074
1782.11, 0.540375
1782.72, 0.540676
1783.33, 0.540526
1783.95, 0.540225
1784.56, 0.540300
1785.18, 0.540526
1785.79, 0.540450
1786.41, 0.540676
1787.02, 0.540074
1787.64, 0.539924
1788.26, 0.539999
1788.87, 0.540450
1789.49, 0.540450
1790.11, 0.541128
1790.73, 0.540977
1791.35, 0.541203
1791.96, 0.540977
1792.58, 0.540977
1793.21, 0.540827
1793.83, 0.541353
1794.45, 0.541278
1795.07, 0.541052
1795.69, 0.541052
1796.31, 0.541579
1796.93, 0.541579
1797.56, 0.541880
1798.18, 0.541880
1798.8, 0.541730
1799.43, 0.541203
1800.05, 0.541203
1800.68, 0.541203
1801.3, 0.541052
1801.93, 0.540526
1802.56, 0.541128
1803.18, 0.541203
1803.81, 0.541429
1804.44, 0.541504
1805.07, 0.541579
1805.7, 0.541353
1806.33, 0.541353
1806.95, 0.541429
1807.58, 0.541579
1808.22, 0.541128
1808.85, 0.541504
1809.48, 0.541504
1810.11, 0.541730
1810.74, 0.541880
1811.38, 0.541955
1812.01, 0.541955
1812.64, 0.542181
1813.28, 0.541955
1813.91, 0.542106
1814.55, 0.541955
1815.18, 0.542181
1815.82, 0.542106
1816.45, 0.541955
1817.09, 0.542031
1817.73, 0.542557
1818.36, 0.542633
1819.0, 0.543159
1819.64, 0.543310
1820.28, 0.543310
1820.92, 0.542708
1821.56, 0.542934
1822.2, 0.543009
1822.84, 0.543159
1823.48, 0.543159
1824.12, 0.543611
1824.76, 0.543536
1825.41, 0.543536
1826.05, 0.543084
1826.69, 0.543235
1827.34, 0.543460
1827.98, 0.543686
1828.63, 0.543385
1829.27, 0.543385
1829.92, 0.543460
1830.56, 0.543761
1831.21, 0.543310
1831.86, 0.543460
1832.5, 0.543686
1833.15, 0.543837
1833.8, 0.544213
1834.45, 0.544363
1835.1, 0.544288
1835.75, 0.544439
1836.4, 0.544363
1837.05, 0.544815
1837.7, 0.544815
1838.35, 0.544740
1839.01, 0.544664
1839.66, 0.544890
1840.31, 0.544664
1840.96, 0.544965
1841.62, 0.544815
1842.27, 0.544740
1842.93, 0.544664
1843.58, 0.545266
1844.24, 0.545342
1844.9, 0.545116
1845.55, 0.545116
1846.21, 0.545492
1846.87, 0.545567
1847.53, 0.545793
1848.18, 0.545643
1848.84, 0.545417
1849.5, 0.545718
1850.16, 0.546094
1850.82, 0.545793
1851.48, 0.545793
1852.14, 0.545793
1852.81, 0.546320
1853.47, 0.546320
1854.13, 0.546169
1854.8, 0.546019
1855.46, 0.546094
1856.12, 0.546395
1856.79, 0.546771
1857.45, 0.546169
1858.12, 0.546094
1858.79, 0.546169
1859.45, 0.546470
1860.12, 0.546094
1860.79, 0.546320
1861.46, 0.546320
1862.12, 0.546546
1862.79, 0.546245
1863.46, 0.546169
1864.13, 0.546019
1864.8, 0.546245
1865.48, 0.546395
1866.15, 0.546546
1866.82, 0.546470
1867.49, 0.546094
1868.16, 0.545266
1868.84, 0.545492
1869.51, 0.545567
1870.19, 0.545868
1870.86, 0.545567
1871.54, 0.545643
1872.21, 0.546019
1872.89, 0.545944
1873.56, 0.545643
1874.24, 0.545492
1874.92, 0.545191
1875.6, 0.545417
1876.28, 0.545266
1876.96, 0.544740
1877.64, 0.544740
1878.32, 0.545116
1879.0, 0.544589
1879.68, 0.544514
1880.36, 0.544514
1881.04, 0.544740
1881.73, 0.544363
1882.41, 0.544363
1883.09, 0.544138
1883.78, 0.543987
1884.46, 0.543536
1885.15, 0.543611
1885.83, 0.543235
1886.52, 0.542858
1887.21, 0.542783
1887.89, 0.542633
1888.58, 0.542031
1889.27, 0.542106
1889.96, 0.541504
1890.65, 0.540977
1891.34, 0.540225
1892.03, 0.539623
1892.72, 0.538795
1893.41, 0.538268
1894.1, 0.537591
1894.79, 0.537215
1895.49, 0.536838
1896.18, 0.536387
1896.87, 0.535258
1897.57, 0.534129
1898.26, 0.533377
1898.96, 0.533000
1899.65, 0.531947
1900.35, 0.531044
1901.05, 0.530216
1901.74, 0.529990
1902.44, 0.529238
1903.14, 0.528711
1903.84, 0.528109
1904.54, 0.527883
1905.24, 0.527056
1905.94, 0.526604
1906.64, 0.526153
1907.34, 0.525927
1908.04, 0.525551
1908.75, 0.525626
1909.45, 0.525325
1910.15, 0.525250
1910.86, 0.524873
1911.56, 0.525099
1912.27, 0.525551
1912.97, 0.525927
1913.68, 0.525400
1914.39, 0.525551
1915.09, 0.525852
1915.8, 0.526378
1916.51, 0.526755
1917.22, 0.527206
1917.93, 0.527206
1918.64, 0.527733
1919.35, 0.528184
1920.06, 0.528260
1920.77, 0.528184
1921.48, 0.528862
1922.19, 0.529388
1922.91, 0.530141
1923.62, 0.530291
1924.33, 0.530593
1925.05, 0.530818
1925.76, 0.531195
1926.48, 0.531496
1927.19, 0.532022
1927.91, 0.532474
1928.63, 0.533151
1929.35, 0.533151
1930.07, 0.533527
1930.78, 0.533678
1931.5, 0.534129
1932.22, 0.534581
1932.94, 0.535108
1933.66, 0.535258
1934.39, 0.535559
1935.11, 0.535935
1935.83, 0.536236
1936.55, 0.536387
1937.28, 0.536989
1938.0, 0.537290
1938.73, 0.537440
1939.45, 0.537365
1940.18, 0.537516
1940.9, 0.537741
1941.63, 0.538042
1942.36, 0.538419
1943.09, 0.538720
1943.81, 0.538644
1944.54, 0.538870
1945.27, 0.539021
1946.0, 0.539698
1946.73, 0.539924
1947.47, 0.540074
1948.2, 0.540375
1948.93, 0.540526
1949.66, 0.540225
1950.4, 0.540526
1951.13, 0.540676
1951.86, 0.540827
1952.6, 0.540827
1953.34, 0.540902
1954.07, 0.541278
1954.81, 0.541805
1955.55, 0.541805
1956.29, 0.541805
1957.02, 0.541654
1957.76, 0.542106
1958.5, 0.542256
1959.24, 0.542332
1959.98, 0.541955
1960.72, 0.542106
1961.47, 0.542181
1962.21, 0.542557
1962.95, 0.542482
1963.7, 0.542557
1964.44, 0.542332
1965.18, 0.542482
1965.93, 0.542633
1966.67, 0.542858
1967.42, 0.543009
1968.17, 0.543310
1968.92, 0.542934
1969.66, 0.543235
1970.41, 0.543385
1971.16, 0.543310
1971.91, 0.543084
1972.66, 0.543159
1973.41, 0.543084
1974.16, 0.543159
1974.92, 0.543084
1975.67, 0.543536
1976.42, 0.543460
1977.18, 0.543235
1977.93, 0.543084
1978.69, 0.543686
1979.44, 0.543686
1980.2, 0.543686
1980.95, 0.543536
1981.71, 0.543536
1982.47, 0.543385
1983.23, 0.543460
1983.99, 0.543611
1984.74, 0.543686
1985.51, 0.543611
1986.27, 0.543761
1987.03, 0.543837
1987.79, 0.543837
1988.55, 0.543536
1989.32, 0.543385
1990.08, 0.543310
1990.84, 0.543235
1991.61, 0.543159
1992.37, 0.543385
1993.14, 0.543536
1993.9, 0.543761
1994.67, 0.543536
1995.44, 0.543611
1996.21, 0.543761
1996.98, 0.543912
1997.75, 0.543761
1998.52, 0.543837
1999.29, 0.543686
2000.06, 0.543837
2000.83, 0.543837
2001.6, 0.544213
2002.38, 0.544439
2003.15, 0.544589
2003.93, 0.544664
2004.7, 0.545191
2005.48, 0.545116
2006.25, 0.545041
2007.03, 0.545041
2007.81, 0.545041
2008.58, 0.545191
2009.36, 0.545567
2010.14, 0.545643
2010.92, 0.545868
2011.7, 0.545944
2012.48, 0.546470
2013.26, 0.546470
2014.05, 0.546696
2014.83, 0.546546
2015.61, 0.546546
2016.4, 0.546470
2017.18, 0.546847
2017.97, 0.546922
2018.75, 0.547148
2019.54, 0.547148
2020.32, 0.547373
2021.11, 0.547524
2021.9, 0.548126
2022.69, 0.548051
2023.48, 0.548276
2024.27, 0.548577
2025.06, 0.548728
2025.85, 0.548653
2026.64, 0.548954
2027.44, 0.549104
2028.23, 0.549330
2029.02, 0.549179
2029.82, 0.549330
2030.61, 0.549480
2031.41, 0.549932
2032.2, 0.549631
2033.0, 0.549706
2033.8, 0.550082
2034.6, 0.550233
2035.4, 0.549932
2036.2, 0.550459
2037.0, 0.550760
2037.8, 0.550910
2038.6, 0.550910
2039.4, 0.550835
2040.2, 0.550835
2041.01, 0.551362
2041.81, 0.551286
2042.61, 0.551061
2043.42, 0.550835
2044.22, 0.550985
2045.03, 0.550835
2045.84, 0.551211
2046.65, 0.551211
2047.46, 0.551286
2048.26, 0.551362
2049.07, 0.551061
2049.88, 0.550760
2050.69, 0.551061
2051.51, 0.551136
2052.32, 0.550985
2053.13, 0.550609
2053.94, 0.550910
2054.76, 0.550985
2055.57, 0.551211
2056.39, 0.551362
2057.2, 0.551362
2058.02, 0.550985
2058.84, 0.551437
2059.66, 0.551286
2060.48, 0.551286
2061.29, 0.551211
2062.11, 0.551136
2062.94, 0.550985
2063.76, 0.551362
2064.58, 0.551061
2065.4, 0.551061
2066.22, 0.550985
2067.05, 0.551286
2067.87, 0.551362
2068.7, 0.551362
2069.52, 0.551286
2070.35, 0.551362
2071.18, 0.551362
2072.0, 0.551587
2072.83, 0.551211
2073.66, 0.551136
2074.49, 0.551136
2075.32, 0.551437
2076.15, 0.551362
2076.98, 0.551362
2077.82, 0.550985
2078.65, 0.551061
2079.48, 0.550985
2080.32, 0.550760
2081.15, 0.550383
2081.99, 0.550534
2082.83, 0.550308
2083.66, 0.550308
2084.5, 0.550308
2085.34, 0.550308
2086.18, 0.550082
2087.02, 0.550082
2087.86, 0.549781
2088.7, 0.549781
2089.54, 0.549857
2090.39, 0.549857
2091.23, 0.549631
2092.07, 0.549781
2092.92, 0.549480
2093.76, 0.549405
2094.61, 0.549405
2095.45, 0.549706
2096.3, 0.549706
2097.15, 0.549932
2098.0, 0.549706
2098.85, 0.549631
2099.7, 0.549706
2100.55, 0.549857
2101.4, 0.549631
2102.25, 0.549556
2103.1, 0.549556
2103.96, 0.549480
2104.81, 0.548878
2105.67, 0.548577
2106.52, 0.547825
2107.38, 0.547223
2108.24, 0.546395
2109.09, 0.545567
2109.95, 0.544965
2110.81, 0.544965
2111.67, 0.544589
2112.53, 0.544965
2113.39, 0.544965
2114.25, 0.544664
2115.12, 0.544213
2115.98, 0.544138
2116.84, 0.544213
2117.71, 0.544138
2118.58, 0.543912
2119.44, 0.544288
2120.31, 0.544288
2121.18, 0.544514
2122.04, 0.544589
2122.91, 0.544664
2123.78, 0.544589
2124.65, 0.544965
2125.52, 0.545041
2126.4, 0.545191
2127.27, 0.545266
2128.14, 0.545567
2129.02, 0.545041
2129.89, 0.544890
2130.77, 0.544965
2131.64, 0.545191
2132.52, 0.545116
2133.4, 0.545567
2134.27, 0.545944
2135.15, 0.546320
2136.03, 0.546395
2136.91, 0.546771
2137.79, 0.547223
2138.68, 0.547524
2139.56, 0.547449
2140.44, 0.547825
2141.33, 0.548051
2142.21, 0.548051
2143.1, 0.547674
2143.99, 0.547599
2144.87, 0.547750
2145.76, 0.548051
2146.65, 0.548051
2147.54, 0.548126
2148.43, 0.548051
2149.32, 0.548502
2150.21, 0.548502
2151.1, 0.548653
2151.99, 0.548653
2152.89, 0.549029
2153.78, 0.549179
2154.68, 0.549255
2155.57, 0.549405
2156.47, 0.549631
2157.37, 0.549480
2158.27, 0.549631
2159.16, 0.549857
2160.06, 0.550308
2160.96, 0.550233
2161.86, 0.550383
2162.77, 0.550459
2163.67, 0.550609
2164.57, 0.550534
2165.48, 0.550760
2166.38, 0.550985
2167.29, 0.551362
2168.2, 0.551136
2169.1, 0.551211
2170.01, 0.551136
2170.92, 0.551211
2171.83, 0.551286
2172.74, 0.551663
2173.65, 0.551437
2174.56, 0.551437
2175.47, 0.551437
2176.39, 0.551512
2177.3, 0.551362
2178.22, 0.551663
2179.13, 0.551437
2180.05, 0.551587
2180.96, 0.551587
2181.88, 0.551587
2182.8, 0.551512
2183.72, 0.551362
2184.64, 0.551286
2185.56, 0.551512
2186.48, 0.551362
2187.41, 0.551362
2188.33, 0.551286
2189.25, 0.551437
2190.18, 0.551061
2191.1, 0.550985
2192.03, 0.551136
2192.96, 0.551362
2193.89, 0.550985
2194.82, 0.550910
2195.74, 0.550609
2196.68, 0.550534
2197.61, 0.550383
2198.54, 0.550233
2199.47, 0.549781
2200.4, 0.549781
2201.34, 0.549706
2202.28, 0.549857
2203.21, 0.550007
2204.15, 0.550233
2205.08, 0.550007
2206.02, 0.550007
2206.96, 0.549932
2207.9, 0.550007
2208.84, 0.549857
2209.78, 0.549932
2210.73, 0.549857
2211.67, 0.550007
2212.61, 0.549857
2213.56, 0.549781
2214.5, 0.549556
2215.45, 0.549781
2216.4, 0.549706
2217.35, 0.549706
2218.3, 0.549706
2219.24, 0.549405
2220.2, 0.549104
2221.15, 0.549480
2222.1, 0.549556
2223.05, 0.549405
2224.0, 0.549179
2224.96, 0.549179
2225.91, 0.548954
2226.87, 0.548954
2227.83, 0.548878
2228.79, 0.548728
2229.74, 0.548352
2230.7, 0.548427
2231.66, 0.548126
2232.63, 0.547900
2233.59, 0.547524
2234.55, 0.547373
2235.51, 0.546847
2236.48, 0.546546
2237.44, 0.545643
2238.41, 0.544965
2239.38, 0.544288
2240.34, 0.543912
2241.31, 0.543084
2242.28, 0.542256
2243.25, 0.541429
2244.22, 0.540676
2245.19, 0.539547
2246.17, 0.538494
2247.14, 0.537741
2248.12, 0.537892
2249.09, 0.538193
2250.07, 0.538569
2251.04, 0.538795
2252.02, 0.539171
2253.0, 0.539322
2253.98, 0.539547
2254.96, 0.539397
2255.94, 0.539698
2256.92, 0.539924
2257.91, 0.540300
2258.89, 0.540122
2259.88, 0.540062
2260.86, 0.539647
2261.85, 0.538935
2262.83, 0.538578
2263.82, 0.538341
2264.81, 0.537569
2265.8, 0.536323
2266.79, 0.534839
2267.78, 0.533533
2268.78, 0.531871
2269.77, 0.530090
2270.76, 0.528487
2271.76, 0.527062
2272.75, 0.525163
2273.75, 0.523501
2274.75, 0.521720
2275.75, 0.519642
2276.75, 0.517743
2277.75, 0.515487
2278.75, 0.512579
2279.75, 0.509967
2280.75, 0.507533
2281.76, 0.505277
2282.76, 0.503318
2283.77, 0.501241
2284.77, 0.499222
2285.78, 0.497204
2286.79, 0.494830
2287.8, 0.493049
2288.81, 0.491031
2289.82, 0.488122
2290.83, 0.484798
2291.84, 0.480642
2292.86, 0.475359
2293.87, 0.470848
2294.89, 0.466752
2295.91, 0.463428
2296.92, 0.460222
2297.94, 0.457492
2298.96, 0.456008
2299.98, 0.455889
2301.0, 0.456958
2302.02, 0.459095
2303.04, 0.460757
2304.07, 0.461172
2305.09, 0.460697
2306.12, 0.460104
2307.15, 0.459154
2308.17, 0.458264
2309.2, 0.457907
2310.23, 0.457848
2311.26, 0.457076
2312.29, 0.455592
2313.32, 0.454049
2314.35, 0.452921
2315.39, 0.452149
2316.42, 0.452090
2317.46, 0.452328
2318.5, 0.452802
2319.53, 0.453040
2320.57, 0.453515
2321.61, 0.453930
2322.65, 0.455058
2323.69, 0.457254
2324.73, 0.460697
2325.78, 0.465743
2326.82, 0.470551
2327.86, 0.474113
2328.91, 0.477378
2329.96, 0.480524
2331.01, 0.483670
2332.05, 0.487113
2333.1, 0.491031
2334.15, 0.494711
2335.21, 0.497798
2336.26, 0.500232
2337.31, 0.502725
2338.36, 0.504327
2339.42, 0.505811
2340.48, 0.507414
2341.53, 0.509076
2342.59, 0.510501
2343.65, 0.512044
2344.71, 0.512935
2345.77, 0.514241
2346.83, 0.515487
2347.9, 0.516081
2348.96, 0.516021
2350.02, 0.516199
2351.09, 0.516674
2352.16, 0.517031
2353.23, 0.517268
2354.29, 0.517327
2355.36, 0.517387
2356.43, 0.517565
2357.51, 0.517862
2358.58, 0.518574
2359.65, 0.518633
2360.73, 0.518336
2361.8, 0.517862
2362.88, 0.517446
2363.96, 0.516556
2365.03, 0.515487
2366.11, 0.514419
2367.19, 0.513231
2368.27, 0.512104
2369.36, 0.511095
2370.44, 0.509729
2371.53, 0.507889
2372.61, 0.505811
2373.7, 0.503615
2374.78, 0.501181
2375.87, 0.498213
2376.96, 0.494711
2378.05, 0.491565
2379.14, 0.488537
2380.24, 0.485688
2381.33, 0.482780
2382.42, 0.479693
2383.52, 0.476190
2384.61, 0.472985
2385.71, 0.471204
2386.81, 0.470373
2387.91, 0.470492
2389.01, 0.471204
2390.11, 0.472035
2391.22, 0.473816
2392.32, 0.475538
2393.42, 0.476843
2394.53, 0.478209
2395.64, 0.480108
2396.74, 0.482780
2397.85, 0.485926
2398.96, 0.488953
2400.07, 0.492040
2401.18, 0.494474
2402.3, 0.496670
2403.41, 0.498273
2404.52, 0.499935
2405.64, 0.501716
2406.76, 0.503140
2407.88, 0.504446
2408.99, 0.505811
2410.11, 0.506524
2411.23, 0.506999
2412.36, 0.507295
2413.48, 0.507830
2414.6, 0.508186
2415.73, 0.507830
2416.85, 0.507355
2417.98, 0.507711
2419.11, 0.507948
2420.24, 0.508305
2421.37, 0.508898
2422.5, 0.510026
2423.64, 0.510798
2424.77, 0.511391
2425.9, 0.511807
2427.04, 0.512163
2428.18, 0.512519
2429.31, 0.512757
2430.45, 0.512994
2431.59, 0.513647
2432.73, 0.513706
2433.88, 0.513647
2435.02, 0.513231
2436.16, 0.512341
2437.31, 0.510976
2438.45, 0.510204
2439.6, 0.508779
2440.75, 0.507533
2441.9, 0.506642
2443.05, 0.506464
2444.2, 0.506405
2445.35, 0.506405
2446.51, 0.506464
2447.67, 0.506761
2448.82, 0.506702
2449.98, 0.506227
2451.14, 0.505455
2452.3, 0.504980
2453.46, 0.504209
2454.62, 0.503437
2455.78, 0.502428
2456.94, 0.501597
2458.11, 0.500825
2459.28, 0.499935
2460.44, 0.499282
2461.61, 0.499044
2462.78, 0.499044
2463.95, 0.499163
2465.12, 0.499104
2466.3, 0.499282
2467.47, 0.499460
2468.65, 0.499400
2469.82, 0.498688
2471.0, 0.498510
2472.18, 0.498510
2473.36, 0.498035
2474.54, 0.497263
2475.72, 0.496729
2476.9, 0.496432
2478.08, 0.496136
2479.27, 0.495601
2480.46, 0.495483
2481.64, 0.495542
2482.83, 0.495958
2484.02, 0.496017
2485.21, 0.496017
2486.4, 0.495958
2487.6, 0.495779
2488.79, 0.495601
2489.99, 0.495542
2491.18, 0.495126
2492.38, 0.494474
2493.58, 0.493880
2494.78, 0.493761
2495.98, 0.493702
2497.18, 0.493999
2498.39, 0.493939
2499.59, 0.494117
2500.8, 0.494058
2502.01, 0.493939
2503.21, 0.493939
2504.42, 0.494117
2505.63, 0.493999
2506.84, 0.493880
2508.06, 0.493642
2509.27, 0.493642
2510.49, 0.493405
2511.7, 0.493108
2512.92, 0.492811
2514.14, 0.492633
2515.36, 0.492337
2516.58, 0.492158
2517.8, 0.492218
2519.03, 0.492277
2520.25, 0.492455
2521.48, 0.493049
2522.7, 0.492752
2523.93, 0.492218
2525.16, 0.491446
2526.39, 0.490793
2527.62, 0.490140
2528.86, 0.489665
2530.09, 0.489131
2531.33, 0.488597
2532.56, 0.487944
2533.8, 0.487350
2535.04, 0.487053
2536.28, 0.487172
2537.52, 0.487469
2538.76, 0.488122
2540.01, 0.488597
2541.25, 0.489309
2542.5, 0.490021
2543.75, 0.490971
2544.99, 0.492455
2546.24, 0.493880
2547.49, 0.494830
2548.75, 0.495958
2550.0, 0.497026
2551.26, 0.498154
2552.51, 0.498747
2553.77, 0.499341
2555.03, 0.499935
2556.29, 0.500350
2557.55, 0.500766
2558.81, 0.501241
2560.08, 0.501656
2561.34, 0.502309
2562.61, 0.502606
2563.88, 0.502665
2565.14, 0.502784
2566.41, 0.503200
2567.68, 0.503556
2568.96, 0.504149
2570.23, 0.504149
2571.51, 0.504802
2572.78, 0.505336
2574.06, 0.505871
2575.34, 0.506464
2576.62, 0.506820
2577.9, 0.507355
2579.18, 0.508067
2580.47, 0.508305
2581.75, 0.508601
2583.04, 0.508601
2584.32, 0.508542
2585.61, 0.508839
2586.9, 0.509136
2588.2, 0.509314
2589.49, 0.509789
2590.78, 0.509729
2592.08, 0.510145
2593.37, 0.510442
2594.67, 0.509848
2595.97, 0.509551
2597.27, 0.510382
2598.57, 0.511095
2599.88, 0.511569
2601.18, 0.511451
2602.49, 0.511095
2603.79, 0.510798
2605.1, 0.510560
2606.41, 0.510323
2607.72, 0.510620
2609.03, 0.510857
2610.35, 0.511095
2611.66, 0.511095
2612.98, 0.511095
2614.3, 0.511273
2615.62, 0.511273
2616.94, 0.510560
2618.26, 0.510323
2619.58, 0.510026
2620.91, 0.509492
2622.23, 0.509314
2623.56, 0.509670
2624.89, 0.509967
2626.22, 0.509670
2627.55, 0.509076
2628.88, 0.509195
2630.21, 0.508661
2631.55, 0.508067
2632.89, 0.508186
2634.22, 0.508245
2635.56, 0.508126
2636.9, 0.508126
2638.25, 0.507948
2639.59, 0.507770
2640.93, 0.507414
2642.28, 0.507177
2643.63, 0.507117
2644.98, 0.507177
2646.33, 0.506939
2647.68, 0.506999
2649.03, 0.506880
2650.39, 0.506464
2651.74, 0.505633
2653.1, 0.505099
2654.46, 0.504862
2655.82, 0.504624
2657.18, 0.503971
2658.54, 0.503556
2659.9, 0.502784
2661.27, 0.502369
2662.64, 0.501953
2664.01, 0.501359
2665.38, 0.499994
2666.74, 0.498569
2668.12, 0.497501
2669.49, 0.496670
2670.87, 0.494295
2672.24, 0.492930
2673.62, 0.491446
2675.0, 0.489487
2676.38, 0.486460
2677.76, 0.484026
2679.15, 0.481889
2680.54, 0.479337
2681.92, 0.476012
2683.31, 0.472391
2684.7, 0.468533
2686.09, 0.464378
2687.48, 0.459510
2688.88, 0.454643
2690.27, 0.449538
2691.67, 0.445086
2693.07, 0.440812
2694.47, 0.436656
2695.87, 0.432145
2697.27, 0.427218
2698.67, 0.421223
2700.08, 0.414812
2701.49, 0.407510
2702.9, 0.400031
2704.31, 0.391780
2705.72, 0.382698
2707.13, 0.372903
2708.54, 0.362574
2709.96, 0.350940
2711.38, 0.338889
2712.8, 0.326186
2714.22, 0.312059
2715.64, 0.293775
2717.06, 0.265639
2718.49, 0.217675
2719.91, 0.160511
2721.34, 0.130712
2722.77, 0.137182
2724.2, 0.159086
2725.63, 0.182890
2727.07, 0.196721
2728.5, 0.187045
2729.94, 0.157424
2731.38, 0.137954
2732.82, 0.137301
2734.26, 0.148283
2735.7, 0.164191
2737.15, 0.174342
2738.59, 0.177785
2740.04, 0.176538
2741.49, 0.168821
2742.94, 0.158671
2744.39, 0.154219
2745.84, 0.160511
2747.3, 0.170602
2748.76, 0.175945
2750.21, 0.177785
2751.67, 0.178379
2753.14, 0.178853
2754.6, 0.178557
2756.06, 0.177073
2757.53, 0.173392
2759.0, 0.170602
2760.46, 0.172502
2761.94, 0.175410
2763.41, 0.176657
2764.88, 0.176776
2766.36, 0.176538
2767.83, 0.176242
2769.31, 0.175826
2770.79, 0.175648
2772.27, 0.176004
2773.76, 0.176598
2775.24, 0.177132
2776.73, 0.177547
2778.22, 0.178260
2779.71, 0.179031
2781.2, 0.179803
2782.69, 0.180278
2784.18, 0.180515
2785.68, 0.180397
2787.18, 0.179981
2788.68, 0.179625
2790.18, 0.179447
2791.68, 0.179031
2793.19, 0.178260
2794.69, 0.177726
2796.2, 0.177369
2797.71, 0.176954
2799.22, 0.176538
2800.73, 0.176004
2802.24, 0.175470
2803.76, 0.174995
2805.28, 0.174876
2806.8, 0.174520
2808.32, 0.173867
2809.84, 0.173155
2811.36, 0.172621
2812.89, 0.172264
2814.42, 0.171730
2815.94, 0.171552
2817.48, 0.171730
2819.01, 0.172086
2820.54, 0.173036
2822.08, 0.174283
2823.61, 0.175826
2825.15, 0.177488
2826.69, 0.179566
2828.23, 0.181406
2829.78, 0.183365
2831.32, 0.185324
2832.87, 0.187164
2834.42, 0.188648
2835.97, 0.190132
2837.52, 0.191794
2839.08, 0.193397
2840.63, 0.194881
2842.19, 0.196246
2843.75, 0.197611
2845.31, 0.198977
2846.87, 0.200104
2848.44, 0.201292
2850.0, 0.202420
2851.57, 0.203666
2853.14, 0.204794
2854.71, 0.205922
2856.28, 0.206753
2857.86, 0.207465
2859.43, 0.207999
2861.01, 0.208534
2862.59, 0.208949
2864.17, 0.209246
2865.76, 0.209305
2867.34, 0.209246
2868.93, 0.209187
2870.52, 0.209424
2872.11, 0.209424
2873.7, 0.209246
2875.29, 0.209424
2876.89, 0.209602
2878.49, 0.209483
2880.08, 0.209424
2881.69, 0.209365
2883.29, 0.209246
2884.89, 0.209246
2886.5, 0.209424
2888.11, 0.209483
2889.72, 0.209483
2891.33, 0.209543
2892.94, 0.209662
2894.56, 0.209721
2896.17, 0.209840
2897.79, 0.209840
2899.42, 0.209899
2901.04, 0.209721
2902.66, 0.209958
2904.29, 0.210314
2905.92, 0.210552
2907.55, 0.210671
2909.18, 0.210967
2910.81, 0.211205
2912.45, 0.211442
2914.08, 0.211502
2915.72, 0.211739
2917.36, 0.211977
2919.01, 0.212155
2920.65, 0.212095
2922.3, 0.212214
2923.94, 0.212392
2925.59, 0.212689
2927.25, 0.212867
2928.9, 0.213045
2930.56, 0.213223
2932.21, 0.213223
2933.87, 0.213283
2935.53, 0.213461
2937.2, 0.213757
2938.86, 0.214114
2940.53, 0.214232
2942.2, 0.214351
2943.87, 0.214529
2945.54, 0.214885
2947.22, 0.215241
2948.89, 0.215538
2950.57, 0.215716
2952.25, 0.215954
2953.93, 0.216072
2955.62, 0.216191
2957.3, 0.216488
2958.99, 0.217022
2960.68, 0.217378
2962.37, 0.217675
2964.07, 0.217972
2965.76, 0.218269
2967.46, 0.218625
2969.16, 0.219100
2970.86, 0.219456
2972.56, 0.219812
2974.27, 0.220346
2975.98, 0.221237
2977.69, 0.221830
2979.4, 0.222483
2981.11, 0.223136
2982.83, 0.223908
2984.54, 0.224442
2986.26, 0.225155
2987.98, 0.225926
2989.71, 0.226698
2991.43, 0.227588
2993.16, 0.228419
2994.89, 0.229191
2996.62, 0.230022
2998.35, 0.230853
3000.09, 0.231506
3001.83, 0.232278
3003.57, 0.233287
3005.31, 0.234059
3007.05, 0.234949
3008.79, 0.235721
3010.54, 0.236671
3012.29, 0.237264
3014.04, 0.237858
3015.8, 0.238808
3017.55, 0.239817
3019.31, 0.240648
3021.07, 0.241419
3022.83, 0.242132
3024.59, 0.242903
3026.36, 0.243556
3028.13, 0.244447
3029.9, 0.245218
3031.67, 0.245871
3033.44, 0.246465
3035.22, 0.246999
3037.0, 0.247474
3038.78, 0.248246
3040.56, 0.248780
3042.34, 0.249255
3044.13, 0.249967
3045.92, 0.250739
3047.71, 0.251214
3049.5, 0.251629
3051.3, 0.252104
3053.09, 0.252698
3054.89, 0.253054
3056.69, 0.253410
3058.5, 0.253885
3060.3, 0.254479
3062.11, 0.254835
3063.92, 0.255310
3065.73, 0.255725
3067.55, 0.256081
3069.36, 0.256438
3071.18, 0.257031
3073.0, 0.257387
3074.82, 0.257803
3076.65, 0.258278
3078.48, 0.258753
3080.31, 0.259228
3082.14, 0.259821
3083.97, 0.260296
3085.8, 0.260771
3087.64, 0.261305
3089.48, 0.261899
3091.33, 0.262492
3093.17, 0.263145
3095.02, 0.263561
3096.87, 0.264214
3098.72, 0.265104
3100.57, 0.265935
3102.43, 0.266588
3104.28, 0.267360
3106.14, 0.268250
3108.01, 0.269200
3109.87, 0.270328
3111.74, 0.271278
3113.61, 0.272406
3115.48, 0.273949
3117.35, 0.275433
3119.23, 0.276858
3121.1, 0.278164
3122.98, 0.279707
3124.87, 0.281191
3126.75, 0.282497
3128.64, 0.283744
3130.53, 0.284931
3132.42, 0.286237
3134.31, 0.287602
3136.21, 0.288849
3138.11, 0.290273
3140.01, 0.291520
3141.91, 0.292766
3143.82, 0.293894
3145.73, 0.295200
3147.64, 0.296447
3149.55, 0.297693
3151.46, 0.298999
3153.38, 0.300186
3155.3, 0.301492
3157.22, 0.302917
3159.14, 0.304164
3161.07, 0.305588
3163.0, 0.306953
3164.93, 0.308319
3166.86, 0.309743
3168.8, 0.311287
3170.74, 0.312771
3172.68, 0.314374
3174.62, 0.315858
3176.56, 0.317282
3178.51, 0.318707
3180.46, 0.320310
3182.42, 0.321853
3184.37, 0.323337
3186.33, 0.325058
3188.29, 0.326721
3190.25, 0.328205
3192.21, 0.329867
3194.18, 0.331469
3196.15, 0.333013
3198.12, 0.334437
3200.09, 0.335981
3202.07, 0.337465
3204.05, 0.339008
3206.03, 0.340492
3208.02, 0.341976
3210.0, 0.343401
3211.99, 0.344826
3213.98, 0.346191
3215.98, 0.347497
3217.97, 0.348803
3219.97, 0.350287
3221.97, 0.351533
3223.98, 0.352602
3225.98, 0.353730
3227.99, 0.355095
3230.0, 0.356282
3232.02, 0.357351
3234.03, 0.358419
3236.05, 0.359547
3238.07, 0.360556
3240.1, 0.361743
3242.12, 0.362752
3244.15, 0.363821
3246.18, 0.364830
3248.22, 0.365839
3250.25, 0.366730
3252.29, 0.367798
3254.33, 0.368807
3256.38, 0.369638
3258.43, 0.370588
3260.47, 0.371538
3262.53, 0.372191
3264.58, 0.372725
3266.64, 0.373378
3268.7, 0.374090
3270.76, 0.374506
3272.82, 0.374921
3274.89, 0.375456
3276.96, 0.375930
3279.04, 0.375990
3281.11, 0.375752
3283.19, 0.375574
3285.27, 0.375278
3287.35, 0.374981
3289.44, 0.374803
3291.53, 0.374446
3293.62, 0.373972
3295.71, 0.373378
3297.81, 0.372666
3299.91, 0.372013
3302.01, 0.371419
3304.11, 0.370825
3306.22, 0.370232
3308.33, 0.369579
3310.44, 0.369104
3312.56, 0.368451
3314.68, 0.367561
3316.8, 0.366255
3318.92, 0.364889
3321.05, 0.363346
3323.18, 0.361447
3325.31, 0.358894
3327.44, 0.355629
3329.58, 0.351296
3331.72, 0.345479
3333.86, 0.338058
3336.01, 0.328561
3338.16, 0.316689
3340.31, 0.302383
3342.46, 0.286890
3344.61, 0.273118
3346.77, 0.262849
3348.94, 0.257150
3351.1, 0.254954
3353.27, 0.255250
3355.44, 0.257328
3357.61, 0.260474
3359.79, 0.263620
3361.97, 0.266291
3364.15, 0.268310
3366.33, 0.269734
3368.52, 0.270625
3370.71, 0.271278
3372.9, 0.272049
3375.1, 0.273059
3377.3, 0.274305
3379.5, 0.275789
3381.71, 0.277273
3383.91, 0.278935
3386.12, 0.280479
3388.34, 0.281963
3390.55, 0.283328
3392.77, 0.284634
3394.99, 0.285584
3397.22, 0.286415
3399.45, 0.287127
3401.68, 0.287899
3403.91, 0.288492
3406.15, 0.289145
3408.39, 0.289561
3410.63, 0.289976
3412.87, 0.290333
3415.12, 0.290748
3417.37, 0.291342
3419.63, 0.291995
3421.88, 0.292826
3424.14, 0.293835
3426.41, 0.294666
3428.67, 0.295200
3430.94, 0.295675
3433.21, 0.296150
3435.49, 0.296447
3437.77, 0.296625
3440.05, 0.296862
3442.33, 0.297100
3444.62, 0.297100
3446.91, 0.296981
3449.2, 0.296684
3451.5, 0.296209
3453.8, 0.295022
3456.1, 0.293479
3458.41, 0.291045
3460.72, 0.287008
3463.03, 0.280954
3465.34, 0.272643
3467.66, 0.262671
3469.98, 0.252876
3472.31, 0.244803
3474.63, 0.239223
3476.96, 0.236433
3479.3, 0.236492
3481.64, 0.238155
3483.97, 0.240945
3486.32, 0.244150
3488.66, 0.247652
3491.01, 0.251273
3493.36, 0.254954
3495.72, 0.258693
3498.08, 0.262552
3500.44, 0.266529
3502.81, 0.270684
3505.18, 0.274899
3507.55, 0.279648
3509.92, 0.284753
3512.3, 0.290511
3514.68, 0.297396
3517.06, 0.306004
3519.45, 0.316036
3521.84, 0.327433
3524.24, 0.339602
3526.64, 0.351593
3529.04, 0.362574
3531.44, 0.372428
3533.85, 0.381035
3536.26, 0.388634
3538.67, 0.395163
3541.09, 0.400862
3543.51, 0.405789
3545.93, 0.410122
3548.36, 0.413743
3550.79, 0.417008
3553.22, 0.419798
3555.66, 0.422410
3558.1, 0.424428
3560.54, 0.426090
3562.99, 0.427277
3565.44, 0.427990
3567.9, 0.428346
3570.35, 0.429058
3572.81, 0.430364
3575.28, 0.432679
3577.75, 0.435766
3580.22, 0.439090
3582.69, 0.442355
3585.17, 0.445323
3587.65, 0.447757
3590.14, 0.449953
3592.62, 0.451912
3595.11, 0.453752
3597.61, 0.455355
3600.11, 0.456661
3602.61, 0.457729
3605.11, 0.458857
3607.62, 0.459866
3610.14, 0.460935
3612.65, 0.461706
3615.17, 0.462538
3617.69, 0.463190
3620.22, 0.463843
3622.75, 0.464318
3625.28, 0.464912
3627.82, 0.465506
3630.36, 0.466099
3632.9, 0.466693
3635.45, 0.467227
3638.0, 0.467583
3640.56, 0.467939
3643.12, 0.468295
3645.68, 0.468711
3648.24, 0.469067
3650.81, 0.469423
3653.39, 0.469780
3655.96, 0.470136
3658.54, 0.470373
3661.13, 0.470611
3663.71, 0.471026
3666.3, 0.471501
3668.9, 0.471738
3671.5, 0.471857
3674.1, 0.472035
3676.7, 0.472213
3679.31, 0.472332
3681.93, 0.472629
3684.54, 0.472807
3687.17, 0.472569
3689.79, 0.471442
3692.42, 0.471264
3695.05, 0.472273
3697.69, 0.472807
3700.32, 0.472569
3702.97, 0.471976
3705.61, 0.471916
3708.27, 0.472332
3710.92, 0.472391
3713.58, 0.472154
3716.24, 0.471857
3718.91, 0.471560
3721.58, 0.471323
3724.25, 0.470967
3726.93, 0.470492
3729.61, 0.470195
3732.29, 0.469601
3734.98, 0.468948
3737.67, 0.468355
3740.37, 0.467643
3743.07, 0.466930
3745.78, 0.466218
3748.49, 0.465565
3751.2, 0.465209
3753.91, 0.464793
3756.63, 0.464318
3759.36, 0.463606
3762.09, 0.462953
3764.82, 0.462181
3767.55, 0.461172
3770.29, 0.459985
3773.04, 0.458679
3775.78, 0.457076
3778.54, 0.455117
3781.29, 0.452743
3784.05, 0.449775
3786.82, 0.445857
3789.59, 0.440752
3792.36, 0.434163
3795.13, 0.426387
3797.92, 0.417661
3800.7, 0.408638
3803.49, 0.399793
3806.28, 0.391424
3809.08, 0.383351
3811.88, 0.375752
3814.68, 0.368332
3817.49, 0.361090
3820.31, 0.354264
3823.12, 0.347497
3825.94, 0.340552
3828.77, 0.333547
3831.6, 0.326602
3834.43, 0.320072
3837.27, 0.314433
3840.11, 0.309981
3842.96, 0.306597
3845.81, 0.304045
3848.67, 0.302205
3851.53, 0.300780
3854.39, 0.299415
3857.26, 0.298227
3860.13, 0.297159
3863.01, 0.296209
3865.89, 0.295319
3868.77, 0.294547
3871.66, 0.294072
3874.55, 0.293775
3877.45, 0.293241
3880.35, 0.292588
3883.26, 0.291757
3886.17, 0.290985
3889.09, 0.290214
3892.01, 0.289442
3894.93, 0.288611
3897.86, 0.287780
3900.79, 0.286771
3903.73, 0.285702
3906.67, 0.284634
3909.62, 0.283447
3912.57, 0.282081
3915.52, 0.280597
3918.48, 0.278698
3921.45, 0.276383
3924.42, 0.273712
3927.39, 0.270981
3930.37, 0.268963
3933.35, 0.267360
3936.34, 0.263739
3939.33, 0.256022
3942.32, 0.245159
3945.32, 0.233940
3948.33, 0.223493
3951.34, 0.213698
3954.35, 0.204675
3957.37, 0.197196
3960.39, 0.191141
3963.42, 0.186273
3966.45, 0.182474
3969.49, 0.179803
3972.53, 0.177844
3975.58, 0.176420
3978.63, 0.175529
3981.68, 0.175648
3984.75, 0.177607
3987.81, 0.181584
3990.88, 0.187401
3993.95, 0.194762
3997.03, 0.203488
4000.12, 0.213579
4003.21, 0.224739
4006.3, 0.236671
4009.4, 0.248958
4012.5, 0.260890
4015.61, 0.271456
4018.72, 0.280538
4021.84, 0.289323
4024.96, 0.298643
4028.09, 0.308259
4031.22, 0.317935
4034.36, 0.327967
4037.5, 0.338593
4040.65, 0.349456
4043.8, 0.360141
4046.96, 0.369757
4050.12, 0.377949
4053.29, 0.384716
4056.46, 0.390236
4059.64, 0.394688
4062.82, 0.398547
4066.0, 0.401930
4069.19, 0.405314
4072.39, 0.408401
4075.59, 0.411250
4078.8, 0.413862
4082.01, 0.416236
4085.23, 0.418373
4088.45, 0.420332
4091.68, 0.421876
4094.91, 0.423419
4098.15, 0.424784
4101.39, 0.426031
4104.63, 0.427218
4107.89, 0.428405
4111.14, 0.429414
4114.41, 0.430483
4117.67, 0.431433
4120.95, 0.432264
4124.23, 0.433035
4127.51, 0.433926
4130.8, 0.434638
4134.09, 0.435410
4137.39, 0.436181
4140.7, 0.436834
4144.01, 0.437309
4147.32, 0.437784
4150.64, 0.438200
4153.97, 0.438556
4157.3, 0.438793
4160.64, 0.439090
4163.98, 0.439149
4167.33, 0.439268
4170.68, 0.439268
4174.04, 0.439328
4177.4, 0.439328
4180.77, 0.439328
4184.14, 0.439149
4187.52, 0.439031
4190.91, 0.438912
4194.3, 0.439090
4197.69, 0.439149
4201.1, 0.439328
4204.5, 0.439684
4207.92, 0.440277
4211.34, 0.440930
4214.76, 0.441939
4218.19, 0.442711
4221.62, 0.443423
4225.06, 0.444076
4228.51, 0.444492
4231.96, 0.444611
4235.42, 0.444433
4238.88, 0.443780
4242.35, 0.442770
4245.83, 0.441346
4249.31, 0.439565
4252.79, 0.437428
4256.28, 0.436003
4259.78, 0.436122
4263.29, 0.436953
4266.79, 0.437369
4270.31, 0.437547
4273.83, 0.437250
4277.35, 0.436656
4280.89, 0.435766
4284.42, 0.434994
4287.97, 0.434163
4291.52, 0.433154
4295.07, 0.431967
4298.63, 0.430720
4302.2, 0.429474
4305.78, 0.428405
4309.35, 0.427218
4312.94, 0.426149
4316.53, 0.425200
4320.13, 0.424428
4323.73, 0.423538
4327.34, 0.422647
4330.96, 0.421638
4334.58, 0.420866
4338.21, 0.420095
4341.84, 0.419323
4345.48, 0.418551
4349.12, 0.417839
4352.77, 0.417067
4356.43, 0.416474
4360.1, 0.415880
4363.76, 0.415168
4367.44, 0.414218
4371.12, 0.413268
4374.81, 0.412259
4378.51, 0.411191
4382.21, 0.409944
4385.92, 0.408697
4389.63, 0.407392
4393.35, 0.406145
4397.08, 0.404839
4400.81, 0.403711
4404.55, 0.402465
4408.29, 0.401099
4412.04, 0.399734
4415.8, 0.398428
4419.57, 0.397122
4423.34, 0.395876
4427.12, 0.394570
4430.9, 0.393204
4434.69, 0.391780
4438.49, 0.390355
4442.29, 0.388752
4446.1, 0.387268
4449.92, 0.385725
4453.74, 0.384241
4457.57, 0.382519
4461.41, 0.380798
4465.25, 0.379373
4469.1, 0.378127
4472.95, 0.376702
4476.82, 0.375396
4480.69, 0.374090
4484.56, 0.372844
4488.44, 0.371360
4492.33, 0.370113
4496.23, 0.368867
4500.13, 0.367739
4504.04, 0.366551
4507.96, 0.365542
4511.88, 0.364415
4515.81, 0.362931
4519.75, 0.361090
4523.69, 0.358775
4527.65, 0.355985
4531.6, 0.352839
4535.57, 0.349752
4539.54, 0.346784
4543.52, 0.343935
4547.5, 0.341323
4551.5, 0.338711
4555.5, 0.336100
4559.5, 0.333488
4563.52, 0.330995
4567.54, 0.328442
4571.56, 0.325771
4575.6, 0.322921
4579.64, 0.319894
4583.69, 0.316570
4587.75, 0.313186
4591.81, 0.309803
4595.88, 0.306479
4599.96, 0.303154
4604.04, 0.300008
4608.14, 0.296922
4612.24, 0.293775
4616.34, 0.290451
4620.46, 0.287068
4624.58, 0.283565
4628.71, 0.279885
4632.84, 0.275967
4636.99, 0.271693
4641.14, 0.267063
4645.3, 0.262492
4649.47, 0.258159
4653.64, 0.254360
4657.82, 0.251273
4662.01, 0.248958
4666.21, 0.247118
4670.41, 0.245575
4674.62, 0.244091
4678.84, 0.242725
4683.07, 0.241182
4687.3, 0.239817
4691.54, 0.238451
4695.79, 0.237086
4700.05, 0.235602
4704.31, 0.234059
4708.59, 0.232456
4712.87, 0.230438
4717.15, 0.228241
4721.45, 0.225748
4725.76, 0.223018
4730.07, 0.220050
4734.39, 0.217082
4738.72, 0.214054
4743.05, 0.211027
4747.39, 0.208296
4751.75, 0.205981
4756.1, 0.204200
4760.47, 0.202657
4764.85, 0.201410
4769.23, 0.200342
4773.62, 0.199273
4778.02, 0.198027
4782.43, 0.196780
4786.85, 0.195296
4791.27, 0.193456
4795.7, 0.191200
4800.14, 0.188945
4804.59, 0.186511
4809.05, 0.184136
4813.51, 0.181940
4817.99, 0.179863
4822.47, 0.177844
4826.96, 0.175945
4831.46, 0.174223
4835.96, 0.172621
4840.48, 0.170899
4845.0, 0.169356
4849.54, 0.167516
4854.08, 0.165616
4858.63, 0.163716
4863.18, 0.161876
4867.75, 0.160036
4872.33, 0.158374
4876.91, 0.156831
4881.5, 0.155347
4886.1, 0.154041
4890.71, 0.152913
4895.33, 0.151904
4899.96, 0.150835
4904.59, 0.149648
4909.24, 0.148639
4913.89, 0.147511
4918.55, 0.146383
4923.22, 0.145137
4927.9, 0.143771
4932.59, 0.142287
4937.29, 0.140922
4942.0, 0.139616
4946.71, 0.138548
4951.44, 0.137538
4956.17, 0.136707
4960.91, 0.135936
4965.67, 0.135283
4970.43, 0.134511
4975.2, 0.133680
4979.98, 0.132671
4984.76, 0.131662
4989.56, 0.130712
4994.37, 0.129940
4999.18, 0.129050
5004.01, 0.127981
5008.84, 0.126794
5013.69, 0.125191
5018.54, 0.123233
5023.4, 0.121155
5028.28, 0.118662
5033.16, 0.115991
5038.05, 0.113201
5042.95, 0.110529
5047.86, 0.107918
5052.78, 0.105721
5057.71, 0.103762
5062.65, 0.102278
5067.6, 0.101150
5072.56, 0.100438
5077.53, 0.100201
5082.5, 0.100319
5087.49, 0.100794
5092.49, 0.101447
5097.5, 0.102397
5102.51, 0.104178
5107.54, 0.106374
5112.58, 0.108630
5117.62, 0.110767
5122.68, 0.112785
5127.75, 0.114803
5132.82, 0.116703
5137.91, 0.118543
5143.01, 0.120443
5148.12, 0.122401
5153.23, 0.124420
5158.36, 0.126379
5163.5, 0.128397
5168.65, 0.130415
5173.81, 0.132493
5178.98, 0.134392
5184.15, 0.136292
5189.34, 0.138132
5194.54, 0.139675
5199.75, 0.140922
5204.98, 0.142050
5210.21, 0.142762
5215.45, 0.143059
5220.7, 0.142881
5225.96, 0.141990
5231.23, 0.140388
5236.52, 0.138310
5241.81, 0.135995
5247.12, 0.133680
5252.44, 0.131543
5257.76, 0.129703
5263.1, 0.128159
5268.45, 0.126972
5273.81, 0.126141
5279.18, 0.125548
5284.56, 0.124954
5289.95, 0.124598
5295.36, 0.124420
5300.77, 0.124242
5306.2, 0.124182
5311.63, 0.124242
5317.08, 0.124064
5322.54, 0.123945
5328.01, 0.123648
5333.49, 0.123529
5338.98, 0.123470
5344.49, 0.123470
5350.0, 0.123707
5355.53, 0.124242
5361.07, 0.125132
5366.62, 0.126201
5372.18, 0.127210
5377.75, 0.128159
5383.34, 0.128991
5388.93, 0.129940
5394.54, 0.130771
5400.16, 0.131602
5405.79, 0.132552
5411.44, 0.133680
5417.09, 0.134867
5422.76, 0.136232
5428.43, 0.137657
5434.12, 0.139022
5439.83, 0.140328
5445.54, 0.141456
5451.26, 0.142406
5457.0, 0.143178
5462.75, 0.143712
5468.52, 0.144365
5474.29, 0.144899
5480.08, 0.145611
5485.88, 0.146264
5491.69, 0.146680
5497.51, 0.146680
5503.35, 0.146383
5509.2, 0.145552
5515.06, 0.143831
5520.93, 0.141100
5526.82, 0.137004
5532.71, 0.130593
5538.63, 0.121155
5544.55, 0.108511
5550.49, 0.0952740
5556.44, 0.0855980
5562.4, 0.0815610
5568.37, 0.0805520
5574.36, 0.0806120
5580.36, 0.0845290
5586.37, 0.0939680
5592.4, 0.105128
5598.44, 0.114566
5604.49, 0.121630
5610.56, 0.126972
5616.63, 0.130712
5622.73, 0.133264
5628.83, 0.134927
5634.95, 0.135817
5641.08, 0.136470
5647.23, 0.136826
5653.39, 0.136707
5659.56, 0.136411
5665.74, 0.135995
5671.94, 0.135401
5678.15, 0.134570
5684.38, 0.133858
5690.62, 0.133264
5696.87, 0.132730
5703.14, 0.131959
5709.42, 0.131187
5715.72, 0.130356
5722.03, 0.129525
5728.35, 0.128456
5734.69, 0.127210
5741.03, 0.125844
5747.4, 0.124598
5753.78, 0.123470
5760.17, 0.122283
5766.58, 0.121274
5773.0, 0.120739
5779.44, 0.119968
5785.88, 0.119196
5792.35, 0.118187
5798.83, 0.117178
5805.32, 0.116169
5811.83, 0.115041
5818.35, 0.113794
5824.89, 0.112963
5831.45, 0.112073
5838.01, 0.111064
5844.59, 0.109936
5851.19, 0.108927
5857.8, 0.107977
5864.43, 0.107205
5871.07, 0.106433
5877.73, 0.105602
5884.4, 0.104831
5891.09, 0.103584
5897.79, 0.101922
5904.5, 0.100379
5911.23, 0.0985980
5917.98, 0.0965800
5924.75, 0.0944430
5931.53, 0.0922460
5938.32, 0.0900500
5945.13, 0.0880320
5951.96, 0.0858950
5958.8, 0.0837580
5965.65, 0.0816210
5972.53, 0.0797210
5979.42, 0.0779400
5986.32, 0.0763380
5993.24, 0.0747350
6000.18, 0.0733100
6007.13, 0.0718260
6014.1, 0.0703420
6021.08, 0.0689180
6028.09, 0.0674930
6035.1, 0.0660680
6042.14, 0.0648220
6049.19, 0.0636350
6056.25, 0.0626850
6063.34, 0.0614380
6070.44, 0.0600140
6077.55, 0.0584110
6084.69, 0.0569270
6091.84, 0.0556800
6099.0, 0.0547300
6106.19, 0.0539590
6113.39, 0.0535430
6120.61, 0.0535430
6127.84, 0.0536620
6135.09, 0.0538400
6142.36, 0.0543740
6149.65, 0.0549680
6156.95, 0.0555610
6164.27, 0.0560960
6171.61, 0.0566890
6178.97, 0.0572240
6186.34, 0.0577580
6193.73, 0.0581140
6201.14, 0.0584700
6208.57, 0.0588860
6216.01, 0.0594200
6223.47, 0.0598350
6230.95, 0.0602510
6238.45, 0.0607850
6245.97, 0.0613190
6253.5, 0.0616760
6261.06, 0.0619720
6268.63, 0.0623290
6276.21, 0.0626850
6283.82, 0.0628030
6291.45, 0.0630410
6299.1, 0.0637530
6306.76, 0.0649400
6314.44, 0.0663650
6322.14, 0.0679680
6329.86, 0.0696300
6337.6, 0.0714700
6345.35, 0.0734290
6353.13, 0.0753290
6360.92, 0.0766940
6368.74, 0.0776440
6376.57, 0.0784750
6384.43, 0.0793060
6392.3, 0.0801370
6400.19, 0.0807300
6408.1, 0.0811460
6416.03, 0.0819770
6423.98, 0.0827490
6431.95, 0.0834020
6439.94, 0.0839360
6447.95, 0.0841140
6455.98, 0.0839360
6464.03, 0.0835800
6472.1, 0.0831050
6480.19, 0.0826890
6488.31, 0.0822740
6496.44, 0.0819180
6504.59, 0.0816800
6512.76, 0.0813830
6520.95, 0.0809680
6529.16, 0.0808490
6537.4, 0.0806120
6545.65, 0.0802550
6553.92, 0.0797810
6562.22, 0.0794240
6570.54, 0.0788900
6578.88, 0.0784150
6587.23, 0.0778810
6595.61, 0.0772280
6604.02, 0.0765160
6612.44, 0.0756850
6620.89, 0.0747350
6629.35, 0.0737260
6637.84, 0.0728950
6646.35, 0.0723610
6654.88, 0.0717080
6663.44, 0.0709950
6672.01, 0.0704610
6680.61, 0.0699270
6689.23, 0.0693930
6697.88, 0.0689770
6706.54, 0.0685610
6715.23, 0.0683830
6723.94, 0.0683830
6732.67, 0.0683830
6741.42, 0.0682650
6750.2, 0.0681460
6759.0, 0.0681460
6767.82, 0.0679680
6776.67, 0.0676710
6785.54, 0.0673150
6794.44, 0.0669590
6803.35, 0.0666620
6812.29, 0.0664240
6821.26, 0.0660680
6830.24, 0.0658310
6839.25, 0.0657720
6848.29, 0.0656530
6857.35, 0.0654750
6866.43, 0.0654150
6875.54, 0.0654150
6884.67, 0.0651780
6893.82, 0.0648810
6903.0, 0.0645250
6912.2, 0.0641690
6921.43, 0.0638720
6930.69, 0.0636350
6939.96, 0.0633380
6949.27, 0.0631000
6958.59, 0.0629220
6967.95, 0.0629820
6977.33, 0.0631000
6986.73, 0.0631000
6996.16, 0.0629820
7005.61, 0.0628630
7015.09, 0.0627440
7024.6, 0.0626250
7034.13, 0.0624470
7043.69, 0.0623290
7053.27, 0.0623290
7062.88, 0.0622690
7072.52, 0.0619130
7082.18, 0.0613190
7091.87, 0.0601920
7101.58, 0.0583510
7111.32, 0.0559180
7121.09, 0.0534250
7130.88, 0.0514060
7140.71, 0.0503380
7150.56, 0.0498040
7160.43, 0.0493880
7170.33, 0.0487940
7180.27, 0.0482600
7190.23, 0.0478450
7200.21, 0.0477260
7210.23, 0.0477850
7220.27, 0.0478450
7230.34, 0.0478450
7240.44, 0.0480230
7250.56, 0.0480820
7260.72, 0.0482600
7270.9, 0.0484980
7281.12, 0.0489720
7291.36, 0.0495070
7301.63, 0.0501600
7311.93, 0.0508720
7322.25, 0.0516440
7332.61, 0.0523560
7343.0, 0.0531870
7353.41, 0.0540770
7363.86, 0.0547900
7374.33, 0.0553830
7384.83, 0.0557990
7395.37, 0.0560960
7405.93, 0.0563330
7416.53, 0.0565110
7427.15, 0.0568080
7437.81, 0.0571640
7448.5, 0.0574610
7459.22, 0.0575800
7469.96, 0.0576980
7480.74, 0.0578770
7491.55, 0.0580550
7502.39, 0.0580550
7513.27, 0.0580550
7524.17, 0.0579950
7535.11, 0.0580550
7546.08, 0.0580550
7557.08, 0.0580550
7568.11, 0.0580550
7579.17, 0.0580550
7590.27, 0.0581140
7601.4, 0.0584110
7612.56, 0.0587080
7623.76, 0.0591230
7634.98, 0.0597170
7646.24, 0.0602510
7657.54, 0.0607260
7668.87, 0.0611410
7680.23, 0.0613790
7691.62, 0.0615570
7703.05, 0.0616760
7714.51, 0.0617940
7726.01, 0.0617350
7737.54, 0.0616160
7749.11, 0.0614380
7760.71, 0.0612010
7772.35, 0.0607850
7784.02, 0.0603100
7795.72, 0.0598950
7807.46, 0.0596570
7819.23, 0.0594790
7831.04, 0.0594790
7842.89, 0.0594200
7854.77, 0.0593010
7866.69, 0.0590040
7878.65, 0.0587080
7890.64, 0.0584110
7902.67, 0.0584700
7914.74, 0.0588860
7926.84, 0.0594200
7938.98, 0.0600140
7951.16, 0.0604290
7963.37, 0.0606070
7975.62, 0.0606070
7987.91, 0.0604880
8000.24, 0.0600730
8012.6, 0.0597760
8025.01, 0.0595390
8037.45, 0.0592420
8049.93, 0.0589450
8062.45, 0.0588860
8075.01, 0.0590640
8087.61, 0.0593610
8100.24, 0.0597760
8112.91, 0.0601320
8125.63, 0.0605480
8138.39, 0.0609630
8151.18, 0.0613190
8164.02, 0.0615570
8176.9, 0.0617940
8189.81, 0.0620910
8202.77, 0.0622100
8215.77, 0.0620910
8228.82, 0.0620320
8241.9, 0.0619130
8255.02, 0.0616160
8268.19, 0.0612010
8281.39, 0.0609630
8294.65, 0.0606670
8307.94, 0.0603100
8321.28, 0.0601320
8334.66, 0.0600730
8348.08, 0.0600140
8361.54, 0.0598950
8375.05, 0.0598350
8388.6, 0.0597170
8402.2, 0.0597170
8415.84, 0.0599540
8429.52, 0.0601920
8443.25, 0.0606670
8457.02, 0.0612010
8470.84, 0.0619720
8484.7, 0.0629220
8498.61, 0.0642280
8512.57, 0.0657720
8526.57, 0.0674340
8540.62, 0.0691550
8554.71, 0.0708770
8568.85, 0.0727170
8583.04, 0.0745570
8597.27, 0.0762190
8611.55, 0.0782970
8625.88, 0.0813830
8640.26, 0.0855980
8654.68, 0.0904060
8669.16, 0.0946210
8683.68, 0.0982420
8698.25, 0.101507
8712.87, 0.104712
8727.53, 0.107858
8742.25, 0.110767
8757.02, 0.113319
8771.83, 0.115575
8786.7, 0.117296
8801.62, 0.117890
8816.59, 0.117296
8831.61, 0.115872
8846.68, 0.114032
8861.8, 0.112310
8876.97, 0.111301
8892.2, 0.111004
8907.48, 0.111420
8922.81, 0.111539
8938.2, 0.110886
8953.63, 0.109995
8969.13, 0.109164
8984.67, 0.108333
9000.27, 0.107561
9015.92, 0.107146
9031.63, 0.107146
9047.39, 0.107561
9063.21, 0.108274
9079.08, 0.109223
9095.01, 0.110351
9111.0, 0.111420
9127.04, 0.112726
9143.13, 0.113972
9159.28, 0.115041
9175.49, 0.115812
9191.76, 0.116525
9208.09, 0.117178
9224.47, 0.117475
9240.92, 0.117653
9257.42, 0.117653
9273.98, 0.117296
9290.6, 0.116584
9307.28, 0.115575
9324.02, 0.114032
9340.82, 0.111776
9357.68, 0.109342
9374.6, 0.106552
9391.58, 0.103287
9408.62, 0.0996660
9425.73, 0.0963420
9442.9, 0.0933150
9460.13, 0.0901690
9477.42, 0.0872600
9494.78, 0.0847670
9512.2, 0.0823330
9529.69, 0.0801370
9547.24, 0.0782370
9564.86, 0.0765160
9582.54, 0.0750910
9600.28, 0.0746160
9618.1, 0.0750320
9635.97, 0.0755660
9653.92, 0.0753290
9671.93, 0.0743790
9690.01, 0.0730730
9708.16, 0.0717080
9726.37, 0.0707580
9744.65, 0.0706980
9763.0, 0.0718260
9781.43, 0.0747940
9799.92, 0.0791280
9818.48, 0.0833420
9837.1, 0.0869630
9855.8, 0.0902870
9874.58, 0.0930770
9893.42, 0.0952740
9912.34, 0.0968760
9931.33, 0.0978260
9950.39, 0.0983010
9969.52, 0.0984200
9988.74, 0.0979450
10008.0, 0.0974110
10027.4, 0.0968760
10046.8, 0.0966390
10066.3, 0.0973510
10085.9, 0.0990730
10105.6, 0.102100
10125.3, 0.105781
10145.1, 0.109105
10165.0, 0.111717
10185.0, 0.113497
10205.0, 0.115278
10225.2, 0.117356
10245.4, 0.119612
10265.7, 0.121867
10286.0, 0.124182
10306.5, 0.126497
10327.0, 0.128516
10347.6, 0.130178
10368.3, 0.131306
10389.1, 0.131602
10409.9, 0.130712
10430.9, 0.128634
10451.9, 0.125666
10473.0, 0.122342
10494.2, 0.118840
10515.5, 0.115219
10536.9, 0.111360
10558.4, 0.107621
10579.9, 0.104178
10601.5, 0.100676
10623.3, 0.0975890
10645.1, 0.0946210
10667.0, 0.0916530
10689.0, 0.0887440
10711.1, 0.0864880
10733.2, 0.0857170
10755.5, 0.0873790
10777.9, 0.0907620
10800.3, 0.0945610
10822.9, 0.0980640
10845.5, 0.100676
10868.2, 0.102694
10891.1, 0.103762
10914.0, 0.103881
10937.0, 0.103644
10960.2, 0.103169
10983.4, 0.102575
11006.7, 0.102041
11030.1, 0.101507
11053.6, 0.101032
11077.3, 0.100616
11101.0, 0.100379
11124.8, 0.100023
11148.7, 0.0997850
11172.7, 0.0996660
11196.9, 0.0995480
11221.1, 0.100023
11245.4, 0.100676
11269.9, 0.100676
11294.4, 0.0992510
11319.1, 0.0972330
11343.9, 0.0955110
11368.8, 0.0937300
11393.7, 0.0917120
11418.8, 0.0899910
11444.0, 0.0889810
11469.4, 0.0883880
11494.8, 0.0878540
11520.3, 0.0872600
11546.0, 0.0863700
11571.8, 0.0851230
11597.7, 0.0836980
11623.7, 0.0818580
11649.8, 0.0795430
11676.0, 0.0771090
11702.4, 0.0741410
11728.9, 0.0708770
11755.5, 0.0670770
11782.2, 0.0633970
11809.0, 0.0608450
11836.0, 0.0588260
11863.0, 0.0568670
11890.3, 0.0552050
11917.6, 0.0536030
11945.0, 0.0520590
11972.6, 0.0506940
12000.4, 0.0495070
12028.2, 0.0485570
12056.2, 0.0476070
12084.3, 0.0465980
12112.5, 0.0455890
12140.9, 0.0445200
12169.4, 0.0436890
12198.0, 0.0429180
12226.8, 0.0422050
12255.7, 0.0414340
12284.7, 0.0407810
12313.9, 0.0403060
12343.2, 0.0403060
12372.7, 0.0406030
12402.3, 0.0408400
12432.0, 0.0410780
12461.9, 0.0409590
12491.9, 0.0404250
12522.1, 0.0398310
12552.4, 0.0391780
12582.9, 0.0380500
12613.5, 0.0369820
12644.3, 0.0363290
12675.2, 0.0357350
12706.3, 0.0354380
12737.5, 0.0352010
12768.9, 0.0352010
12800.4, 0.0348450
12832.1, 0.0341320
12863.9, 0.0333610
12895.9, 0.0326480
12928.1, 0.0324110
12960.4, 0.0327670
12992.9, 0.0341920
13025.5, 0.0366250
13058.3, 0.0394750
13091.3, 0.0423830
13124.4, 0.0446990
13157.8, 0.0459450
13191.2, 0.0456480
13224.9, 0.0437490
13258.7, 0.0410780
13292.7, 0.0387620
13326.9, 0.0370410
13361.2, 0.0354380
13395.7, 0.0340730
13430.4, 0.0330040
13465.3, 0.0321730
13500.4, 0.0314020
13535.7, 0.0305710
13571.1, 0.0299770
13606.7, 0.0295020
13642.5, 0.0289090
13678.5, 0.0280180
13714.7, 0.0273060
13751.1, 0.0267720
13787.6, 0.0262370
13824.4, 0.0255840
13861.4, 0.0252280
13898.5, 0.0245750
13935.9, 0.0233290
13973.5, 0.0226760
14011.2, 0.0231510
14049.2, 0.0235070
14087.4, 0.0232690
14125.8, 0.0231510
14164.3, 0.0229730
14203.2, 0.0226160
14242.2, 0.0226160
14281.4, 0.0227350
14320.9, 0.0230320
14360.5, 0.0237440
14400.4, 0.0245160
14440.5, 0.0251100
14480.9, 0.0256440
14521.4, 0.0255250
14562.2, 0.0252280
14603.3, 0.0248130
14644.5, 0.0239820
14686.0, 0.0229730
14727.7, 0.0225570
14769.7, 0.0229130
14811.9, 0.0232690
14854.3, 0.0231510
14897.0, 0.0223790
14939.9, 0.0211320
14983.1, 0.0198860
15026.5, 0.0191140
15070.2, 0.0184610
15114.2, 0.0178680
15158.3, 0.0173330
15202.8, 0.0171550
15247.5, 0.0168580
15292.5, 0.0162650
15337.7, 0.0157900
15383.2, 0.0153740
15429.0, 0.0159090
15475.1, 0.0169180
15521.4, 0.0181640
15568.0, 0.0196480
15614.9, 0.0209540
15662.1, 0.0216670
15709.6, 0.0220230
15757.3, 0.0219630
15805.4, 0.0210730
15853.7, 0.0201230
15902.3, 0.0193520
15951.2, 0.0186390
16000.5, 0.0180460
16050.0, 0.0173930
16099.8, 0.0167990
16150.0, 0.0163840
16200.5, 0.0160870
16251.3, 0.0159090
16302.4, 0.0162650
16353.8, 0.0168580
16405.5, 0.0173930
16457.6, 0.0179860
16510.0, 0.0189360
16562.8, 0.0201830
16615.9, 0.0213700
16669.3, 0.0232100
16723.1, 0.0262970
16777.2, 0.0295020
16831.7, 0.0333010
16886.5, 0.0382280
16941.7, 0.0436890
16997.2, 0.0496250
17053.1, 0.0566890
17109.4, 0.0644660
17166.1, 0.0723010
17223.1, 0.0807300
17280.5, 0.0891600
17338.3, 0.0969950
17396.5, 0.105187
17455.1, 0.113260
17514.0, 0.120086
17573.4, 0.126557
17633.2, 0.132612
17693.4, 0.137657
17754.0, 0.141575
17815.0, 0.144780
17876.4, 0.146739
17938.3, 0.147511
18000.5, 0.147630
18063.3, 0.147036
18126.4, 0.146621
18190.0, 0.146502
18254.1, 0.146086
18318.6, 0.145968
18383.5, 0.145790
18449.0, 0.146205
18514.9, 0.147214
18581.2, 0.148105
18648.0, 0.149292
18715.4, 0.149767
18783.2, 0.148580
18851.5, 0.147095
18920.3, 0.146205
18989.6, 0.143771
19059.4, 0.141931
19129.7, 0.141159
19200.6, 0.140269
19272.0, 0.140150
19343.9, 0.140328
19416.3, 0.140506
19489.3, 0.140566
19562.8, 0.140447
19637.0, 0.140803
19711.6, 0.141278
19786.8, 0.140922
19862.6, 0.140566
19939.0, 0.138488
20016.0, 0.136411
20093.6, 0.134155
20171.8, 0.132493
20250.6, 0.130890
20330.0, 0.130771
20410.0, 0.131543
20490.7, 0.132552
20572.0, 0.134808
20654.0, 0.137479
20736.6, 0.139141
20819.9, 0.139735
20903.8, 0.139319
20988.5, 0.138878
21073.8, 0.138149
21159.8, 0.138136
21246.5, 0.136787
21334.0, 0.135370
21422.1, 0.134264
21511.0, 0.133818
21600.7, 0.132779
21691.0, 0.130486
21782.1, 0.129258
21874.0, 0.129069
21966.7, 0.128556
22060.2, 0.127976
22154.5, 0.127356
22249.6, 0.124900
22345.5, 0.120825
22442.2, 0.116386
22539.8, 0.113094
22638.2, 0.109613
22737.5, 0.107791
22837.7, 0.106132
22938.7, 0.103514
23040.7, 0.102098
23143.5, 0.101126
23247.3, 0.0989810
23352.1, 0.0946630
23457.7, 0.0904940
23564.4, 0.0863920
23672.0, 0.0835180
23780.5, 0.0832620
23890.1, 0.0848680
24000.7, 0.0876070
24112.3, 0.0905350
24225.0, 0.0948250
24338.7, 0.0986300
24453.5, 0.100519
24569.4, 0.100478
24686.4, 0.101302
24804.5, 0.104378
24923.8, 0.106685
25044.2, 0.106321
25165.8, 0.106348
25288.6, 0.107454
25412.5, 0.107400
25537.7, 0.105889
25664.1, 0.105430
25791.8, 0.105795
25920.8, 0.105633
26051.1, 0.104270
26182.6, 0.102125
26315.5, 0.0994940
26449.8, 0.0967820
26585.4, 0.0934220
26722.5, 0.0913170
26860.9, 0.0900080
27000.8, 0.0869050
27142.1, 0.0845170
27285.0, 0.0842200
27429.4, 0.0850430
27575.3, 0.0846790
27722.7, 0.0849220
27871.8, 0.0852450
28022.4, 0.0856500
28174.7, 0.0841390
28328.7, 0.0827630
28484.4, 0.0849890
28641.7, 0.0896580
28800.9, 0.0959990
28961.8, 0.103379
29124.5, 0.110234
29289.0, 0.114187
29455.4, 0.116076
29623.8, 0.117290
29794.0, 0.117142
29966.3, 0.117843
30140.5, 0.117358
30316.7, 0.114173
30495.1, 0.110045
30675.5, 0.107899
30858.1, 0.105606
31042.8, 0.102867
31229.8, 0.100627
31419.1, 0.0978470
31610.7, 0.0955810
31804.6, 0.0954590
32000.9, 0.0967140
32199.7, 0.0976050
32400.9, 0.100087
32604.8, 0.102583
32811.1, 0.102003
33020.1, 0.100209
33231.8, 0.0999930
33446.2, 0.100384
33663.4, 0.102260
33883.4, 0.105862
34106.3, 0.107940
34332.1, 0.108412
34561.0, 0.107265
34792.9, 0.104769
35028.0, 0.100465
35266.3, 0.0950550
35507.8, 0.0898330
35752.7, 0.0870940
36001.0, 0.0850160
36252.8, 0.0841800
36508.1, 0.0828980
36767.0, 0.0792820
37029.7, 0.0762060
37296.1, 0.0754500
37566.3, 0.0732910
37840.5, 0.0705660
38118.8, 0.0694860
38401.2, 0.0691220
38687.8, 0.0705520
38978.6, 0.0719420
39273.9, 0.0733050
39573.7, 0.0785400
39878.1, 0.0817100
40187.3, 0.0825200
40501.2, 0.0833160
40820.0, 0.0848810
41144.0, 0.0868650
41473.2, 0.0895630
41807.6, 0.0923290
42147.5, 0.0934620
42493.0, 0.0941770
42844.2, 0.0933810
43201.2, 0.0930170
43564.3, 0.0926120
43933.5, 0.0897110
44309.0, 0.0886730
44691.0, 0.0892930
45079.6, 0.0900220
45475.0, 0.0896980
45877.5, 0.0886860
46287.1, 0.0866220
46704.2, 0.0840310
47128.7, 0.0831810
47561.1, 0.0829790
48001.5, 0.0802130
48450.1, 0.0790660
48907.2, 0.0764620
49373.0, 0.0746130
49847.7, 0.0754770
50331.5, 0.0751130
50825.0, 0.0740600
51328.2, 0.0741950
51841.5, 0.0735880
52365.1, 0.0724010
52899.4, 0.0718610
53444.8, 0.0707280
54001.5, 0.0722250
54570.1, 0.0711860
55150.6, 0.0684340
55743.6, 0.0680020
56349.5, 0.0661000
56968.7, 0.0652500
57601.7, 0.0649930
58248.9, 0.0651280
58910.9, 0.0665850
59588.1, 0.0694190
60281.0, 0.0708620
60990.2, 0.0727240
61716.3, 0.0748700
62459.8, 0.0777570
63221.6, 0.0806180
64002.1, 0.0886860
64802.1, 0.0953110
65622.1, 0.0986170
66463.4, 0.112851
67326.6, 0.119651
68212.4, 0.109559
69121.9, 0.108277
70056.0, 0.112973
71015.7, 0.112163
72002.0, 0.107522
73016.3, 0.107899
74059.4, 0.108925
75132.7, 0.103933
76237.6, 0.100492
77375.5, 0.0998040
78547.9, 0.0964580
79756.3, 0.0957160
81002.5, 0.0980500
82288.5, 0.0996150
83615.7, 0.0985220
84986.5, 0.101922
86402.9, 0.109033
87867.4, 0.123281
89382.4, 0.121918
90950.5, 0.111326
92574.6, 0.114322
94257.2, 0.120366
96002.7, 0.126748
97814.1, 0.126613
99695.1, 0.117331
101650.0, 0.114727
103683.0, 0.120542
105799.0, 0.124131
108003.0, 0.124738
110301.0, 0.125547
112699.0, 0.126411
115204.0, 0.131822
117822.0, 0.140592
120562.0, 0.145746
123433.0, 0.144761
126443.0, 0.148687
129604.0, 0.159576
132926.0, 0.156904
136424.0, 0.152559
140111.0, 0.158577
144003.0, 0.171732
148118.0, 0.185171
152474.0, 0.184388
157095.0, 0.180799
162004.0, 0.197665
167231.0, 0.216406
172805.0, 0.212264
178764.0, 0.212871
185148.0, 0.218902
192005.0, 0.225986
199390.0, 0.231221
207366.0, 0.228886
216006.0, 0.281143
