Database of Origin, USGS Spectral Database
Sample Description, See USGS database for additional info
Date Added,2016-08-03 21:29:53.721086

Data ID,USGS_dic03          
Sample ID, dickite_nmnh106242.6871
Mineral Name, dickite
Material Class,Phyllosilicate

Wavelength
1354.98, 0.452819
1355.33, 0.452058
1355.69, 0.450537
1356.04, 0.448003
1356.4, 0.445658
1356.75, 0.442933
1357.11, 0.440272
1357.46, 0.437737
1357.82, 0.435710
1358.18, 0.433428
1358.53, 0.431464
1358.89, 0.429816
1359.24, 0.429436
1359.6, 0.429880
1359.96, 0.429500
1360.31, 0.429436
1360.67, 0.431020
1361.03, 0.432414
1361.39, 0.433745
1361.74, 0.435393
1362.1, 0.437104
1362.46, 0.438181
1362.82, 0.438814
1363.18, 0.438878
1363.53, 0.439702
1363.89, 0.440272
1364.25, 0.440589
1364.61, 0.441222
1364.97, 0.441729
1365.33, 0.441856
1365.69, 0.442553
1366.05, 0.442933
1366.41, 0.442870
1366.77, 0.441539
1367.13, 0.439511
1367.49, 0.437864
1367.85, 0.436597
1368.21, 0.435329
1368.57, 0.433428
1368.93, 0.431274
1369.3, 0.429500
1369.66, 0.427599
1370.02, 0.425761
1370.38, 0.423860
1370.74, 0.422086
1371.11, 0.419741
1371.47, 0.417523
1371.83, 0.414862
1372.19, 0.411503
1372.56, 0.408589
1372.92, 0.405927
1373.29, 0.402379
1373.65, 0.398323
1374.01, 0.394268
1374.38, 0.390529
1374.74, 0.385967
1375.11, 0.380961
1375.47, 0.375955
1375.84, 0.371266
1376.2, 0.366767
1376.57, 0.362838
1376.93, 0.358909
1377.3, 0.354347
1377.67, 0.349721
1378.03, 0.344461
1378.4, 0.338822
1378.76, 0.333246
1379.13, 0.327416
1379.5, 0.321839
1379.87, 0.316643
1380.23, 0.312651
1380.6, 0.308723
1380.97, 0.304921
1381.34, 0.302639
1381.7, 0.301309
1382.07, 0.300802
1382.44, 0.301055
1382.81, 0.302259
1383.18, 0.304414
1383.55, 0.307519
1383.92, 0.311701
1384.29, 0.316643
1384.66, 0.321776
1385.03, 0.327162
1385.4, 0.332802
1385.77, 0.338822
1386.14, 0.344271
1386.51, 0.349911
1386.88, 0.355487
1387.25, 0.360810
1387.62, 0.366069
1387.99, 0.371139
1388.36, 0.375321
1388.74, 0.379186
1389.11, 0.383432
1389.48, 0.387361
1389.85, 0.390592
1390.23, 0.393761
1390.6, 0.396929
1390.97, 0.399971
1391.35, 0.402632
1391.72, 0.405167
1392.09, 0.407258
1392.47, 0.409286
1392.84, 0.411060
1393.21, 0.412264
1393.59, 0.413468
1393.96, 0.414798
1394.34, 0.415686
1394.71, 0.416319
1395.09, 0.417016
1395.46, 0.417713
1395.84, 0.417903
1396.22, 0.417840
1396.59, 0.417460
1396.97, 0.417016
1397.35, 0.416890
1397.72, 0.416636
1398.1, 0.416256
1398.48, 0.416066
1398.85, 0.415559
1399.23, 0.414735
1399.61, 0.413848
1399.99, 0.413024
1400.37, 0.412010
1400.74, 0.411060
1401.12, 0.409666
1401.5, 0.407828
1401.88, 0.406497
1402.26, 0.405484
1402.64, 0.404216
1403.02, 0.402505
1403.4, 0.400414
1403.78, 0.398323
1404.16, 0.396295
1404.54, 0.394331
1404.92, 0.391796
1405.3, 0.389515
1405.68, 0.387234
1406.06, 0.383876
1406.44, 0.380454
1406.83, 0.377032
1407.21, 0.373357
1407.59, 0.369048
1407.97, 0.364105
1408.35, 0.359099
1408.74, 0.353713
1409.12, 0.347756
1409.5, 0.340723
1409.89, 0.332675
1410.27, 0.323424
1410.65, 0.313285
1411.04, 0.300612
1411.42, 0.286101
1411.81, 0.269625
1412.19, 0.250679
1412.58, 0.229831
1412.96, 0.207463
1413.35, 0.182053
1413.73, 0.157086
1414.12, 0.143716
1414.5, 0.151383
1414.89, 0.176920
1415.28, 0.208793
1415.66, 0.236992
1416.05, 0.258093
1416.44, 0.272667
1416.82, 0.282299
1417.21, 0.288445
1417.6, 0.292437
1417.98, 0.297633
1418.37, 0.303527
1418.76, 0.309293
1419.15, 0.316327
1419.54, 0.325388
1419.93, 0.334703
1420.32, 0.344081
1420.71, 0.352889
1421.09, 0.361127
1421.48, 0.369808
1421.88, 0.377919
1422.27, 0.385840
1422.66, 0.391923
1423.05, 0.395915
1423.44, 0.399590
1423.83, 0.404787
1424.22, 0.410173
1424.61, 0.414608
1425.0, 0.417523
1425.39, 0.419931
1425.78, 0.422846
1426.18, 0.426014
1426.57, 0.428486
1426.96, 0.430767
1427.36, 0.433111
1427.75, 0.435583
1428.14, 0.437991
1428.54, 0.438814
1428.93, 0.439258
1429.32, 0.441159
1429.72, 0.444074
1430.11, 0.445912
1430.51, 0.445531
1430.9, 0.445088
1431.3, 0.444771
1431.69, 0.446102
1432.09, 0.449143
1432.48, 0.451108
1432.88, 0.451678
1433.28, 0.451805
1433.67, 0.452565
1434.07, 0.453579
1434.46, 0.454656
1434.86, 0.454973
1435.26, 0.456177
1435.66, 0.457318
1436.05, 0.456304
1436.45, 0.456557
1436.85, 0.458331
1437.25, 0.458458
1437.65, 0.458141
1438.05, 0.459472
1438.44, 0.460359
1438.84, 0.459535
1439.24, 0.459979
1439.64, 0.460613
1440.04, 0.460422
1440.44, 0.460296
1440.84, 0.460803
1441.24, 0.461183
1441.65, 0.461183
1442.05, 0.461246
1442.45, 0.461626
1442.85, 0.461563
1443.25, 0.461310
1443.65, 0.461436
1444.05, 0.461880
1444.46, 0.461817
1444.86, 0.461753
1445.26, 0.462070
1445.67, 0.462070
1446.07, 0.461690
1446.47, 0.461373
1446.88, 0.461626
1447.28, 0.461943
1447.68, 0.461753
1448.09, 0.461626
1448.49, 0.462260
1448.9, 0.462577
1449.3, 0.462830
1449.71, 0.462830
1450.11, 0.463274
1450.52, 0.463908
1450.93, 0.464288
1451.33, 0.464351
1451.74, 0.464668
1452.14, 0.465175
1452.55, 0.465619
1452.96, 0.465619
1453.36, 0.465429
1453.77, 0.465492
1454.18, 0.465745
1454.59, 0.465935
1455.0, 0.466379
1455.41, 0.466696
1455.81, 0.466759
1456.22, 0.466823
1456.63, 0.467520
1457.04, 0.467836
1457.45, 0.467773
1457.86, 0.467520
1458.27, 0.467583
1458.68, 0.467900
1459.09, 0.468280
1459.5, 0.468533
1459.91, 0.468660
1460.32, 0.468660
1460.74, 0.468724
1461.15, 0.468850
1461.56, 0.468660
1461.97, 0.468533
1462.39, 0.468597
1462.8, 0.468724
1463.21, 0.468787
1463.62, 0.468787
1464.04, 0.468724
1464.45, 0.468724
1464.86, 0.469040
1465.28, 0.469357
1465.69, 0.469357
1466.11, 0.468850
1466.52, 0.468787
1466.94, 0.468914
1467.35, 0.469167
1467.77, 0.469104
1468.18, 0.469040
1468.6, 0.468914
1469.02, 0.468724
1469.43, 0.468470
1469.85, 0.468533
1470.27, 0.468914
1470.68, 0.469040
1471.1, 0.469231
1471.52, 0.469357
1471.94, 0.469294
1472.35, 0.468914
1472.77, 0.468660
1473.19, 0.468597
1473.61, 0.468914
1474.03, 0.469421
1474.45, 0.469674
1474.87, 0.470054
1475.29, 0.470118
1475.71, 0.469674
1476.13, 0.469484
1476.55, 0.469484
1476.97, 0.469421
1477.39, 0.469547
1477.81, 0.469357
1478.23, 0.469167
1478.65, 0.469231
1479.07, 0.468914
1479.5, 0.468660
1479.92, 0.468724
1480.34, 0.468787
1480.76, 0.469104
1481.19, 0.469421
1481.61, 0.469421
1482.03, 0.469357
1482.46, 0.469484
1482.88, 0.469357
1483.31, 0.469231
1483.73, 0.469040
1484.16, 0.468977
1484.58, 0.468977
1485.01, 0.469040
1485.43, 0.469040
1485.86, 0.469547
1486.28, 0.469991
1486.71, 0.470054
1487.14, 0.469737
1487.56, 0.469927
1487.99, 0.469927
1488.42, 0.469927
1488.84, 0.469991
1489.27, 0.469927
1489.7, 0.470181
1490.13, 0.470308
1490.56, 0.470498
1490.98, 0.470625
1491.41, 0.470244
1491.84, 0.470308
1492.27, 0.470561
1492.7, 0.470561
1493.13, 0.470561
1493.56, 0.470498
1493.99, 0.469927
1494.42, 0.469927
1494.85, 0.470181
1495.29, 0.470118
1495.72, 0.470181
1496.15, 0.470625
1496.58, 0.470941
1497.01, 0.470688
1497.44, 0.470751
1497.88, 0.471258
1498.31, 0.471322
1498.74, 0.471195
1499.18, 0.471195
1499.61, 0.471638
1500.04, 0.471955
1500.48, 0.471702
1500.91, 0.471322
1501.35, 0.471638
1501.78, 0.471322
1502.22, 0.472209
1502.65, 0.471892
1503.09, 0.471638
1503.53, 0.471828
1503.96, 0.471638
1504.4, 0.471955
1504.83, 0.471765
1505.27, 0.472145
1505.71, 0.473413
1506.15, 0.472652
1506.58, 0.471385
1507.02, 0.470941
1507.46, 0.472526
1507.9, 0.473730
1508.34, 0.473223
1508.78, 0.472145
1509.21, 0.472209
1509.66, 0.472082
1510.09, 0.471512
1510.53, 0.472526
1510.97, 0.473286
1511.42, 0.473286
1511.86, 0.473666
1512.3, 0.472906
1512.74, 0.471132
1513.18, 0.470308
1513.62, 0.472652
1514.06, 0.474997
1514.51, 0.475250
1514.95, 0.474173
1515.39, 0.474046
1515.83, 0.474110
1516.28, 0.473983
1516.72, 0.474997
1517.16, 0.475821
1517.61, 0.475377
1518.05, 0.474933
1518.5, 0.474617
1518.94, 0.474870
1519.39, 0.475250
1519.83, 0.475314
1520.28, 0.475060
1520.73, 0.475504
1521.17, 0.476011
1521.62, 0.475757
1522.07, 0.476328
1522.51, 0.476898
1522.96, 0.476518
1523.41, 0.476328
1523.85, 0.476518
1524.3, 0.476644
1524.75, 0.476771
1525.2, 0.477025
1525.65, 0.476961
1526.1, 0.477151
1526.55, 0.477151
1527.0, 0.477722
1527.45, 0.478292
1527.9, 0.477912
1528.35, 0.477468
1528.8, 0.477785
1529.25, 0.478482
1529.7, 0.478482
1530.15, 0.478545
1530.6, 0.478609
1531.05, 0.478292
1531.51, 0.478545
1531.96, 0.478735
1532.41, 0.478545
1532.87, 0.478609
1533.32, 0.478989
1533.77, 0.479242
1534.23, 0.479242
1534.68, 0.479179
1535.14, 0.479306
1535.59, 0.479496
1536.05, 0.479559
1536.5, 0.479496
1536.96, 0.479876
1537.41, 0.479876
1537.87, 0.479876
1538.32, 0.480130
1538.78, 0.480320
1539.24, 0.480636
1539.7, 0.480573
1540.15, 0.480256
1540.61, 0.480446
1541.07, 0.480700
1541.53, 0.480827
1541.98, 0.480700
1542.44, 0.480953
1542.9, 0.481143
1543.36, 0.481397
1543.82, 0.481270
1544.28, 0.481397
1544.74, 0.481524
1545.2, 0.481650
1545.66, 0.481650
1546.12, 0.481967
1546.59, 0.481967
1547.05, 0.482031
1547.51, 0.482094
1547.97, 0.482031
1548.43, 0.482031
1548.9, 0.481967
1549.36, 0.482094
1549.82, 0.482537
1550.29, 0.482791
1550.75, 0.482537
1551.21, 0.482537
1551.68, 0.483108
1552.14, 0.483361
1552.61, 0.483235
1553.07, 0.483235
1553.54, 0.483361
1554.0, 0.483235
1554.47, 0.483298
1554.93, 0.483488
1555.4, 0.483868
1555.87, 0.483868
1556.34, 0.483995
1556.8, 0.484185
1557.27, 0.484248
1557.74, 0.484122
1558.21, 0.484185
1558.68, 0.484312
1559.14, 0.484945
1559.61, 0.485262
1560.08, 0.485389
1560.55, 0.485199
1561.02, 0.485326
1561.49, 0.485516
1561.96, 0.485706
1562.43, 0.485959
1562.9, 0.485896
1563.38, 0.485769
1563.85, 0.486276
1564.32, 0.486403
1564.79, 0.486593
1565.26, 0.486720
1565.74, 0.486846
1566.21, 0.486910
1566.68, 0.487100
1567.16, 0.487353
1567.63, 0.487607
1568.1, 0.487480
1568.58, 0.487670
1569.05, 0.487987
1569.53, 0.488177
1570.0, 0.487860
1570.48, 0.487860
1570.96, 0.488557
1571.43, 0.489001
1571.91, 0.489064
1572.39, 0.489381
1572.86, 0.489381
1573.34, 0.489254
1573.82, 0.489191
1574.3, 0.489444
1574.77, 0.489508
1575.25, 0.489888
1575.73, 0.490268
1576.21, 0.490522
1576.69, 0.490458
1577.17, 0.490522
1577.65, 0.490775
1578.13, 0.491092
1578.61, 0.491092
1579.09, 0.491345
1579.57, 0.491599
1580.05, 0.491916
1580.54, 0.492042
1581.02, 0.492296
1581.5, 0.492549
1581.98, 0.492739
1582.47, 0.492676
1582.95, 0.492930
1583.43, 0.493246
1583.92, 0.493437
1584.4, 0.493500
1584.88, 0.493563
1585.37, 0.493753
1585.85, 0.494007
1586.34, 0.494070
1586.82, 0.494324
1587.31, 0.494831
1587.8, 0.495211
1588.28, 0.495401
1588.77, 0.495528
1589.26, 0.495718
1589.74, 0.495971
1590.23, 0.496098
1590.72, 0.496225
1591.21, 0.496542
1591.7, 0.496668
1592.19, 0.496542
1592.67, 0.496795
1593.16, 0.497048
1593.65, 0.497365
1594.14, 0.497365
1594.63, 0.497555
1595.12, 0.497745
1595.61, 0.497809
1596.11, 0.498316
1596.6, 0.498633
1597.09, 0.498569
1597.58, 0.498443
1598.08, 0.498316
1598.57, 0.498569
1599.06, 0.498696
1599.55, 0.498949
1600.05, 0.499203
1600.54, 0.499393
1601.04, 0.499456
1601.53, 0.499393
1602.03, 0.499520
1602.52, 0.499710
1603.02, 0.500027
1603.51, 0.500344
1604.01, 0.500344
1604.5, 0.500597
1605.0, 0.500724
1605.5, 0.500724
1606.0, 0.500724
1606.49, 0.500914
1606.99, 0.501041
1607.49, 0.501231
1607.99, 0.501357
1608.49, 0.501548
1608.99, 0.501611
1609.49, 0.501801
1609.99, 0.501801
1610.49, 0.501801
1610.99, 0.501928
1611.49, 0.501928
1611.99, 0.501864
1612.49, 0.502181
1612.99, 0.502371
1613.49, 0.502435
1614.0, 0.502498
1614.5, 0.502625
1615.0, 0.502815
1615.51, 0.502942
1616.01, 0.503005
1616.51, 0.503068
1617.02, 0.503258
1617.52, 0.503448
1618.03, 0.503195
1618.53, 0.503322
1619.04, 0.503512
1619.54, 0.503575
1620.05, 0.503702
1620.55, 0.503829
1621.06, 0.503955
1621.57, 0.504146
1622.08, 0.504019
1622.58, 0.504082
1623.09, 0.504082
1623.6, 0.504399
1624.11, 0.504589
1624.62, 0.504653
1625.13, 0.504589
1625.64, 0.504906
1626.15, 0.505159
1626.66, 0.505159
1627.17, 0.505033
1627.68, 0.505096
1628.19, 0.505286
1628.7, 0.505540
1629.21, 0.505666
1629.72, 0.505856
1630.24, 0.505793
1630.75, 0.505920
1631.26, 0.506173
1631.78, 0.506490
1632.29, 0.506427
1632.8, 0.506553
1633.32, 0.506744
1633.83, 0.506997
1634.35, 0.507060
1634.86, 0.507251
1635.38, 0.507441
1635.9, 0.507441
1636.41, 0.507377
1636.93, 0.507441
1637.45, 0.507694
1637.96, 0.508011
1638.48, 0.508201
1639.0, 0.508454
1639.52, 0.508518
1640.04, 0.508581
1640.56, 0.508835
1641.08, 0.509152
1641.59, 0.509088
1642.11, 0.509215
1642.63, 0.509342
1643.16, 0.509595
1643.68, 0.509785
1644.2, 0.509849
1644.72, 0.509785
1645.24, 0.509849
1645.76, 0.510102
1646.29, 0.510546
1646.81, 0.510926
1647.33, 0.511243
1647.86, 0.511369
1648.38, 0.511369
1648.9, 0.511559
1649.43, 0.511876
1649.95, 0.512320
1650.48, 0.512383
1651.0, 0.512320
1651.53, 0.512383
1652.06, 0.512447
1652.58, 0.512510
1653.11, 0.512763
1653.64, 0.513080
1654.17, 0.513334
1654.69, 0.513587
1655.22, 0.513714
1655.75, 0.513714
1656.28, 0.513777
1656.81, 0.514221
1657.34, 0.514348
1657.87, 0.514474
1658.4, 0.514601
1658.93, 0.514791
1659.46, 0.514918
1659.99, 0.515108
1660.52, 0.515108
1661.05, 0.515361
1661.59, 0.515488
1662.12, 0.515742
1662.65, 0.515995
1663.19, 0.516122
1663.72, 0.515995
1664.26, 0.516249
1664.79, 0.516312
1665.32, 0.516755
1665.86, 0.516946
1666.39, 0.517072
1666.93, 0.517072
1667.47, 0.517199
1668.0, 0.517452
1668.54, 0.517579
1669.08, 0.517579
1669.61, 0.517643
1670.15, 0.517706
1670.69, 0.518150
1671.23, 0.518340
1671.77, 0.518340
1672.31, 0.518403
1672.85, 0.518657
1673.39, 0.518720
1673.93, 0.518466
1674.47, 0.518530
1675.01, 0.518973
1675.55, 0.519037
1676.09, 0.519037
1676.64, 0.519037
1677.18, 0.519290
1677.72, 0.519480
1678.26, 0.519670
1678.81, 0.519670
1679.35, 0.519797
1679.89, 0.519734
1680.44, 0.519670
1680.98, 0.519734
1681.53, 0.519860
1682.07, 0.519987
1682.62, 0.519797
1683.17, 0.519797
1683.71, 0.520304
1684.26, 0.520241
1684.81, 0.520177
1685.36, 0.520241
1685.9, 0.520367
1686.45, 0.520494
1687.0, 0.520748
1687.55, 0.520811
1688.1, 0.520874
1688.65, 0.520684
1689.2, 0.520684
1689.75, 0.520684
1690.3, 0.520621
1690.85, 0.520558
1691.41, 0.520874
1691.96, 0.521128
1692.51, 0.521318
1693.06, 0.521318
1693.61, 0.521508
1694.17, 0.521318
1694.72, 0.521445
1695.28, 0.521508
1695.83, 0.521508
1696.39, 0.521571
1696.94, 0.521571
1697.5, 0.521635
1698.05, 0.521508
1698.61, 0.521508
1699.17, 0.521952
1699.72, 0.522078
1700.28, 0.521825
1700.84, 0.521761
1701.4, 0.521888
1701.95, 0.521952
1702.51, 0.522332
1703.07, 0.522395
1703.63, 0.522395
1704.19, 0.522522
1704.75, 0.522522
1705.31, 0.522585
1705.88, 0.522649
1706.44, 0.522458
1707.0, 0.522712
1707.56, 0.522902
1708.12, 0.522965
1708.69, 0.522965
1709.25, 0.523092
1709.81, 0.523346
1710.38, 0.523599
1710.94, 0.523599
1711.51, 0.523536
1712.07, 0.523599
1712.64, 0.523599
1713.2, 0.523916
1713.77, 0.524106
1714.34, 0.524233
1714.9, 0.524423
1715.47, 0.524360
1716.04, 0.524486
1716.61, 0.524866
1717.18, 0.524993
1717.74, 0.524930
1718.31, 0.524993
1718.88, 0.525120
1719.45, 0.525183
1720.02, 0.525373
1720.59, 0.525563
1721.17, 0.525690
1721.74, 0.525817
1722.31, 0.525817
1722.88, 0.525944
1723.45, 0.525944
1724.03, 0.526070
1724.6, 0.526070
1725.18, 0.526007
1725.75, 0.526324
1726.33, 0.526641
1726.9, 0.526704
1727.48, 0.526958
1728.05, 0.527084
1728.63, 0.527148
1729.2, 0.527021
1729.78, 0.526831
1730.36, 0.526894
1730.94, 0.526894
1731.51, 0.526894
1732.09, 0.527274
1732.67, 0.527274
1733.25, 0.527401
1733.83, 0.527528
1734.41, 0.527528
1734.99, 0.527528
1735.57, 0.527781
1736.15, 0.527971
1736.73, 0.527971
1737.32, 0.527908
1737.9, 0.527908
1738.48, 0.527655
1739.07, 0.527465
1739.65, 0.527528
1740.23, 0.527845
1740.82, 0.528035
1741.4, 0.528415
1741.99, 0.528542
1742.57, 0.528478
1743.16, 0.528415
1743.74, 0.528415
1744.33, 0.528288
1744.92, 0.528288
1745.51, 0.528415
1746.09, 0.528542
1746.68, 0.528795
1747.27, 0.528795
1747.86, 0.528542
1748.45, 0.528859
1749.04, 0.528859
1749.63, 0.528668
1750.22, 0.528795
1750.81, 0.529112
1751.4, 0.528985
1751.99, 0.528795
1752.59, 0.528922
1753.18, 0.529175
1753.77, 0.529302
1754.37, 0.529239
1754.96, 0.529175
1755.56, 0.529302
1756.15, 0.529239
1756.74, 0.529429
1757.34, 0.529429
1757.94, 0.529302
1758.53, 0.529302
1759.13, 0.529365
1759.73, 0.529175
1760.32, 0.528922
1760.92, 0.528985
1761.52, 0.529175
1762.12, 0.528922
1762.72, 0.528795
1763.32, 0.528732
1763.92, 0.528732
1764.52, 0.528478
1765.12, 0.528352
1765.72, 0.528288
1766.32, 0.528161
1766.92, 0.528098
1767.53, 0.527908
1768.13, 0.527655
1768.73, 0.527528
1769.34, 0.527338
1769.94, 0.527148
1770.55, 0.526767
1771.15, 0.526577
1771.76, 0.526577
1772.36, 0.526324
1772.97, 0.525944
1773.57, 0.525944
1774.18, 0.525817
1774.79, 0.525627
1775.4, 0.525310
1776.0, 0.525057
1776.61, 0.524866
1777.22, 0.524740
1777.83, 0.524740
1778.44, 0.524486
1779.05, 0.524106
1779.66, 0.523853
1780.27, 0.523536
1780.88, 0.523282
1781.5, 0.522839
1782.11, 0.522649
1782.72, 0.522205
1783.33, 0.522078
1783.95, 0.521888
1784.56, 0.521445
1785.18, 0.521001
1785.79, 0.520494
1786.41, 0.519987
1787.02, 0.519670
1787.64, 0.519290
1788.26, 0.518720
1788.87, 0.518213
1789.49, 0.517959
1790.11, 0.517579
1790.73, 0.517326
1791.35, 0.516946
1791.96, 0.516692
1792.58, 0.516439
1793.21, 0.515995
1793.83, 0.515488
1794.45, 0.515171
1795.07, 0.514918
1795.69, 0.514791
1796.31, 0.514538
1796.93, 0.514221
1797.56, 0.513841
1798.18, 0.513841
1798.8, 0.513714
1799.43, 0.513587
1800.05, 0.513714
1800.68, 0.513777
1801.3, 0.513460
1801.93, 0.513397
1802.56, 0.513397
1803.18, 0.513651
1803.81, 0.513651
1804.44, 0.513904
1805.07, 0.514474
1805.7, 0.514728
1806.33, 0.514791
1806.95, 0.515235
1807.58, 0.515805
1808.22, 0.516312
1808.85, 0.516629
1809.48, 0.517199
1810.11, 0.517579
1810.74, 0.517959
1811.38, 0.518276
1812.01, 0.518720
1812.64, 0.519037
1813.28, 0.519163
1813.91, 0.519354
1814.55, 0.519544
1815.18, 0.519670
1815.82, 0.519607
1816.45, 0.519607
1817.09, 0.519734
1817.73, 0.519480
1818.36, 0.519354
1819.0, 0.519354
1819.64, 0.519100
1820.28, 0.518847
1820.92, 0.518783
1821.56, 0.518593
1822.2, 0.518340
1822.84, 0.517959
1823.48, 0.517959
1824.12, 0.518023
1824.76, 0.517833
1825.41, 0.517959
1826.05, 0.518340
1826.69, 0.518466
1827.34, 0.518657
1827.98, 0.518847
1828.63, 0.519037
1829.27, 0.519417
1829.92, 0.519797
1830.56, 0.520177
1831.21, 0.520748
1831.86, 0.521001
1832.5, 0.521318
1833.15, 0.521761
1833.8, 0.522395
1834.45, 0.522712
1835.1, 0.523029
1835.75, 0.523472
1836.4, 0.523789
1837.05, 0.523726
1837.7, 0.523853
1838.35, 0.523663
1839.01, 0.523472
1839.66, 0.522902
1840.31, 0.522332
1840.96, 0.522078
1841.62, 0.522205
1842.27, 0.522332
1842.93, 0.522902
1843.58, 0.523789
1844.24, 0.524993
1844.9, 0.526134
1845.55, 0.527401
1846.21, 0.528732
1846.87, 0.530063
1847.53, 0.531076
1848.18, 0.531773
1848.84, 0.532280
1849.5, 0.532977
1850.16, 0.533294
1850.82, 0.533674
1851.48, 0.534181
1852.14, 0.534688
1852.81, 0.535005
1853.47, 0.535449
1854.13, 0.535449
1854.8, 0.535575
1855.46, 0.535829
1856.12, 0.536209
1856.79, 0.536399
1857.45, 0.536399
1858.12, 0.536716
1858.79, 0.536906
1859.45, 0.536969
1860.12, 0.536906
1860.79, 0.536843
1861.46, 0.537096
1862.12, 0.537223
1862.79, 0.537286
1863.46, 0.537223
1864.13, 0.537413
1864.8, 0.537476
1865.48, 0.537603
1866.15, 0.537540
1866.82, 0.537603
1867.49, 0.537666
1868.16, 0.537413
1868.84, 0.537350
1869.51, 0.537413
1870.19, 0.537603
1870.86, 0.537983
1871.54, 0.537730
1872.21, 0.537666
1872.89, 0.537793
1873.56, 0.537666
1874.24, 0.537350
1874.92, 0.537476
1875.6, 0.537476
1876.28, 0.537286
1876.96, 0.537223
1877.64, 0.537223
1878.32, 0.537476
1879.0, 0.537476
1879.68, 0.537476
1880.36, 0.537413
1881.04, 0.537350
1881.73, 0.537476
1882.41, 0.537413
1883.09, 0.537286
1883.78, 0.537096
1884.46, 0.537350
1885.15, 0.537350
1885.83, 0.537160
1886.52, 0.537223
1887.21, 0.537350
1887.89, 0.537033
1888.58, 0.536779
1889.27, 0.536653
1889.96, 0.536716
1890.65, 0.536906
1891.34, 0.536843
1892.03, 0.536779
1892.72, 0.536653
1893.41, 0.536399
1894.1, 0.536463
1894.79, 0.536336
1895.49, 0.536209
1896.18, 0.535892
1896.87, 0.535575
1897.57, 0.535449
1898.26, 0.535575
1898.96, 0.535639
1899.65, 0.535575
1900.35, 0.535322
1901.05, 0.535132
1901.74, 0.534942
1902.44, 0.534815
1903.14, 0.534625
1903.84, 0.534308
1904.54, 0.534118
1905.24, 0.534118
1905.94, 0.533991
1906.64, 0.534055
1907.34, 0.533928
1908.04, 0.533548
1908.75, 0.533294
1909.45, 0.533041
1910.15, 0.533104
1910.86, 0.533231
1911.56, 0.533104
1912.27, 0.532851
1912.97, 0.532724
1913.68, 0.532661
1914.39, 0.532470
1915.09, 0.532217
1915.8, 0.532090
1916.51, 0.532090
1917.22, 0.531900
1917.93, 0.531457
1918.64, 0.531330
1919.35, 0.531266
1920.06, 0.531076
1920.77, 0.531330
1921.48, 0.531140
1922.19, 0.530950
1922.91, 0.530886
1923.62, 0.530823
1924.33, 0.530633
1925.05, 0.530189
1925.76, 0.529999
1926.48, 0.529936
1927.19, 0.529809
1927.91, 0.529809
1928.63, 0.529746
1929.35, 0.529492
1930.07, 0.529175
1930.78, 0.528985
1931.5, 0.528732
1932.22, 0.528605
1932.94, 0.528732
1933.66, 0.528542
1934.39, 0.528098
1935.11, 0.527781
1935.83, 0.527591
1936.55, 0.527528
1937.28, 0.527211
1938.0, 0.526831
1938.73, 0.526767
1939.45, 0.526767
1940.18, 0.526451
1940.9, 0.526324
1941.63, 0.526197
1942.36, 0.525944
1943.09, 0.525817
1943.81, 0.525754
1944.54, 0.525500
1945.27, 0.525437
1946.0, 0.525373
1946.73, 0.525310
1947.47, 0.525310
1948.2, 0.525183
1948.93, 0.524930
1949.66, 0.524930
1950.4, 0.524803
1951.13, 0.524803
1951.86, 0.524676
1952.6, 0.524486
1953.34, 0.524233
1954.07, 0.524233
1954.81, 0.524360
1955.55, 0.524486
1956.29, 0.524486
1957.02, 0.524423
1957.76, 0.524296
1958.5, 0.524169
1959.24, 0.524360
1959.98, 0.524740
1960.72, 0.524866
1961.47, 0.525057
1962.21, 0.524866
1962.95, 0.524803
1963.7, 0.524866
1964.44, 0.525183
1965.18, 0.525183
1965.93, 0.525183
1966.67, 0.525437
1967.42, 0.525563
1968.17, 0.525310
1968.92, 0.525310
1969.66, 0.525373
1970.41, 0.525563
1971.16, 0.525563
1971.91, 0.525563
1972.66, 0.525627
1973.41, 0.525563
1974.16, 0.525754
1974.92, 0.525754
1975.67, 0.525437
1976.42, 0.525373
1977.18, 0.525563
1977.93, 0.525627
1978.69, 0.525563
1979.44, 0.525690
1980.2, 0.525500
1980.95, 0.525373
1981.71, 0.525183
1982.47, 0.525373
1983.23, 0.525500
1983.99, 0.525500
1984.74, 0.525373
1985.51, 0.525247
1986.27, 0.525247
1987.03, 0.525120
1987.79, 0.525120
1988.55, 0.525057
1989.32, 0.525057
1990.08, 0.525183
1990.84, 0.524930
1991.61, 0.524866
1992.37, 0.524803
1993.14, 0.524803
1993.9, 0.524550
1994.67, 0.524423
1995.44, 0.524423
1996.21, 0.524360
1996.98, 0.524169
1997.75, 0.524043
1998.52, 0.523979
1999.29, 0.523916
2000.06, 0.523916
2000.83, 0.524043
2001.6, 0.523916
2002.38, 0.523979
2003.15, 0.524233
2003.93, 0.524233
2004.7, 0.523979
2005.48, 0.524169
2006.25, 0.524296
2007.03, 0.524233
2007.81, 0.524106
2008.58, 0.524233
2009.36, 0.524169
2010.14, 0.523916
2010.92, 0.523726
2011.7, 0.523663
2012.48, 0.523599
2013.26, 0.523599
2014.05, 0.523472
2014.83, 0.523472
2015.61, 0.523219
2016.4, 0.522649
2017.18, 0.522142
2017.97, 0.522078
2018.75, 0.522015
2019.54, 0.522015
2020.32, 0.521825
2021.11, 0.521255
2021.9, 0.520748
2022.69, 0.520558
2023.48, 0.520241
2024.27, 0.519860
2025.06, 0.519607
2025.85, 0.519417
2026.64, 0.519037
2027.44, 0.518720
2028.23, 0.518213
2029.02, 0.517896
2029.82, 0.517579
2030.61, 0.517199
2031.41, 0.516882
2032.2, 0.516439
2033.0, 0.516058
2033.8, 0.515805
2034.6, 0.515298
2035.4, 0.514981
2036.2, 0.514664
2037.0, 0.514411
2037.8, 0.513841
2038.6, 0.513207
2039.4, 0.512637
2040.2, 0.512257
2041.01, 0.511813
2041.81, 0.511052
2042.61, 0.510356
2043.42, 0.509975
2044.22, 0.509595
2045.03, 0.508771
2045.84, 0.508074
2046.65, 0.507757
2047.46, 0.506997
2048.26, 0.506237
2049.07, 0.505666
2049.88, 0.504779
2050.69, 0.503955
2051.51, 0.502878
2052.32, 0.501864
2053.13, 0.501041
2053.94, 0.499773
2054.76, 0.498443
2055.57, 0.497175
2056.39, 0.496415
2057.2, 0.495654
2058.02, 0.494831
2058.84, 0.494007
2059.66, 0.493373
2060.48, 0.492930
2061.29, 0.493056
2062.11, 0.492993
2062.94, 0.492866
2063.76, 0.492613
2064.58, 0.492359
2065.4, 0.492296
2066.22, 0.492169
2067.05, 0.491979
2067.87, 0.491852
2068.7, 0.491409
2069.52, 0.490839
2070.35, 0.490142
2071.18, 0.489381
2072.0, 0.488621
2072.83, 0.487860
2073.66, 0.486593
2074.49, 0.485199
2075.32, 0.483678
2076.15, 0.482411
2076.98, 0.481207
2077.82, 0.480383
2078.65, 0.480003
2079.48, 0.479559
2080.32, 0.479306
2081.15, 0.479116
2081.99, 0.478989
2082.83, 0.478482
2083.66, 0.477595
2084.5, 0.476835
2085.34, 0.476074
2086.18, 0.475124
2087.02, 0.474110
2087.86, 0.473096
2088.7, 0.472019
2089.54, 0.471322
2090.39, 0.470625
2091.23, 0.469991
2092.07, 0.469231
2092.92, 0.468977
2093.76, 0.468724
2094.61, 0.468660
2095.45, 0.468724
2096.3, 0.468660
2097.15, 0.468660
2098.0, 0.468787
2098.85, 0.468470
2099.7, 0.468153
2100.55, 0.467710
2101.4, 0.467013
2102.25, 0.466125
2103.1, 0.465112
2103.96, 0.463591
2104.81, 0.462007
2105.67, 0.459979
2106.52, 0.457951
2107.38, 0.455480
2108.24, 0.452628
2109.09, 0.449460
2109.95, 0.446102
2110.81, 0.442807
2111.67, 0.440335
2112.53, 0.439258
2113.39, 0.439511
2114.25, 0.440652
2115.12, 0.442490
2115.98, 0.444581
2116.84, 0.446862
2117.71, 0.449143
2118.58, 0.451044
2119.44, 0.452185
2120.31, 0.452945
2121.18, 0.453325
2122.04, 0.453135
2122.91, 0.452502
2123.78, 0.451741
2124.65, 0.450727
2125.52, 0.449333
2126.4, 0.447496
2127.27, 0.445405
2128.14, 0.443313
2129.02, 0.441222
2129.89, 0.438814
2130.77, 0.435963
2131.64, 0.433175
2132.52, 0.430260
2133.4, 0.427282
2134.27, 0.424113
2135.15, 0.420755
2136.03, 0.417397
2136.91, 0.413975
2137.79, 0.410553
2138.68, 0.407448
2139.56, 0.404470
2140.44, 0.401365
2141.33, 0.398386
2142.21, 0.395598
2143.1, 0.392937
2143.99, 0.390149
2144.87, 0.387424
2145.76, 0.385143
2146.65, 0.383369
2147.54, 0.381531
2148.43, 0.379757
2149.32, 0.377666
2150.21, 0.375955
2151.1, 0.374307
2151.99, 0.372596
2152.89, 0.370759
2153.78, 0.368351
2154.68, 0.365372
2155.57, 0.362267
2156.47, 0.358529
2157.37, 0.353966
2158.27, 0.348454
2159.16, 0.342244
2160.06, 0.335337
2160.96, 0.327986
2161.86, 0.320509
2162.77, 0.313095
2163.67, 0.305681
2164.57, 0.298774
2165.48, 0.292437
2166.38, 0.286988
2167.29, 0.282362
2168.2, 0.278370
2169.1, 0.274441
2170.01, 0.271210
2170.92, 0.268421
2171.83, 0.265950
2172.74, 0.263732
2173.65, 0.261895
2174.56, 0.260057
2175.47, 0.258029
2176.39, 0.256065
2177.3, 0.254164
2178.22, 0.252073
2179.13, 0.250299
2180.05, 0.248841
2180.96, 0.248334
2181.88, 0.248714
2182.8, 0.250615
2183.72, 0.254417
2184.64, 0.260120
2185.56, 0.266901
2186.48, 0.274378
2187.41, 0.282109
2188.33, 0.290156
2189.25, 0.297760
2190.18, 0.304857
2191.1, 0.311321
2192.03, 0.317024
2192.96, 0.321333
2193.89, 0.324881
2194.82, 0.327036
2195.74, 0.327542
2196.68, 0.326592
2197.61, 0.323550
2198.54, 0.317911
2199.47, 0.309990
2200.4, 0.299725
2201.34, 0.287051
2202.28, 0.271843
2203.21, 0.253847
2204.15, 0.233696
2205.08, 0.213673
2206.02, 0.197007
2206.96, 0.188262
2207.9, 0.190670
2208.84, 0.203090
2209.78, 0.220706
2210.73, 0.239526
2211.67, 0.256825
2212.61, 0.271590
2213.56, 0.284010
2214.5, 0.294782
2215.45, 0.304540
2216.4, 0.313285
2217.35, 0.321269
2218.3, 0.329063
2219.24, 0.336984
2220.2, 0.344905
2221.15, 0.352826
2222.1, 0.360747
2223.05, 0.368287
2224.0, 0.375194
2224.96, 0.381468
2225.91, 0.387234
2226.87, 0.392240
2227.83, 0.396739
2228.79, 0.400351
2229.74, 0.403646
2230.7, 0.406497
2231.66, 0.408969
2232.63, 0.410806
2233.59, 0.412454
2234.55, 0.413848
2235.51, 0.414925
2236.48, 0.415559
2237.44, 0.416002
2238.41, 0.416129
2239.38, 0.415749
2240.34, 0.415496
2241.31, 0.414989
2242.28, 0.413848
2243.25, 0.412454
2244.22, 0.410743
2245.19, 0.408905
2246.17, 0.406688
2247.14, 0.404153
2248.12, 0.401872
2249.09, 0.399527
2250.07, 0.397056
2251.04, 0.394901
2252.02, 0.392874
2253.0, 0.391163
2253.98, 0.389135
2254.96, 0.387551
2255.94, 0.386093
2256.92, 0.385143
2257.91, 0.384256
2258.89, 0.383685
2259.88, 0.383685
2260.86, 0.384129
2261.85, 0.385016
2262.83, 0.386220
2263.82, 0.387171
2264.81, 0.387994
2265.8, 0.388755
2266.79, 0.389388
2267.78, 0.389388
2268.78, 0.389262
2269.77, 0.389072
2270.76, 0.388628
2271.76, 0.387931
2272.75, 0.387234
2273.75, 0.386410
2274.75, 0.385333
2275.75, 0.384066
2276.75, 0.382798
2277.75, 0.381404
2278.75, 0.379693
2279.75, 0.377792
2280.75, 0.375828
2281.76, 0.373547
2282.76, 0.371139
2283.77, 0.368351
2284.77, 0.365626
2285.78, 0.363028
2286.79, 0.360303
2287.8, 0.357262
2288.81, 0.353966
2289.82, 0.350798
2290.83, 0.347883
2291.84, 0.344715
2292.86, 0.341737
2293.87, 0.338949
2294.89, 0.336160
2295.91, 0.333626
2296.92, 0.331408
2297.94, 0.329380
2298.96, 0.327796
2299.98, 0.326402
2301.0, 0.325388
2302.02, 0.324628
2303.04, 0.324184
2304.07, 0.323741
2305.09, 0.323677
2306.12, 0.323614
2307.15, 0.323677
2308.17, 0.323614
2309.2, 0.323804
2310.23, 0.324374
2311.26, 0.324944
2312.29, 0.325642
2313.32, 0.326465
2314.35, 0.327352
2315.39, 0.328240
2316.42, 0.329317
2317.46, 0.330521
2318.5, 0.331281
2319.53, 0.331725
2320.57, 0.331725
2321.61, 0.331661
2322.65, 0.331218
2323.69, 0.330964
2324.73, 0.330457
2325.78, 0.329887
2326.82, 0.329317
2327.86, 0.329127
2328.91, 0.329190
2329.96, 0.329444
2331.01, 0.329824
2332.05, 0.330394
2333.1, 0.330711
2334.15, 0.330647
2335.21, 0.330584
2336.26, 0.330204
2337.31, 0.329063
2338.36, 0.327416
2339.42, 0.325515
2340.48, 0.323360
2341.53, 0.320699
2342.59, 0.317784
2343.65, 0.314742
2344.71, 0.311954
2345.77, 0.309039
2346.83, 0.306315
2347.9, 0.303717
2348.96, 0.301435
2350.02, 0.299471
2351.09, 0.297824
2352.16, 0.296176
2353.23, 0.295035
2354.29, 0.294465
2355.36, 0.294338
2356.43, 0.294655
2357.51, 0.295923
2358.58, 0.297633
2359.65, 0.299408
2360.73, 0.301055
2361.8, 0.302513
2362.88, 0.303273
2363.96, 0.303717
2365.03, 0.303463
2366.11, 0.302513
2367.19, 0.300738
2368.27, 0.298521
2369.36, 0.295669
2370.44, 0.292374
2371.53, 0.289016
2372.61, 0.285467
2373.7, 0.282235
2374.78, 0.279320
2375.87, 0.276786
2376.96, 0.274441
2378.05, 0.272223
2379.14, 0.270196
2380.24, 0.268295
2381.33, 0.266584
2382.42, 0.265316
2383.52, 0.265190
2384.61, 0.266077
2385.71, 0.267534
2386.81, 0.269309
2387.91, 0.271146
2389.01, 0.272984
2390.11, 0.274695
2391.22, 0.276089
2392.32, 0.277610
2393.42, 0.279511
2394.53, 0.281792
2395.64, 0.284453
2396.74, 0.287241
2397.85, 0.290220
2398.96, 0.292944
2400.07, 0.295162
2401.18, 0.296936
2402.3, 0.298267
2403.41, 0.299408
2404.52, 0.300168
2405.64, 0.300802
2406.76, 0.301245
2407.88, 0.301499
2408.99, 0.301626
2410.11, 0.301626
2411.23, 0.301626
2412.36, 0.301499
2413.48, 0.301309
2414.6, 0.301245
2415.73, 0.301119
2416.85, 0.301119
2417.98, 0.301055
2419.11, 0.300928
2420.24, 0.300548
2421.37, 0.300168
2422.5, 0.299725
2423.64, 0.299028
2424.77, 0.298077
2425.9, 0.297000
2427.04, 0.295669
2428.18, 0.294085
2429.31, 0.292437
2430.45, 0.290600
2431.59, 0.288255
2432.73, 0.285784
2433.88, 0.282996
2435.02, 0.280334
2436.16, 0.277546
2437.31, 0.275138
2438.45, 0.273491
2439.6, 0.272667
2440.75, 0.271970
2441.9, 0.271653
2443.05, 0.271463
2444.2, 0.271463
2445.35, 0.271526
2446.51, 0.271653
2447.67, 0.271907
2448.82, 0.272287
2449.98, 0.272604
2451.14, 0.272857
2452.3, 0.272920
2453.46, 0.273047
2454.62, 0.272857
2455.78, 0.272350
2456.94, 0.271970
2458.11, 0.271716
2459.28, 0.271526
2460.44, 0.271210
2461.61, 0.270829
2462.78, 0.270322
2463.95, 0.269562
2465.12, 0.268865
2466.3, 0.268231
2467.47, 0.267408
2468.65, 0.266457
2469.82, 0.265633
2471.0, 0.264366
2472.18, 0.263162
2473.36, 0.261895
2474.54, 0.260437
2475.72, 0.258726
2476.9, 0.256889
2478.08, 0.254988
2479.27, 0.252833
2480.46, 0.250425
2481.64, 0.247764
2482.83, 0.245102
2484.02, 0.242441
2485.21, 0.239970
2486.4, 0.238386
2487.6, 0.238069
2488.79, 0.239083
2489.99, 0.240477
2491.18, 0.241871
2492.38, 0.242948
2493.58, 0.243772
2494.78, 0.244405
2495.98, 0.244722
2497.18, 0.244532
2498.39, 0.244215
2499.59, 0.243582
2500.8, 0.242758
2502.01, 0.241744
2503.21, 0.240730
2504.42, 0.239590
2505.63, 0.238322
2506.84, 0.236738
2508.06, 0.235154
2509.27, 0.233760
2510.49, 0.232492
2511.7, 0.230845
2512.92, 0.229197
2514.14, 0.227550
2515.36, 0.226092
2516.58, 0.224572
2517.8, 0.222987
2519.03, 0.221277
2520.25, 0.219946
2521.48, 0.218552
2522.7, 0.217411
2523.93, 0.216397
2525.16, 0.215320
2526.39, 0.213989
2527.62, 0.212976
2528.86, 0.212088
2530.09, 0.211645
2531.33, 0.211265
2532.56, 0.211011
2533.8, 0.210631
2535.04, 0.210187
2536.28, 0.209364
2537.52, 0.208476
2538.76, 0.208033
2540.01, 0.208096
2541.25, 0.208793
2542.5, 0.209871
2543.75, 0.211011
2544.99, 0.212025
2546.24, 0.212785
2547.49, 0.213166
2548.75, 0.212785
2550.0, 0.212088
2551.26, 0.210948
2552.51, 0.209237
2553.77, 0.206449
2555.03, 0.203027
2556.29, 0.199035
2557.55, 0.194536
2558.81, 0.189720
2560.08, 0.185158
2561.34, 0.180468
2562.61, 0.175969
2563.88, 0.171851
2565.14, 0.167922
2566.41, 0.164247
2567.68, 0.161458
2568.96, 0.159177
2570.23, 0.156833
2571.51, 0.154678
2572.78, 0.153474
2574.06, 0.152017
2575.34, 0.150496
2576.62, 0.149102
2577.9, 0.147391
2579.18, 0.145553
2580.47, 0.143842
2581.75, 0.142068
2583.04, 0.140484
2584.32, 0.138710
2585.61, 0.136999
2586.9, 0.135605
2588.2, 0.134528
2589.49, 0.133767
2590.78, 0.133387
2592.08, 0.133514
2593.37, 0.134464
2594.67, 0.135668
2595.97, 0.135922
2597.27, 0.136112
2598.57, 0.136745
2599.88, 0.137506
2601.18, 0.138330
2602.49, 0.138963
2603.79, 0.139724
2605.1, 0.140294
2606.41, 0.140357
2607.72, 0.140357
2609.03, 0.140547
2610.35, 0.140674
2611.66, 0.140547
2612.98, 0.140484
2614.3, 0.140104
2615.62, 0.139660
2616.94, 0.139280
2618.26, 0.138266
2619.58, 0.137569
2620.91, 0.136429
2622.23, 0.134781
2623.56, 0.133514
2624.89, 0.132500
2626.22, 0.131359
2627.55, 0.129648
2628.88, 0.128064
2630.21, 0.126797
2631.55, 0.124832
2632.89, 0.123058
2634.22, 0.121474
2635.56, 0.119763
2636.9, 0.118432
2638.25, 0.117355
2639.59, 0.116278
2640.93, 0.115201
2642.28, 0.114123
2643.63, 0.112919
2644.98, 0.111589
2646.33, 0.110195
2647.68, 0.108737
2649.03, 0.107407
2650.39, 0.105886
2651.74, 0.104428
2653.1, 0.102781
2654.46, 0.101007
2655.82, 0.0991060
2657.18, 0.0970140
2658.54, 0.0949870
2659.9, 0.0928960
2661.27, 0.0904880
2662.64, 0.0880800
2664.01, 0.0859250
2665.38, 0.0833270
2666.74, 0.0802860
2668.12, 0.0771170
2669.49, 0.0743930
2670.87, 0.0713510
2672.24, 0.0678020
2673.62, 0.0645710
2675.0, 0.0612760
2676.38, 0.0579170
2677.76, 0.0541150
2679.15, 0.0502500
2680.54, 0.0462580
2681.92, 0.0423290
2683.31, 0.0384640
2684.7, 0.0345980
2686.09, 0.0308600
2687.48, 0.0273740
2688.88, 0.0241430
2690.27, 0.0217350
2691.67, 0.0200870
2693.07, 0.0189470
2694.47, 0.0184400
2695.87, 0.0186930
2697.27, 0.0192000
2698.67, 0.0199610
2700.08, 0.0207840
2701.49, 0.0215450
2702.9, 0.0221780
2704.31, 0.0229390
2705.72, 0.0235720
2707.13, 0.0242690
2708.54, 0.0249030
2709.96, 0.0260440
2711.38, 0.0271840
2712.8, 0.0281350
2714.22, 0.0291490
2715.64, 0.0301630
2717.06, 0.0311760
2718.49, 0.0318730
2719.91, 0.0321270
2721.34, 0.0316830
2722.77, 0.0307330
2724.2, 0.0294020
2725.63, 0.0275650
2727.07, 0.0257270
2728.5, 0.0236990
2729.94, 0.0219250
2731.38, 0.0205940
2732.82, 0.0204040
2734.26, 0.0214180
2735.7, 0.0234460
2737.15, 0.0256640
2738.59, 0.0282620
2740.04, 0.0305430
2741.49, 0.0319370
2742.94, 0.0321270
2744.39, 0.0313670
2745.84, 0.0295290
2747.3, 0.0271840
2748.76, 0.0247760
2750.21, 0.0226850
2751.67, 0.0207210
2753.14, 0.0190730
2754.6, 0.0175530
2756.06, 0.0167290
2757.53, 0.0172360
2759.0, 0.0210380
2760.46, 0.0250930
2761.94, 0.0252200
2763.41, 0.0238260
2764.88, 0.0236990
2766.36, 0.0245860
2767.83, 0.0262340
2769.31, 0.0285780
2770.79, 0.0314300
2772.27, 0.0345980
2773.76, 0.0379570
2775.24, 0.0412520
2776.73, 0.0442930
2778.22, 0.0473980
2779.71, 0.0512000
2781.2, 0.0546220
2782.69, 0.0578540
2784.18, 0.0607050
2785.68, 0.0634930
2787.18, 0.0660280
2788.68, 0.0682460
2790.18, 0.0703370
2791.68, 0.0724920
2793.19, 0.0743930
2794.69, 0.0761030
2796.2, 0.0776240
2797.71, 0.0791450
2799.22, 0.0805390
2800.73, 0.0819330
2802.24, 0.0833270
2803.76, 0.0843410
2805.28, 0.0849750
2806.8, 0.0855450
2808.32, 0.0859890
2809.84, 0.0863050
2811.36, 0.0867490
2812.89, 0.0878900
2814.42, 0.0892200
2815.94, 0.0905510
2817.48, 0.0918820
2819.01, 0.0932760
2820.54, 0.0945430
2822.08, 0.0958100
2823.61, 0.0970780
2825.15, 0.0984080
2826.69, 0.0996760
2828.23, 0.100943
2829.78, 0.102020
2831.32, 0.103161
2832.87, 0.104365
2834.42, 0.105696
2835.97, 0.106646
2837.52, 0.107597
2839.08, 0.108674
2840.63, 0.109941
2842.19, 0.110955
2843.75, 0.111779
2845.31, 0.112603
2846.87, 0.113426
2848.44, 0.114060
2850.0, 0.114820
2851.57, 0.115454
2853.14, 0.116278
2854.71, 0.117165
2856.28, 0.118116
2857.86, 0.119193
2859.43, 0.120460
2861.01, 0.121664
2862.59, 0.122678
2864.17, 0.123248
2865.76, 0.123882
2867.34, 0.124452
2868.93, 0.125086
2870.52, 0.125593
2872.11, 0.126163
2873.7, 0.126607
2875.29, 0.127177
2876.89, 0.128001
2878.49, 0.128571
2880.08, 0.128951
2881.69, 0.129522
2883.29, 0.130092
2884.89, 0.130599
2886.5, 0.131106
2888.11, 0.131676
2889.72, 0.132056
2891.33, 0.132627
2892.94, 0.133324
2894.56, 0.134591
2896.17, 0.136175
2897.79, 0.138393
2899.42, 0.141118
2901.04, 0.144159
2902.66, 0.146884
2904.29, 0.149672
2905.92, 0.152017
2907.55, 0.153664
2909.18, 0.154868
2910.81, 0.157086
2912.45, 0.160318
2914.08, 0.164183
2915.72, 0.167795
2917.36, 0.170710
2919.01, 0.173308
2920.65, 0.176286
2922.3, 0.179391
2923.94, 0.182623
2925.59, 0.185918
2927.25, 0.189150
2928.9, 0.191874
2930.56, 0.194409
2932.21, 0.196437
2933.87, 0.197894
2935.53, 0.198908
2937.2, 0.199605
2938.86, 0.200049
2940.53, 0.200492
2942.2, 0.200556
2943.87, 0.200746
2945.54, 0.201126
2947.22, 0.201570
2948.89, 0.201886
2950.57, 0.202393
2952.25, 0.203280
2953.93, 0.204294
2955.62, 0.205181
2957.3, 0.206195
2958.99, 0.207082
2960.68, 0.208033
2962.37, 0.209300
2964.07, 0.210948
2965.76, 0.212659
2967.46, 0.214433
2969.16, 0.215954
2970.86, 0.217601
2972.56, 0.218995
2974.27, 0.220326
2975.98, 0.221720
2977.69, 0.223684
2979.4, 0.225776
2981.11, 0.227993
2982.83, 0.230211
2984.54, 0.232112
2986.26, 0.233823
2987.98, 0.235661
2989.71, 0.237689
2991.43, 0.239653
2993.16, 0.241617
2994.89, 0.243708
2996.62, 0.245546
2998.35, 0.247257
3000.09, 0.248714
3001.83, 0.249728
3003.57, 0.250299
3005.31, 0.250932
3007.05, 0.251439
3008.79, 0.251756
3010.54, 0.251883
3012.29, 0.251693
3014.04, 0.250996
3015.8, 0.250362
3017.55, 0.249982
3019.31, 0.250299
3021.07, 0.251059
3022.83, 0.252643
3024.59, 0.254544
3026.36, 0.256445
3028.13, 0.257649
3029.9, 0.258346
3031.67, 0.258473
3033.44, 0.258726
3035.22, 0.259233
3037.0, 0.260310
3038.78, 0.261768
3040.56, 0.263162
3042.34, 0.264366
3044.13, 0.265633
3045.92, 0.266774
3047.71, 0.267914
3049.5, 0.269055
3051.3, 0.270259
3053.09, 0.271526
3054.89, 0.272604
3056.69, 0.273491
3058.5, 0.274441
3060.3, 0.275455
3062.11, 0.276469
3063.92, 0.277356
3065.73, 0.278053
3067.55, 0.278560
3069.36, 0.279320
3071.18, 0.279637
3073.0, 0.279764
3074.82, 0.279827
3076.65, 0.279891
3078.48, 0.279574
3080.31, 0.279447
3082.14, 0.279574
3083.97, 0.279701
3085.8, 0.279574
3087.64, 0.279574
3089.48, 0.279764
3091.33, 0.280334
3093.17, 0.280778
3095.02, 0.281412
3096.87, 0.282362
3098.72, 0.283883
3100.57, 0.285720
3102.43, 0.288002
3104.28, 0.290156
3106.14, 0.292374
3108.01, 0.294402
3109.87, 0.296176
3111.74, 0.297697
3113.61, 0.299154
3115.48, 0.300485
3117.35, 0.301626
3119.23, 0.302703
3121.1, 0.303843
3122.98, 0.304731
3124.87, 0.305681
3126.75, 0.306758
3128.64, 0.307835
3130.53, 0.309103
3132.42, 0.310624
3134.31, 0.312018
3136.21, 0.313475
3138.11, 0.314869
3140.01, 0.316390
3141.91, 0.317974
3143.82, 0.319495
3145.73, 0.320952
3147.64, 0.322473
3149.55, 0.324057
3151.46, 0.325642
3153.38, 0.326845
3155.3, 0.328176
3157.22, 0.329444
3159.14, 0.330521
3161.07, 0.331345
3163.0, 0.332168
3164.93, 0.333055
3166.86, 0.334069
3168.8, 0.335083
3170.74, 0.336097
3172.68, 0.337174
3174.62, 0.338315
3176.56, 0.339202
3178.51, 0.340026
3180.46, 0.340850
3182.42, 0.341800
3184.37, 0.342687
3186.33, 0.343511
3188.29, 0.344018
3190.25, 0.344461
3192.21, 0.344842
3194.18, 0.345222
3196.15, 0.345729
3198.12, 0.346236
3200.09, 0.346616
3202.07, 0.347186
3204.05, 0.347630
3206.03, 0.348263
3208.02, 0.348834
3210.0, 0.349404
3211.99, 0.349848
3213.98, 0.350608
3215.98, 0.351178
3217.97, 0.351812
3219.97, 0.352572
3221.97, 0.353460
3223.98, 0.353840
3225.98, 0.354283
3227.99, 0.354727
3230.0, 0.355170
3232.02, 0.355551
3234.03, 0.355677
3236.05, 0.355804
3238.07, 0.355931
3240.1, 0.355741
3242.12, 0.355931
3244.15, 0.356121
3246.18, 0.356184
3248.22, 0.356184
3250.25, 0.356374
3252.29, 0.356311
3254.33, 0.356501
3256.38, 0.356691
3258.43, 0.357325
3260.47, 0.357959
3262.53, 0.358656
3264.58, 0.359289
3266.64, 0.359923
3268.7, 0.360683
3270.76, 0.361444
3272.82, 0.362014
3274.89, 0.362965
3276.96, 0.363915
3279.04, 0.364739
3281.11, 0.365563
3283.19, 0.366513
3285.27, 0.367527
3287.35, 0.368604
3289.44, 0.369428
3291.53, 0.370505
3293.62, 0.371709
3295.71, 0.372723
3297.81, 0.373610
3299.91, 0.374624
3302.01, 0.375638
3304.11, 0.376525
3306.22, 0.377222
3308.33, 0.377792
3310.44, 0.378299
3312.56, 0.378806
3314.68, 0.379123
3316.8, 0.379440
3318.92, 0.379947
3321.05, 0.380517
3323.18, 0.380897
3325.31, 0.381531
3327.44, 0.382165
3329.58, 0.382798
3331.72, 0.383622
3333.86, 0.384509
3336.01, 0.385143
3338.16, 0.385840
3340.31, 0.386474
3342.46, 0.387107
3344.61, 0.387741
3346.77, 0.388438
3348.94, 0.388755
3351.1, 0.389135
3353.27, 0.389642
3355.44, 0.390085
3357.61, 0.390339
3359.79, 0.390529
3361.97, 0.390656
3364.15, 0.390656
3366.33, 0.390466
3368.52, 0.390212
3370.71, 0.390085
3372.9, 0.390212
3375.1, 0.390402
3377.3, 0.390846
3379.5, 0.391543
3381.71, 0.392493
3383.91, 0.393317
3386.12, 0.394078
3388.34, 0.394394
3390.55, 0.394648
3392.77, 0.394711
3394.99, 0.394648
3397.22, 0.394331
3399.45, 0.393697
3401.68, 0.392937
3403.91, 0.392303
3406.15, 0.391480
3408.39, 0.390719
3410.63, 0.390022
3412.87, 0.389515
3415.12, 0.389262
3417.37, 0.389642
3419.63, 0.390529
3421.88, 0.391860
3424.14, 0.393317
3426.41, 0.394838
3428.67, 0.396485
3430.94, 0.398133
3433.21, 0.399527
3435.49, 0.400478
3437.77, 0.401238
3440.05, 0.402189
3442.33, 0.403076
3444.62, 0.403836
3446.91, 0.404533
3449.2, 0.405357
3451.5, 0.406117
3453.8, 0.406941
3456.1, 0.407701
3458.41, 0.408462
3460.72, 0.409032
3463.03, 0.409666
3465.34, 0.410299
3467.66, 0.410806
3469.98, 0.410933
3472.31, 0.411250
3474.63, 0.411630
3476.96, 0.412264
3479.3, 0.412834
3481.64, 0.413404
3483.97, 0.413658
3486.32, 0.413785
3488.66, 0.413848
3491.01, 0.413595
3493.36, 0.413214
3495.72, 0.412834
3498.08, 0.412454
3500.44, 0.412454
3502.81, 0.412834
3505.18, 0.413595
3507.55, 0.414672
3509.92, 0.416129
3512.3, 0.417333
3514.68, 0.418220
3517.06, 0.418791
3519.45, 0.418981
3521.84, 0.418917
3524.24, 0.418664
3526.64, 0.418094
3529.04, 0.417460
3531.44, 0.416636
3533.85, 0.415812
3536.26, 0.414925
3538.67, 0.414292
3541.09, 0.413848
3543.51, 0.413785
3545.93, 0.413911
3548.36, 0.414545
3550.79, 0.415496
3553.22, 0.416763
3555.66, 0.418094
3558.1, 0.419551
3560.54, 0.420945
3562.99, 0.422656
3565.44, 0.424240
3567.9, 0.425888
3570.35, 0.427345
3572.81, 0.428803
3575.28, 0.430197
3577.75, 0.431527
3580.22, 0.432351
3582.69, 0.433238
3585.17, 0.433999
3587.65, 0.434886
3590.14, 0.435456
3592.62, 0.435900
3595.11, 0.436280
3597.61, 0.436787
3600.11, 0.437167
3602.61, 0.437420
3605.11, 0.437547
3607.62, 0.437737
3610.14, 0.437801
3612.65, 0.437864
3615.17, 0.437547
3617.69, 0.437230
3620.22, 0.436787
3622.75, 0.436153
3625.28, 0.435519
3627.82, 0.435139
3630.36, 0.434759
3632.9, 0.434442
3635.45, 0.434379
3638.0, 0.434506
3640.56, 0.434569
3643.12, 0.434822
3645.68, 0.434949
3648.24, 0.434886
3650.81, 0.434442
3653.39, 0.433618
3655.96, 0.432414
3658.54, 0.431971
3661.13, 0.432795
3663.71, 0.434252
3666.3, 0.435519
3668.9, 0.436216
3671.5, 0.436280
3674.1, 0.435836
3676.7, 0.434759
3679.31, 0.432985
3681.93, 0.430133
3684.54, 0.426014
3687.17, 0.420438
3689.79, 0.414228
3692.42, 0.408272
3695.05, 0.404280
3697.69, 0.403963
3700.32, 0.408018
3702.97, 0.414925
3705.61, 0.422212
3708.27, 0.428296
3710.92, 0.432668
3713.58, 0.434062
3716.24, 0.431844
3718.91, 0.425761
3721.58, 0.421832
3724.25, 0.424240
3726.93, 0.427028
3729.61, 0.424810
3732.29, 0.422022
3734.98, 0.423733
3737.67, 0.425254
3740.37, 0.423797
3743.07, 0.430767
3745.78, 0.439448
3748.49, 0.442426
3751.2, 0.443250
3753.91, 0.443440
3756.63, 0.443694
3759.36, 0.443884
3762.09, 0.444137
3764.82, 0.444581
3767.55, 0.445151
3770.29, 0.445468
3773.04, 0.445975
3775.78, 0.446609
3778.54, 0.447242
3781.29, 0.447813
3784.05, 0.448446
3786.82, 0.449143
3789.59, 0.449967
3792.36, 0.450981
3795.13, 0.451805
3797.92, 0.452628
3800.7, 0.453516
3803.49, 0.454466
3806.28, 0.455417
3809.08, 0.456114
3811.88, 0.456874
3814.68, 0.457761
3817.49, 0.458205
3820.31, 0.458838
3823.12, 0.459535
3825.94, 0.459916
3828.77, 0.460106
3831.6, 0.460486
3834.43, 0.460803
3837.27, 0.461310
3840.11, 0.461563
3842.96, 0.461690
3845.81, 0.462070
3848.67, 0.462577
3851.53, 0.462894
3854.39, 0.463084
3857.26, 0.463274
3860.13, 0.463718
3863.01, 0.463844
3865.89, 0.464034
3868.77, 0.464225
3871.66, 0.464351
3874.55, 0.464161
3877.45, 0.463971
3880.35, 0.464098
3883.26, 0.464415
3886.17, 0.464351
3889.09, 0.464541
3892.01, 0.464795
3894.93, 0.464922
3897.86, 0.464858
3900.79, 0.464858
3903.73, 0.464795
3906.67, 0.464541
3909.62, 0.464478
3912.57, 0.464795
3915.52, 0.464605
3918.48, 0.464605
3921.45, 0.464605
3924.42, 0.464541
3927.39, 0.464288
3930.37, 0.464288
3933.35, 0.464288
3936.34, 0.464161
3939.33, 0.464225
3942.32, 0.464161
3945.32, 0.463781
3948.33, 0.463401
3951.34, 0.462894
3954.35, 0.463021
3957.37, 0.463337
3960.39, 0.463021
3963.42, 0.462830
3966.45, 0.462957
3969.49, 0.462577
3972.53, 0.462324
3975.58, 0.462197
3978.63, 0.462070
3981.68, 0.461943
3984.75, 0.461753
3987.81, 0.461563
3990.88, 0.461183
3993.95, 0.461120
3997.03, 0.461120
4000.12, 0.460803
4003.21, 0.460549
4006.3, 0.460169
4009.4, 0.459852
4012.5, 0.459472
4015.61, 0.459345
4018.72, 0.459155
4021.84, 0.458902
4024.96, 0.458775
4028.09, 0.458458
4031.22, 0.458015
4034.36, 0.458078
4037.5, 0.457888
4040.65, 0.457571
4043.8, 0.457444
4046.96, 0.457508
4050.12, 0.457444
4053.29, 0.457254
4056.46, 0.457191
4059.64, 0.457318
4062.82, 0.457318
4066.0, 0.457508
4069.19, 0.457508
4072.39, 0.457318
4075.59, 0.457064
4078.8, 0.457127
4082.01, 0.457254
4085.23, 0.457127
4088.45, 0.457064
4091.68, 0.457254
4094.91, 0.457254
4098.15, 0.457381
4101.39, 0.457508
4104.63, 0.457571
4107.89, 0.457444
4111.14, 0.457381
4114.41, 0.457634
4117.67, 0.457761
4120.95, 0.457571
4124.23, 0.457444
4127.51, 0.457444
4130.8, 0.457508
4134.09, 0.457634
4137.39, 0.457824
4140.7, 0.457698
4144.01, 0.457761
4147.32, 0.457571
4150.64, 0.457381
4153.97, 0.457444
4157.3, 0.457761
4160.64, 0.457698
4163.98, 0.457381
4167.33, 0.457191
4170.68, 0.457318
4174.04, 0.457318
4177.4, 0.457254
4180.77, 0.457191
4184.14, 0.457191
4187.52, 0.457127
4190.91, 0.457318
4194.3, 0.457318
4197.69, 0.457318
4201.1, 0.457191
4204.5, 0.457001
4207.92, 0.457001
4211.34, 0.457318
4214.76, 0.457254
4218.19, 0.457127
4221.62, 0.457318
4225.06, 0.457444
4228.51, 0.457191
4231.96, 0.457064
4235.42, 0.457001
4238.88, 0.456874
4242.35, 0.456367
4245.83, 0.455987
4249.31, 0.455607
4252.79, 0.455353
4256.28, 0.454719
4259.78, 0.454593
4263.29, 0.454593
4266.79, 0.454213
4270.31, 0.453769
4273.83, 0.453769
4277.35, 0.453516
4280.89, 0.453135
4284.42, 0.452565
4287.97, 0.452058
4291.52, 0.451234
4295.07, 0.450474
4298.63, 0.449714
4302.2, 0.449207
4305.78, 0.448193
4309.35, 0.446925
4312.94, 0.445975
4316.53, 0.445341
4320.13, 0.444581
4323.73, 0.443820
4327.34, 0.442933
4330.96, 0.442110
4334.58, 0.441096
4338.21, 0.440399
4341.84, 0.439575
4345.48, 0.438941
4349.12, 0.438561
4352.77, 0.438434
4356.43, 0.437991
4360.1, 0.437927
4363.76, 0.437864
4367.44, 0.437737
4371.12, 0.437357
4374.81, 0.437230
4378.51, 0.437040
4382.21, 0.436470
4385.92, 0.435773
4389.63, 0.435076
4393.35, 0.434252
4397.08, 0.433428
4400.81, 0.432541
4404.55, 0.431908
4408.29, 0.431274
4412.04, 0.431020
4415.8, 0.430577
4419.57, 0.430450
4423.34, 0.430704
4427.12, 0.430577
4430.9, 0.429943
4434.69, 0.429753
4438.49, 0.429626
4442.29, 0.429373
4446.1, 0.428929
4449.92, 0.428359
4453.74, 0.427092
4457.57, 0.425761
4461.41, 0.424113
4465.25, 0.422149
4469.1, 0.419804
4472.95, 0.417523
4476.82, 0.414862
4480.69, 0.412707
4484.56, 0.410996
4488.44, 0.409286
4492.33, 0.407575
4496.23, 0.406054
4500.13, 0.404850
4504.04, 0.404280
4507.96, 0.403519
4511.88, 0.402759
4515.81, 0.402379
4519.75, 0.402569
4523.69, 0.402315
4527.65, 0.402759
4531.6, 0.403012
4535.57, 0.403456
4539.54, 0.403773
4543.52, 0.404026
4547.5, 0.403583
4551.5, 0.402759
4555.5, 0.401682
4559.5, 0.400604
4563.52, 0.399210
4567.54, 0.397626
4571.56, 0.395788
4575.6, 0.394014
4579.64, 0.391986
4583.69, 0.389895
4587.75, 0.387297
4591.81, 0.384699
4595.88, 0.381848
4599.96, 0.378996
4604.04, 0.375765
4608.14, 0.372153
4612.24, 0.367970
4616.34, 0.363978
4620.46, 0.359860
4624.58, 0.355107
4628.71, 0.349911
4632.84, 0.345349
4636.99, 0.340913
4641.14, 0.336351
4645.3, 0.332358
4649.47, 0.329317
4653.64, 0.326909
4657.82, 0.325135
4662.01, 0.324311
4666.21, 0.323867
4670.41, 0.323487
4674.62, 0.323677
4678.84, 0.323424
4683.07, 0.323487
4687.3, 0.323614
4691.54, 0.323741
4695.79, 0.323867
4700.05, 0.324564
4704.31, 0.325071
4708.59, 0.325642
4712.87, 0.326085
4717.15, 0.326592
4721.45, 0.326212
4725.76, 0.326022
4730.07, 0.325578
4734.39, 0.325705
4738.72, 0.325642
4743.05, 0.325261
4747.39, 0.324501
4751.75, 0.323550
4756.1, 0.322790
4760.47, 0.321776
4764.85, 0.320002
4769.23, 0.318861
4773.62, 0.317467
4778.02, 0.315186
4782.43, 0.312905
4786.85, 0.310940
4791.27, 0.308723
4795.7, 0.306251
4800.14, 0.302449
4804.59, 0.299851
4809.05, 0.297633
4813.51, 0.295986
4817.99, 0.293705
4822.47, 0.292311
4826.96, 0.291107
4831.46, 0.289459
4835.96, 0.287431
4840.48, 0.285657
4845.0, 0.284010
4849.54, 0.282299
4854.08, 0.279764
4858.63, 0.278243
4863.18, 0.276152
4867.75, 0.273364
4872.33, 0.270132
4876.91, 0.267408
4881.5, 0.264683
4886.1, 0.262402
4890.71, 0.260310
4895.33, 0.258093
4899.96, 0.255875
4904.59, 0.254671
4909.24, 0.253023
4913.89, 0.251946
4918.55, 0.250108
4923.22, 0.248271
4927.9, 0.246306
4932.59, 0.244152
4937.29, 0.241554
4942.0, 0.239019
4946.71, 0.236168
4951.44, 0.234013
4956.17, 0.230972
4960.91, 0.228120
4965.67, 0.225142
4970.43, 0.222037
4975.2, 0.218172
4979.98, 0.213799
4984.76, 0.209680
4989.56, 0.205498
4994.37, 0.201506
4999.18, 0.197894
5004.01, 0.193649
5008.84, 0.190227
5013.69, 0.186995
5018.54, 0.184017
5023.4, 0.180088
5028.28, 0.176286
5033.16, 0.172104
5038.05, 0.167288
5042.95, 0.162662
5047.86, 0.158860
5052.78, 0.155375
5057.71, 0.151827
5062.65, 0.147454
5067.6, 0.143589
5072.56, 0.139977
5077.53, 0.137252
5082.5, 0.134021
5087.49, 0.130916
5092.49, 0.127621
5097.5, 0.124769
5102.51, 0.122108
5107.54, 0.120333
5112.58, 0.118432
5117.62, 0.117038
5122.68, 0.115518
5127.75, 0.114567
5132.82, 0.113490
5137.91, 0.113173
5143.01, 0.112603
5148.12, 0.111716
5153.23, 0.110638
5158.36, 0.110258
5163.5, 0.109751
5168.65, 0.108864
5173.81, 0.107787
5178.98, 0.107597
5184.15, 0.107660
5189.34, 0.108230
5194.54, 0.108674
5199.75, 0.109878
5204.98, 0.110575
5210.21, 0.111716
5215.45, 0.113110
5220.7, 0.114377
5225.96, 0.115011
5231.23, 0.116975
5236.52, 0.119066
5241.81, 0.121030
5247.12, 0.122171
5252.44, 0.123819
5257.76, 0.125466
5263.1, 0.127050
5268.45, 0.128318
5273.81, 0.130345
5279.18, 0.131359
5284.56, 0.132373
5289.95, 0.132817
5295.36, 0.132817
5300.77, 0.132627
5306.2, 0.132690
5311.63, 0.131549
5317.08, 0.131549
5322.54, 0.130409
5328.01, 0.128951
5333.49, 0.128381
5338.98, 0.128001
5344.49, 0.127240
5350.0, 0.126924
5355.53, 0.126163
5361.07, 0.125213
5366.62, 0.123438
5372.18, 0.121854
5377.75, 0.120777
5383.34, 0.119636
5388.93, 0.117735
5394.54, 0.116595
5400.16, 0.115201
5405.79, 0.113743
5411.44, 0.111335
5417.09, 0.109244
5422.76, 0.107407
5428.43, 0.105379
5434.12, 0.103034
5439.83, 0.100436
5445.54, 0.0971410
5451.26, 0.0939090
5457.0, 0.0906780
5462.75, 0.0882060
5468.52, 0.0861790
5474.29, 0.0859890
5480.08, 0.0864960
5485.88, 0.0876360
5491.69, 0.0904880
5497.51, 0.0950500
5503.35, 0.0991060
5509.2, 0.103351
5515.06, 0.107533
5520.93, 0.111399
5526.82, 0.114567
5532.71, 0.118496
5538.63, 0.122044
5544.55, 0.124769
5550.49, 0.127557
5556.44, 0.131423
5562.4, 0.134464
5568.37, 0.136682
5574.36, 0.138203
5580.36, 0.140421
5586.37, 0.141434
5592.4, 0.141498
5598.44, 0.141688
5604.49, 0.141941
5610.56, 0.140991
5616.63, 0.139153
5622.73, 0.137569
5628.83, 0.136682
5634.95, 0.135034
5641.08, 0.132690
5647.23, 0.130282
5653.39, 0.128508
5659.56, 0.126036
5665.74, 0.123755
5671.94, 0.122108
5678.15, 0.120967
5684.38, 0.119700
5690.62, 0.119193
5696.87, 0.118622
5703.14, 0.118876
5709.42, 0.120143
5715.72, 0.121791
5722.03, 0.122868
5728.35, 0.123628
5734.69, 0.124896
5741.03, 0.126290
5747.4, 0.126226
5753.78, 0.126226
5760.17, 0.127240
5766.58, 0.128254
5773.0, 0.128444
5779.44, 0.128951
5785.88, 0.129205
5792.35, 0.129205
5798.83, 0.129078
5805.32, 0.129712
5811.83, 0.130409
5818.35, 0.131676
5824.89, 0.133070
5831.45, 0.135098
5838.01, 0.136365
5844.59, 0.137696
5851.19, 0.139153
5857.8, 0.141054
5864.43, 0.143019
5871.07, 0.145237
5877.73, 0.148722
5884.4, 0.151763
5891.09, 0.153728
5897.79, 0.156199
5904.5, 0.157656
5911.23, 0.158607
5917.98, 0.159811
5924.75, 0.161332
5931.53, 0.163423
5938.32, 0.165387
5945.13, 0.165514
5951.96, 0.166528
5958.8, 0.168049
5965.65, 0.170520
5972.53, 0.172167
5979.42, 0.172738
5986.32, 0.173561
5993.24, 0.174575
6000.18, 0.175209
6007.13, 0.176159
6014.1, 0.176476
6021.08, 0.177110
6028.09, 0.177934
6035.1, 0.178948
6042.14, 0.180278
6049.19, 0.182116
6056.25, 0.181736
6063.34, 0.180975
6070.44, 0.180912
6077.55, 0.180785
6084.69, 0.180152
6091.84, 0.179645
6099.0, 0.178948
6106.19, 0.178694
6113.39, 0.178948
6120.61, 0.178504
6127.84, 0.177807
6135.09, 0.177680
6142.36, 0.177934
6149.65, 0.178441
6156.95, 0.178441
6164.27, 0.178314
6171.61, 0.177870
6178.97, 0.178504
6186.34, 0.178694
6193.73, 0.177997
6201.14, 0.177680
6208.57, 0.177110
6216.01, 0.175906
6223.47, 0.175082
6230.95, 0.174829
6238.45, 0.173942
6245.97, 0.172674
6253.5, 0.171660
6261.06, 0.170583
6268.63, 0.169569
6276.21, 0.168746
6283.82, 0.167985
6291.45, 0.166654
6299.1, 0.165641
6306.76, 0.164310
6314.44, 0.163296
6322.14, 0.162599
6329.86, 0.161775
6337.6, 0.160761
6345.35, 0.159811
6353.13, 0.158227
6360.92, 0.156896
6368.74, 0.155755
6376.57, 0.154298
6384.43, 0.152587
6392.3, 0.150876
6400.19, 0.148912
6408.1, 0.147581
6416.03, 0.145997
6423.98, 0.144286
6431.95, 0.143019
6439.94, 0.141688
6447.95, 0.140104
6455.98, 0.139280
6464.03, 0.138520
6472.1, 0.138393
6480.19, 0.138456
6488.31, 0.139343
6496.44, 0.138836
6504.59, 0.137759
6512.76, 0.137949
6520.95, 0.139153
6529.16, 0.138963
6537.4, 0.138076
6545.65, 0.137823
6553.92, 0.137252
6562.22, 0.136175
6570.54, 0.135858
6578.88, 0.134781
6587.23, 0.133957
6595.61, 0.132943
6604.02, 0.131613
6612.44, 0.130789
6620.89, 0.129902
6629.35, 0.129015
6637.84, 0.128508
6646.35, 0.127557
6654.88, 0.126543
6663.44, 0.125783
6672.01, 0.125339
6680.61, 0.124516
6689.23, 0.123819
6697.88, 0.123185
6706.54, 0.122424
6715.23, 0.121411
6723.94, 0.120523
6732.67, 0.119700
6741.42, 0.118939
6750.2, 0.118116
6759.0, 0.117419
6767.82, 0.116341
6776.67, 0.115137
6785.54, 0.113997
6794.44, 0.113110
6803.35, 0.111779
6812.29, 0.111082
6821.26, 0.110702
6830.24, 0.110448
6839.25, 0.109878
6848.29, 0.110321
6857.35, 0.111082
6866.43, 0.111652
6875.54, 0.111652
6884.67, 0.111779
6893.82, 0.111779
6903.0, 0.112096
6912.2, 0.111589
6921.43, 0.111018
6930.69, 0.110321
6939.96, 0.109624
6949.27, 0.108864
6958.59, 0.108484
6967.95, 0.107533
6977.33, 0.106583
6986.73, 0.105569
6996.16, 0.104809
7005.61, 0.103668
7015.09, 0.102401
7024.6, 0.101007
7034.13, 0.100183
7043.69, 0.0987250
7053.27, 0.0970140
7062.88, 0.0953040
7072.52, 0.0935290
7082.18, 0.0924520
7091.87, 0.0915650
7101.58, 0.0900440
7111.32, 0.0888400
7121.09, 0.0869390
7130.88, 0.0849110
7140.71, 0.0830740
7150.56, 0.0816160
7160.43, 0.0802860
7170.33, 0.0793980
7180.27, 0.0777510
7190.23, 0.0765470
7200.21, 0.0759130
7210.23, 0.0752800
7220.27, 0.0738220
7230.34, 0.0725550
7240.44, 0.0715410
7250.56, 0.0702100
7260.72, 0.0686260
7270.9, 0.0677390
7281.12, 0.0661550
7291.36, 0.0642540
7301.63, 0.0629230
7311.93, 0.0619730
7322.25, 0.0607690
7332.61, 0.0597550
7343.0, 0.0590580
7353.41, 0.0581070
7363.86, 0.0570300
7374.33, 0.0562700
7384.83, 0.0553190
7395.37, 0.0546850
7405.93, 0.0542420
7416.53, 0.0535450
7427.15, 0.0525940
7437.81, 0.0519610
7448.5, 0.0516440
7459.22, 0.0510740
7469.96, 0.0499330
7480.74, 0.0487290
7491.55, 0.0470810
7502.39, 0.0459410
7513.27, 0.0446100
7524.17, 0.0436600
7535.11, 0.0428360
7546.08, 0.0411880
7557.08, 0.0394770
7568.11, 0.0383370
7579.17, 0.0370700
7590.27, 0.0361820
7601.4, 0.0349150
7612.56, 0.0337740
7623.76, 0.0325700
7634.98, 0.0311760
7646.24, 0.0298460
7657.54, 0.0285150
7668.87, 0.0271210
7680.23, 0.0264240
7691.62, 0.0261070
7703.05, 0.0251570
7714.51, 0.0243330
7726.01, 0.0233190
7737.54, 0.0217980
7749.11, 0.0205310
7760.71, 0.0192630
7772.35, 0.0180600
7784.02, 0.0168560
7795.72, 0.0158420
7807.46, 0.0148910
7819.23, 0.0138770
7831.04, 0.0127370
7842.89, 0.0114690
7854.77, 0.0107720
7866.69, 0.00994900
7878.65, 0.00887100
7890.64, 0.00811100
7902.67, 0.00741400
7914.74, 0.00697000
7926.84, 0.00678000
7938.98, 0.00621000
7951.16, 0.00513300
7963.37, 0.00437200
7975.62, 0.00399200
7987.91, 0.00304200
8000.24, 0.00202800
8012.6, 0.00164800
8025.01, 0.00120400
8037.45, 0.000824000
8049.93, 0.000951000
8062.45, 0.000697000
8075.01, 0.00114100
8087.61, 0.000951000
8100.24, 0.000380000
8112.91, 0.000127000
8125.63, 0.000127000
8138.39, 6.30000e-005
8151.18, 0.00101400
8164.02, 0.00139400
8176.9, 0.00209100
8189.81, 0.00158400
8202.77, 0.00101400
8215.77, 0.00145700
8228.82, 0.00183800
8241.9, 0.00247100
8255.02, 0.00348500
8268.19, 0.00430900
8281.39, 0.00538600
8294.65, 0.00532300
8307.94, 0.00576600
8321.28, 0.00684400
8334.66, 0.00798400
8348.08, 0.00918800
8361.54, 0.0105190
8375.05, 0.0112790
8388.6, 0.0127370
8402.2, 0.0151450
8415.84, 0.0172990
8429.52, 0.0189470
8443.25, 0.0211640
8457.02, 0.0240160
8470.84, 0.0266140
8484.7, 0.0294660
8498.61, 0.0316830
8512.57, 0.0330770
8526.57, 0.0357390
8540.62, 0.0390340
8554.71, 0.0416950
8568.85, 0.0435960
8583.04, 0.0456870
8597.27, 0.0482850
8611.55, 0.0512640
8625.88, 0.0538620
8640.26, 0.0560160
8654.68, 0.0586780
8669.16, 0.0620360
8683.68, 0.0658380
8698.25, 0.0684360
8712.87, 0.0700200
8727.53, 0.0719850
8742.25, 0.0740120
8757.02, 0.0762940
8771.83, 0.0787010
8786.7, 0.0804120
8801.62, 0.0808560
8816.59, 0.0806020
8831.61, 0.0798420
8846.68, 0.0798420
8861.8, 0.0792720
8876.97, 0.0766100
8892.2, 0.0720480
8907.48, 0.0662180
8922.81, 0.0577270
8938.2, 0.0476520
8953.63, 0.0364360
8969.13, 0.0280080
8984.67, 0.0232560
9000.27, 0.0223680
9015.92, 0.0245230
9031.63, 0.0280080
9047.39, 0.0345350
9063.21, 0.0437230
9079.08, 0.0529110
9095.01, 0.0627330
9111.0, 0.0728720
9127.04, 0.0829470
9143.13, 0.0911850
9159.28, 0.0966980
9175.49, 0.101007
9191.76, 0.104555
9208.09, 0.107533
9224.47, 0.110512
9240.92, 0.112349
9257.42, 0.113997
9273.98, 0.115137
9290.6, 0.115518
9307.28, 0.116215
9324.02, 0.117038
9340.82, 0.116975
9357.68, 0.117292
9374.6, 0.117862
9391.58, 0.119383
9408.62, 0.120777
9425.73, 0.121030
9442.9, 0.121474
9460.13, 0.121601
9477.42, 0.120840
9494.78, 0.120587
9512.2, 0.119700
9529.69, 0.118242
9547.24, 0.116468
9564.86, 0.114123
9582.54, 0.111906
9600.28, 0.108864
9618.1, 0.104175
9635.97, 0.0987890
9653.92, 0.0916280
9671.93, 0.0816160
9690.01, 0.0678660
9708.16, 0.0539250
9726.37, 0.0416950
9744.65, 0.0331410
9763.0, 0.0293390
9781.43, 0.0305430
9799.92, 0.0349150
9818.48, 0.0401740
9837.1, 0.0435960
9855.8, 0.0448000
9874.58, 0.0443570
9893.42, 0.0454970
9912.34, 0.0489820
9931.33, 0.0556360
9950.39, 0.0612760
9969.52, 0.0629870
9988.74, 0.0603250
10008.0, 0.0540520
10027.4, 0.0458770
10046.8, 0.0389710
10066.3, 0.0338380
10085.9, 0.0308600
10105.6, 0.0284520
10125.3, 0.0259170
10145.1, 0.0236990
10165.0, 0.0220520
10185.0, 0.0202770
10205.0, 0.0193900
10225.2, 0.0186930
10245.4, 0.0179960
10265.7, 0.0167920
10286.0, 0.0162850
10306.5, 0.0159680
10327.0, 0.0155250
10347.6, 0.0152080
10368.3, 0.0160320
10389.1, 0.0152080
10409.9, 0.0145740
10430.9, 0.0140040
10451.9, 0.0138140
10473.0, 0.0138770
10494.2, 0.0142580
10515.5, 0.0141310
10536.9, 0.0146380
10558.4, 0.0139410
10579.9, 0.0143210
10601.5, 0.0159050
10623.3, 0.0181230
10645.1, 0.0195800
10667.0, 0.0209740
10689.0, 0.0210380
10711.1, 0.0208480
10733.2, 0.0193270
10755.5, 0.0188200
10777.9, 0.0182500
10800.3, 0.0191370
10822.9, 0.0205310
10845.5, 0.0228120
10868.2, 0.0246500
10891.1, 0.0262970
10914.0, 0.0268670
10937.0, 0.0278180
10960.2, 0.0279450
10983.4, 0.0277550
11006.7, 0.0268040
11030.1, 0.0267410
11053.6, 0.0264240
11077.3, 0.0266140
11101.0, 0.0261700
11124.8, 0.0259800
11148.7, 0.0251570
11172.7, 0.0247130
11196.9, 0.0242060
11221.1, 0.0250300
11245.4, 0.0253470
11269.9, 0.0256000
11294.4, 0.0255370
11319.1, 0.0261070
11343.9, 0.0260440
11368.8, 0.0264870
11393.7, 0.0262970
11418.8, 0.0266140
11444.0, 0.0273110
11469.4, 0.0287680
11494.8, 0.0282620
11520.3, 0.0287050
11546.0, 0.0292750
11571.8, 0.0302260
11597.7, 0.0303530
11623.7, 0.0307960
11649.8, 0.0305430
11676.0, 0.0309860
11702.4, 0.0307960
11728.9, 0.0318730
11755.5, 0.0325070
11782.2, 0.0328240
11809.0, 0.0321900
11836.0, 0.0322540
11863.0, 0.0318730
11890.3, 0.0323800
11917.6, 0.0320640
11945.0, 0.0325070
11972.6, 0.0323800
12000.4, 0.0326970
12028.2, 0.0316830
12056.2, 0.0322540
12084.3, 0.0321900
12112.5, 0.0315570
12140.9, 0.0307330
12169.4, 0.0309860
12198.0, 0.0297820
12226.8, 0.0294020
12255.7, 0.0283880
12284.7, 0.0278810
12313.9, 0.0256640
12343.2, 0.0247130
12372.7, 0.0235090
12402.3, 0.0228120
12432.0, 0.0221780
12461.9, 0.0224950
12491.9, 0.0217350
12522.1, 0.0226850
12552.4, 0.0231290
12582.9, 0.0240790
12613.5, 0.0240790
12644.3, 0.0246500
12675.2, 0.0247130
12706.3, 0.0258540
12737.5, 0.0263610
12768.9, 0.0271210
12800.4, 0.0264870
12832.1, 0.0271840
12863.9, 0.0273740
12895.9, 0.0278810
12928.1, 0.0273740
12960.4, 0.0283250
12992.9, 0.0280710
13025.5, 0.0283250
13058.3, 0.0283250
13091.3, 0.0295290
13124.4, 0.0292750
13157.8, 0.0297820
13191.2, 0.0307330
13224.9, 0.0310500
13258.7, 0.0297190
13292.7, 0.0295920
13326.9, 0.0290850
13361.2, 0.0300990
13395.7, 0.0309230
13430.4, 0.0314930
13465.3, 0.0313670
13500.4, 0.0321270
13535.7, 0.0316200
13571.1, 0.0317470
13606.7, 0.0316830
13642.5, 0.0324440
13678.5, 0.0314930
13714.7, 0.0321900
13751.1, 0.0321900
13787.6, 0.0318100
13824.4, 0.0306060
13861.4, 0.0309860
13898.5, 0.0303530
13935.9, 0.0315570
13973.5, 0.0313670
14011.2, 0.0317470
14049.2, 0.0320000
14087.4, 0.0329510
14125.8, 0.0326970
14164.3, 0.0332680
14203.2, 0.0324440
14242.2, 0.0334580
14281.4, 0.0333310
14320.9, 0.0332680
14360.5, 0.0336480
14400.4, 0.0356750
14440.5, 0.0349150
14480.9, 0.0347250
14521.4, 0.0333310
14562.2, 0.0334580
14603.3, 0.0333940
14644.5, 0.0344710
14686.0, 0.0336480
14727.7, 0.0342180
14769.7, 0.0340280
14811.9, 0.0344080
14854.3, 0.0342810
14897.0, 0.0351050
14939.9, 0.0358020
14983.1, 0.0366260
15026.5, 0.0349780
15070.2, 0.0355490
15114.2, 0.0352320
15158.3, 0.0361190
15202.8, 0.0361190
15247.5, 0.0368160
15292.5, 0.0373230
15337.7, 0.0384000
15383.2, 0.0382730
15429.0, 0.0404280
15475.1, 0.0406180
15521.4, 0.0410620
15568.0, 0.0410620
15614.9, 0.0427730
15662.1, 0.0431530
15709.6, 0.0442300
15757.3, 0.0453070
15805.4, 0.0467650
15853.7, 0.0463210
15902.3, 0.0495530
15951.2, 0.0511370
16000.5, 0.0517710
16050.0, 0.0524680
16099.8, 0.0558890
16150.0, 0.0578540
16200.5, 0.0600080
16251.3, 0.0591210
16302.4, 0.0591210
16353.8, 0.0589940
16405.5, 0.0614020
16457.6, 0.0606420
16510.0, 0.0605150
16562.8, 0.0594380
16615.9, 0.0594380
16669.3, 0.0592480
16723.1, 0.0618460
16777.2, 0.0619090
16831.7, 0.0622890
16886.5, 0.0624800
16941.7, 0.0653310
16997.2, 0.0657750
17053.1, 0.0669790
17109.4, 0.0665980
17166.1, 0.0685630
17223.1, 0.0709710
17280.5, 0.0728080
17338.3, 0.0726820
17396.5, 0.0737590
17455.1, 0.0744560
17514.0, 0.0766100
17573.4, 0.0771810
17633.2, 0.0781950
17693.4, 0.0758500
17754.0, 0.0758500
17815.0, 0.0755330
17876.4, 0.0767370
17938.3, 0.0753430
18000.5, 0.0764200
18063.3, 0.0762940
18126.4, 0.0769270
18190.0, 0.0755960
18254.1, 0.0773070
18318.6, 0.0768640
18383.5, 0.0778780
18449.0, 0.0758500
18514.9, 0.0774340
18581.2, 0.0764200
18648.0, 0.0759770
18715.4, 0.0747730
18783.2, 0.0760400
18851.5, 0.0750900
18920.3, 0.0760400
18989.6, 0.0759770
19059.4, 0.0777510
19129.7, 0.0764200
19200.6, 0.0769270
19272.0, 0.0757870
19343.9, 0.0752800
19416.3, 0.0734420
19489.3, 0.0743290
19562.8, 0.0733150
19637.0, 0.0735690
19711.6, 0.0739490
19786.8, 0.0764200
19862.6, 0.0757230
19939.0, 0.0757870
20016.0, 0.0740760
20093.6, 0.0766100
20171.8, 0.0792720
20250.6, 0.0822500
20330.0, 0.0823130
20410.0, 0.0854820
20490.7, 0.0852920
20572.0, 0.0877630
20654.0, 0.0908680
20736.6, 0.0942900
20819.9, 0.0924520
20903.8, 0.0934030
20988.5, 0.0949230
21073.8, 0.0988520
21159.8, 0.0985350
21246.5, 0.0974580
21334.0, 0.0975210
21422.1, 0.0989790
21511.0, 0.0964440
21600.7, 0.0977750
21691.0, 0.0995490
21782.1, 0.102844
21874.0, 0.103098
21966.7, 0.102971
22060.2, 0.0996120
22154.5, 0.101640
22249.6, 0.103985
22345.5, 0.104365
22442.2, 0.101450
22539.8, 0.102527
22638.2, 0.102211
22737.5, 0.105569
22837.7, 0.108040
22938.7, 0.110828
23040.7, 0.107723
23143.5, 0.107723
23247.3, 0.106583
23352.1, 0.108927
23457.7, 0.108801
23564.4, 0.110702
23672.0, 0.109434
23780.5, 0.109878
23890.1, 0.109688
24000.7, 0.110512
24112.3, 0.110005
24225.0, 0.114187
24338.7, 0.115518
24453.5, 0.118116
24569.4, 0.116658
24686.4, 0.119003
24804.5, 0.119003
24923.8, 0.119953
