Database of Origin, USGS Spectral Database
Sample Description, See USGS database for additional info
Date Added,2016-08-03 21:27:47.233821

Data ID,USGS_cor04          
Sample ID, corrensite_corwa-1.6420
Mineral Name, corrensite
Material Class,Phyllosilicate

Wavelength
1548.43, 0.443697
1548.9, 0.444019
1549.36, 0.444111
1549.82, 0.444526
1550.29, 0.444803
1550.75, 0.444941
1551.21, 0.445125
1551.68, 0.445033
1552.14, 0.445402
1552.61, 0.445724
1553.07, 0.445862
1553.54, 0.446047
1554.0, 0.446323
1554.47, 0.446692
1554.93, 0.447014
1555.4, 0.447152
1555.87, 0.447337
1556.34, 0.447567
1556.8, 0.447659
1557.27, 0.447936
1557.74, 0.448120
1558.21, 0.448212
1558.68, 0.448581
1559.14, 0.448903
1559.61, 0.448903
1560.08, 0.449087
1560.55, 0.449594
1561.02, 0.449640
1561.49, 0.449640
1561.96, 0.449917
1562.43, 0.450147
1562.9, 0.450470
1563.38, 0.450746
1563.85, 0.451023
1564.32, 0.450977
1564.79, 0.451161
1565.26, 0.451391
1565.74, 0.451483
1566.21, 0.451714
1566.68, 0.451990
1567.16, 0.452405
1567.63, 0.452635
1568.1, 0.452589
1568.58, 0.452497
1569.05, 0.453188
1569.53, 0.453557
1570.0, 0.453787
1570.48, 0.453879
1570.96, 0.453879
1571.43, 0.454017
1571.91, 0.454386
1572.39, 0.454386
1572.86, 0.454662
1573.34, 0.454893
1573.82, 0.455077
1574.3, 0.455492
1574.77, 0.455676
1575.25, 0.455814
1575.73, 0.455953
1576.21, 0.456275
1576.69, 0.456644
1577.17, 0.456782
1577.65, 0.456736
1578.13, 0.456966
1578.61, 0.457197
1579.09, 0.457335
1579.57, 0.457473
1580.05, 0.457611
1580.54, 0.457980
1581.02, 0.458026
1581.5, 0.457888
1581.98, 0.458210
1582.47, 0.458579
1582.95, 0.458809
1583.43, 0.458947
1583.92, 0.459178
1584.4, 0.459270
1584.88, 0.459592
1585.37, 0.459685
1585.85, 0.459823
1586.34, 0.460099
1586.82, 0.460514
1587.31, 0.460606
1587.8, 0.460790
1588.28, 0.461113
1588.77, 0.461113
1589.26, 0.461251
1589.74, 0.461435
1590.23, 0.461528
1590.72, 0.461896
1591.21, 0.462173
1591.7, 0.462127
1592.19, 0.462080
1592.67, 0.462311
1593.16, 0.462587
1593.65, 0.462956
1594.14, 0.463325
1594.63, 0.463463
1595.12, 0.463601
1595.61, 0.463923
1596.11, 0.464062
1596.6, 0.464246
1597.09, 0.464568
1597.58, 0.464615
1598.08, 0.464707
1598.57, 0.465075
1599.06, 0.465306
1599.55, 0.465766
1600.05, 0.466089
1600.54, 0.466227
1601.04, 0.466412
1601.53, 0.466412
1602.03, 0.466688
1602.52, 0.467103
1603.02, 0.467471
1603.51, 0.467563
1604.01, 0.467655
1604.5, 0.467978
1605.0, 0.468208
1605.5, 0.468669
1606.0, 0.469222
1606.49, 0.469222
1606.99, 0.469084
1607.49, 0.469406
1607.99, 0.469545
1608.49, 0.470005
1608.99, 0.470466
1609.49, 0.470650
1609.99, 0.470696
1610.49, 0.470742
1610.99, 0.470973
1611.49, 0.471341
1611.99, 0.471480
1612.49, 0.471434
1612.99, 0.471802
1613.49, 0.472171
1614.0, 0.472355
1614.5, 0.472447
1615.0, 0.472724
1615.51, 0.473184
1616.01, 0.473645
1616.51, 0.473829
1617.02, 0.473968
1617.52, 0.474198
1618.03, 0.474521
1618.53, 0.474613
1619.04, 0.474981
1619.54, 0.475350
1620.05, 0.475580
1620.55, 0.475626
1621.06, 0.475626
1621.57, 0.475949
1622.08, 0.476317
1622.58, 0.476502
1623.09, 0.476778
1623.6, 0.477009
1624.11, 0.477055
1624.62, 0.477239
1625.13, 0.477423
1625.64, 0.477608
1626.15, 0.477792
1626.66, 0.477976
1627.17, 0.478391
1627.68, 0.478759
1628.19, 0.478852
1628.7, 0.478806
1629.21, 0.479036
1629.72, 0.479497
1630.24, 0.479773
1630.75, 0.480142
1631.26, 0.480050
1631.78, 0.480188
1632.29, 0.480418
1632.8, 0.480602
1633.32, 0.480879
1633.83, 0.480833
1634.35, 0.481063
1634.86, 0.481294
1635.38, 0.481432
1635.9, 0.481754
1636.41, 0.482123
1636.93, 0.482215
1637.45, 0.482169
1637.96, 0.482261
1638.48, 0.482676
1639.0, 0.482998
1639.52, 0.483183
1640.04, 0.483459
1640.56, 0.483551
1641.08, 0.483782
1641.59, 0.483874
1642.11, 0.483966
1642.63, 0.484150
1643.16, 0.484196
1643.68, 0.484381
1644.2, 0.484887
1644.72, 0.485164
1645.24, 0.485164
1645.76, 0.485164
1646.29, 0.485486
1646.81, 0.485671
1647.33, 0.485993
1647.86, 0.486316
1648.38, 0.486592
1648.9, 0.486776
1649.43, 0.486684
1649.95, 0.486730
1650.48, 0.486915
1651.0, 0.487421
1651.53, 0.487698
1652.06, 0.487606
1652.58, 0.487698
1653.11, 0.487790
1653.64, 0.488020
1654.17, 0.488159
1654.69, 0.488343
1655.22, 0.488573
1655.75, 0.488942
1656.28, 0.488988
1656.81, 0.489218
1657.34, 0.489495
1657.87, 0.489679
1658.4, 0.489541
1658.93, 0.489771
1659.46, 0.490048
1659.99, 0.490324
1660.52, 0.490647
1661.05, 0.490785
1661.59, 0.490831
1662.12, 0.491107
1662.65, 0.491200
1663.19, 0.491338
1663.72, 0.491660
1664.26, 0.491937
1664.79, 0.492121
1665.32, 0.492213
1665.86, 0.492490
1666.39, 0.492766
1666.93, 0.492812
1667.47, 0.493043
1668.0, 0.493273
1668.54, 0.493688
1669.08, 0.493872
1669.61, 0.493872
1670.15, 0.493964
1670.69, 0.494240
1671.23, 0.494609
1671.77, 0.494978
1672.31, 0.495300
1672.85, 0.495438
1673.39, 0.495577
1673.93, 0.495623
1674.47, 0.495945
1675.01, 0.496222
1675.55, 0.496498
1676.09, 0.496728
1676.64, 0.496959
1677.18, 0.497097
1677.72, 0.497373
1678.26, 0.497512
1678.81, 0.497558
1679.35, 0.497834
1679.89, 0.498019
1680.44, 0.498203
1680.98, 0.498203
1681.53, 0.498710
1682.07, 0.498986
1682.62, 0.498986
1683.17, 0.499124
1683.71, 0.499309
1684.26, 0.499585
1684.81, 0.499908
1685.36, 0.500230
1685.9, 0.500553
1686.45, 0.500507
1687.0, 0.500599
1687.55, 0.500553
1688.1, 0.500967
1688.65, 0.501290
1689.2, 0.501520
1689.75, 0.501751
1690.3, 0.501935
1690.85, 0.502165
1691.41, 0.502211
1691.96, 0.502350
1692.51, 0.502764
1693.06, 0.503087
1693.61, 0.503225
1694.17, 0.503179
1694.72, 0.503271
1695.28, 0.503409
1695.83, 0.503732
1696.39, 0.503962
1696.94, 0.503916
1697.5, 0.504054
1698.05, 0.504377
1698.61, 0.504607
1699.17, 0.504745
1699.72, 0.504976
1700.28, 0.505206
1700.84, 0.505529
1701.4, 0.505713
1701.95, 0.505575
1702.51, 0.505759
1703.07, 0.506174
1703.63, 0.506404
1704.19, 0.506588
1704.75, 0.506681
1705.31, 0.506727
1705.88, 0.506957
1706.44, 0.507049
1707.0, 0.507141
1707.56, 0.507418
1708.12, 0.507602
1708.69, 0.507740
1709.25, 0.507832
1709.81, 0.507832
1710.38, 0.508155
1710.94, 0.508201
1711.51, 0.508293
1712.07, 0.508431
1712.64, 0.508477
1713.2, 0.508570
1713.77, 0.508846
1714.34, 0.509030
1714.9, 0.509261
1715.47, 0.509307
1716.04, 0.509445
1716.61, 0.509814
1717.18, 0.509952
1717.74, 0.509906
1718.31, 0.509860
1718.88, 0.510136
1719.45, 0.510551
1720.02, 0.510643
1720.59, 0.510689
1721.17, 0.510781
1721.74, 0.510873
1722.31, 0.511011
1722.88, 0.511150
1723.45, 0.511518
1724.03, 0.511703
1724.6, 0.511518
1725.18, 0.511426
1725.75, 0.511564
1726.33, 0.511795
1726.9, 0.511979
1727.48, 0.512302
1728.05, 0.512532
1728.63, 0.512486
1729.2, 0.512578
1729.78, 0.512855
1730.36, 0.512901
1730.94, 0.512993
1731.51, 0.513177
1732.09, 0.513730
1732.67, 0.513868
1733.25, 0.513868
1733.83, 0.513960
1734.41, 0.514006
1734.99, 0.514145
1735.57, 0.514329
1736.15, 0.514375
1736.73, 0.514697
1737.32, 0.514882
1737.9, 0.515020
1738.48, 0.515066
1739.07, 0.515204
1739.65, 0.515527
1740.23, 0.515619
1740.82, 0.515757
1741.4, 0.515988
1741.99, 0.516218
1742.57, 0.516356
1743.16, 0.516356
1743.74, 0.516540
1744.33, 0.516909
1744.92, 0.517232
1745.51, 0.517370
1746.09, 0.517554
1746.68, 0.517600
1747.27, 0.517462
1747.86, 0.517692
1748.45, 0.517877
1749.04, 0.517877
1749.63, 0.518107
1750.22, 0.518337
1750.81, 0.518614
1751.4, 0.518890
1751.99, 0.519075
1752.59, 0.519213
1753.18, 0.519259
1753.77, 0.519397
1754.37, 0.519766
1754.96, 0.520088
1755.56, 0.520180
1756.15, 0.520134
1756.74, 0.520365
1757.34, 0.520503
1757.94, 0.520733
1758.53, 0.520918
1759.13, 0.521240
1759.73, 0.521332
1760.32, 0.521424
1760.92, 0.521470
1761.52, 0.521655
1762.12, 0.521839
1762.72, 0.521977
1763.32, 0.522162
1763.92, 0.522484
1764.52, 0.522714
1765.12, 0.522668
1765.72, 0.522714
1766.32, 0.522899
1766.92, 0.523037
1767.53, 0.523175
1768.13, 0.523406
1768.73, 0.523406
1769.34, 0.523406
1769.94, 0.523452
1770.55, 0.523636
1771.15, 0.523958
1771.76, 0.524281
1772.36, 0.524373
1772.97, 0.524465
1773.57, 0.524650
1774.18, 0.524742
1774.79, 0.525018
1775.4, 0.524972
1776.0, 0.525064
1776.61, 0.525156
1777.22, 0.525295
1777.83, 0.525295
1778.44, 0.525156
1779.05, 0.525341
1779.66, 0.525663
1780.27, 0.525755
1780.88, 0.525755
1781.5, 0.525986
1782.11, 0.526078
1782.72, 0.526216
1783.33, 0.526400
1783.95, 0.526446
1784.56, 0.526446
1785.18, 0.526769
1785.79, 0.526769
1786.41, 0.526585
1787.02, 0.526953
1787.64, 0.526953
1788.26, 0.526815
1788.87, 0.526953
1789.49, 0.526907
1790.11, 0.527092
1790.73, 0.527276
1791.35, 0.527368
1791.96, 0.527414
1792.58, 0.527598
1793.21, 0.527737
1793.83, 0.527644
1794.45, 0.527691
1795.07, 0.527967
1795.69, 0.528105
1796.31, 0.528105
1796.93, 0.528059
1797.56, 0.528151
1798.18, 0.528474
1798.8, 0.528612
1799.43, 0.528796
1800.05, 0.528704
1800.68, 0.528750
1801.3, 0.528612
1801.93, 0.528612
1802.56, 0.528750
1803.18, 0.528842
1803.81, 0.529119
1804.44, 0.529257
1805.07, 0.529349
1805.7, 0.529303
1806.33, 0.529257
1806.95, 0.529626
1807.58, 0.529718
1808.22, 0.529764
1808.85, 0.529764
1809.48, 0.529810
1810.11, 0.529764
1810.74, 0.529856
1811.38, 0.530178
1812.01, 0.530317
1812.64, 0.530225
1813.28, 0.530409
1813.91, 0.530409
1814.55, 0.530593
1815.18, 0.530778
1815.82, 0.530870
1816.45, 0.530870
1817.09, 0.530962
1817.73, 0.531238
1818.36, 0.531469
1819.0, 0.531699
1819.64, 0.531422
1820.28, 0.531330
1820.92, 0.531607
1821.56, 0.531607
1822.2, 0.531929
1822.84, 0.532206
1823.48, 0.532482
1824.12, 0.532528
1824.76, 0.532620
1825.41, 0.532574
1826.05, 0.532528
1826.69, 0.532851
1827.34, 0.532989
1827.98, 0.533127
1828.63, 0.533358
1829.27, 0.533404
1829.92, 0.533496
1830.56, 0.533588
1831.21, 0.533634
1831.86, 0.533818
1832.5, 0.534003
1833.15, 0.534187
1833.8, 0.534187
1834.45, 0.534003
1835.1, 0.533864
1835.75, 0.533772
1836.4, 0.534187
1837.05, 0.534371
1837.7, 0.534648
1838.35, 0.535155
1839.01, 0.534832
1839.66, 0.534694
1840.31, 0.535062
1840.96, 0.534786
1841.62, 0.534694
1842.27, 0.535385
1842.93, 0.535615
1843.58, 0.535615
1844.24, 0.535615
1844.9, 0.535707
1845.55, 0.535753
1846.21, 0.535385
1846.87, 0.535339
1847.53, 0.535707
1848.18, 0.535938
1848.84, 0.536214
1849.5, 0.536306
1850.16, 0.536260
1850.82, 0.536399
1851.48, 0.536445
1852.14, 0.536445
1852.81, 0.536260
1853.47, 0.536214
1854.13, 0.536767
1854.8, 0.536905
1855.46, 0.536629
1856.12, 0.536445
1856.79, 0.536491
1857.45, 0.536767
1858.12, 0.536721
1858.79, 0.536445
1859.45, 0.536260
1860.12, 0.536445
1860.79, 0.536583
1861.46, 0.536629
1862.12, 0.536767
1862.79, 0.536675
1863.46, 0.536260
1864.13, 0.536214
1864.8, 0.536306
1865.48, 0.536306
1866.15, 0.536122
1866.82, 0.535938
1867.49, 0.535753
1868.16, 0.535800
1868.84, 0.535800
1869.51, 0.535615
1870.19, 0.534970
1870.86, 0.534602
1871.54, 0.534924
1872.21, 0.534463
1872.89, 0.534095
1873.56, 0.534371
1874.24, 0.534187
1874.92, 0.533634
1875.6, 0.533404
1876.28, 0.533081
1876.96, 0.532897
1877.64, 0.532989
1878.32, 0.532528
1879.0, 0.531975
1879.68, 0.531745
1880.36, 0.531376
1881.04, 0.530870
1881.73, 0.530455
1882.41, 0.530086
1883.09, 0.529718
1883.78, 0.529119
1884.46, 0.528704
1885.15, 0.528382
1885.83, 0.527875
1886.52, 0.527045
1887.21, 0.526492
1887.89, 0.525801
1888.58, 0.525110
1889.27, 0.524281
1889.96, 0.523544
1890.65, 0.522761
1891.34, 0.521839
1892.03, 0.520733
1892.72, 0.519766
1893.41, 0.518706
1894.1, 0.517692
1894.79, 0.516633
1895.49, 0.515250
1896.18, 0.513914
1896.87, 0.512486
1897.57, 0.510965
1898.26, 0.509583
1898.96, 0.508017
1899.65, 0.506819
1900.35, 0.505621
1901.05, 0.504239
1901.74, 0.502949
1902.44, 0.501705
1903.14, 0.500875
1903.84, 0.500000
1904.54, 0.498710
1905.24, 0.497788
1905.94, 0.497235
1906.64, 0.496682
1907.34, 0.496406
1908.04, 0.495899
1908.75, 0.495577
1909.45, 0.495392
1910.15, 0.495300
1910.86, 0.495392
1911.56, 0.495392
1912.27, 0.495346
1912.97, 0.495300
1913.68, 0.495715
1914.39, 0.495899
1915.09, 0.496130
1915.8, 0.496590
1916.51, 0.497189
1917.22, 0.497558
1917.93, 0.497926
1918.64, 0.498341
1919.35, 0.498664
1920.06, 0.499216
1920.77, 0.500046
1921.48, 0.500737
1922.19, 0.501106
1922.91, 0.501566
1923.62, 0.502165
1924.33, 0.502856
1925.05, 0.503317
1925.76, 0.503824
1926.48, 0.504469
1927.19, 0.505160
1927.91, 0.505621
1928.63, 0.506312
1929.35, 0.507003
1930.07, 0.507510
1930.78, 0.508017
1931.5, 0.508431
1932.22, 0.508984
1932.94, 0.509491
1933.66, 0.509952
1934.39, 0.510505
1935.11, 0.510965
1935.83, 0.511472
1936.55, 0.511979
1937.28, 0.512486
1938.0, 0.512993
1938.73, 0.513269
1939.45, 0.513730
1940.18, 0.514191
1940.9, 0.514513
1941.63, 0.514928
1942.36, 0.515343
1943.09, 0.515619
1943.81, 0.515988
1944.54, 0.516310
1945.27, 0.516725
1946.0, 0.516955
1946.73, 0.517232
1947.47, 0.517508
1948.2, 0.517877
1948.93, 0.518153
1949.66, 0.518476
1950.4, 0.518568
1951.13, 0.518752
1951.86, 0.519213
1952.6, 0.519535
1953.34, 0.519581
1954.07, 0.519766
1954.81, 0.519996
1955.55, 0.520226
1956.29, 0.520319
1957.02, 0.520503
1957.76, 0.520871
1958.5, 0.521240
1959.24, 0.521332
1959.98, 0.521286
1960.72, 0.521609
1961.47, 0.521793
1962.21, 0.522069
1962.95, 0.522208
1963.7, 0.522254
1964.44, 0.522438
1965.18, 0.522530
1965.93, 0.522761
1966.67, 0.522945
1967.42, 0.523083
1968.17, 0.523267
1968.92, 0.523313
1969.66, 0.523406
1970.41, 0.523544
1971.16, 0.523682
1971.91, 0.523820
1972.66, 0.523774
1973.41, 0.523958
1974.16, 0.524143
1974.92, 0.524281
1975.67, 0.524327
1976.42, 0.524511
1977.18, 0.524696
1977.93, 0.524926
1978.69, 0.525110
1979.44, 0.525202
1980.2, 0.525295
1980.95, 0.525433
1981.71, 0.525479
1982.47, 0.525479
1983.23, 0.525755
1983.99, 0.525847
1984.74, 0.525801
1985.51, 0.525940
1986.27, 0.526216
1987.03, 0.526354
1987.79, 0.526585
1988.55, 0.526999
1989.32, 0.526999
1990.08, 0.527045
1990.84, 0.527045
1991.61, 0.527230
1992.37, 0.527506
1993.14, 0.527691
1993.9, 0.527875
1994.67, 0.527921
1995.44, 0.528197
1996.21, 0.528336
1996.98, 0.528382
1997.75, 0.528382
1998.52, 0.528750
1999.29, 0.529073
2000.06, 0.529303
2000.83, 0.529764
2001.6, 0.529810
2002.38, 0.529902
2003.15, 0.530040
2003.93, 0.530271
2004.7, 0.530455
2005.48, 0.530685
2006.25, 0.531054
2007.03, 0.531192
2007.81, 0.531607
2008.58, 0.531791
2009.36, 0.531837
2010.14, 0.532160
2010.92, 0.532528
2011.7, 0.532667
2012.48, 0.532989
2013.26, 0.533542
2014.05, 0.533634
2014.83, 0.533864
2015.61, 0.534049
2016.4, 0.534187
2017.18, 0.534556
2017.97, 0.534786
2018.75, 0.535016
2019.54, 0.535109
2020.32, 0.535431
2021.11, 0.535892
2021.9, 0.536076
2022.69, 0.536260
2023.48, 0.536399
2024.27, 0.536859
2025.06, 0.537228
2025.85, 0.537458
2026.64, 0.537643
2027.44, 0.538057
2028.23, 0.538242
2029.02, 0.538518
2029.82, 0.538840
2030.61, 0.539025
2031.41, 0.539209
2032.2, 0.539486
2033.0, 0.539624
2033.8, 0.539854
2034.6, 0.540269
2035.4, 0.540545
2036.2, 0.540684
2037.0, 0.540960
2037.8, 0.541328
2038.6, 0.541651
2039.4, 0.541605
2040.2, 0.541697
2041.01, 0.541974
2041.81, 0.542250
2042.61, 0.542526
2043.42, 0.542757
2044.22, 0.542987
2045.03, 0.543079
2045.84, 0.543264
2046.65, 0.543448
2047.46, 0.543632
2048.26, 0.543724
2049.07, 0.543770
2049.88, 0.544047
2050.69, 0.544369
2051.51, 0.544554
2052.32, 0.544508
2053.13, 0.544646
2053.94, 0.545014
2054.76, 0.545061
2055.57, 0.545153
2056.39, 0.545245
2057.2, 0.545245
2058.02, 0.545383
2058.84, 0.545613
2059.66, 0.545660
2060.48, 0.545752
2061.29, 0.545890
2062.11, 0.546028
2062.94, 0.546074
2063.76, 0.546166
2064.58, 0.546351
2065.4, 0.546443
2066.22, 0.546305
2067.05, 0.546397
2067.87, 0.546627
2068.7, 0.546719
2069.52, 0.546673
2070.35, 0.546627
2071.18, 0.546719
2072.0, 0.546719
2072.83, 0.546627
2073.66, 0.546627
2074.49, 0.546765
2075.32, 0.546996
2076.15, 0.546996
2076.98, 0.546996
2077.82, 0.546996
2078.65, 0.546950
2079.48, 0.547042
2080.32, 0.547042
2081.15, 0.547088
2081.99, 0.547088
2082.83, 0.547088
2083.66, 0.547134
2084.5, 0.547134
2085.34, 0.547226
2086.18, 0.547088
2087.02, 0.547042
2087.86, 0.547180
2088.7, 0.547226
2089.54, 0.547180
2090.39, 0.546996
2091.23, 0.547042
2092.07, 0.547226
2092.92, 0.547180
2093.76, 0.547134
2094.61, 0.547088
2095.45, 0.547042
2096.3, 0.547134
2097.15, 0.547364
2098.0, 0.547318
2098.85, 0.547134
2099.7, 0.546950
2100.55, 0.547088
2101.4, 0.547226
2102.25, 0.547226
2103.1, 0.547042
2103.96, 0.547180
2104.81, 0.547272
2105.67, 0.547180
2106.52, 0.547226
2107.38, 0.547410
2108.24, 0.547226
2109.09, 0.547180
2109.95, 0.547134
2110.81, 0.547226
2111.67, 0.547272
2112.53, 0.547456
2113.39, 0.547641
2114.25, 0.547502
2115.12, 0.547502
2115.98, 0.547687
2116.84, 0.547687
2117.71, 0.547549
2118.58, 0.547549
2119.44, 0.547456
2120.31, 0.547456
2121.18, 0.547595
2122.04, 0.547825
2122.91, 0.548055
2123.78, 0.548194
2124.65, 0.548055
2125.52, 0.548055
2126.4, 0.548101
2127.27, 0.548147
2128.14, 0.548147
2129.02, 0.548332
2129.89, 0.548470
2130.77, 0.548562
2131.64, 0.548700
2132.52, 0.548654
2133.4, 0.548700
2134.27, 0.548747
2135.15, 0.548793
2136.03, 0.548793
2136.91, 0.548793
2137.79, 0.548793
2138.68, 0.548885
2139.56, 0.548885
2140.44, 0.549023
2141.33, 0.548583
2142.21, 0.548387
2143.1, 0.548632
2143.99, 0.548681
2144.87, 0.548436
2145.76, 0.548240
2146.65, 0.548387
2147.54, 0.548436
2148.43, 0.548240
2149.32, 0.548534
2150.21, 0.548142
2151.1, 0.548045
2151.99, 0.547849
2152.89, 0.547996
2153.78, 0.548191
2154.68, 0.547849
2155.57, 0.547311
2156.47, 0.547458
2157.37, 0.547409
2158.27, 0.547164
2159.16, 0.546822
2160.06, 0.546626
2160.96, 0.546626
2161.86, 0.546381
2162.77, 0.545990
2163.67, 0.546039
2164.57, 0.545892
2165.48, 0.545843
2166.38, 0.545892
2167.29, 0.545941
2168.2, 0.545501
2169.1, 0.545256
2170.01, 0.545060
2170.92, 0.544767
2171.83, 0.544473
2172.74, 0.544767
2173.65, 0.544620
2174.56, 0.544131
2175.47, 0.544082
2176.39, 0.544082
2177.3, 0.543250
2178.22, 0.542761
2179.13, 0.542566
2180.05, 0.542615
2180.96, 0.542321
2181.88, 0.541783
2182.8, 0.541734
2183.72, 0.541440
2184.64, 0.541343
2185.56, 0.541098
2186.48, 0.540364
2187.41, 0.540120
2188.33, 0.539728
2189.25, 0.539337
2190.18, 0.538701
2191.1, 0.538603
2192.03, 0.538505
2192.96, 0.537674
2193.89, 0.537184
2194.82, 0.536989
2195.74, 0.536744
2196.68, 0.536597
2197.61, 0.535913
2198.54, 0.535766
2199.47, 0.535472
2200.4, 0.535326
2201.34, 0.535081
2202.28, 0.535179
2203.21, 0.534885
2204.15, 0.534249
2205.08, 0.533858
2206.02, 0.533956
2206.96, 0.533809
2207.9, 0.533907
2208.84, 0.533711
2209.78, 0.533515
2210.73, 0.533271
2211.67, 0.532684
2212.61, 0.532146
2213.56, 0.532195
2214.5, 0.532097
2215.45, 0.532146
2216.4, 0.531657
2217.35, 0.531314
2218.3, 0.531363
2219.24, 0.531021
2220.2, 0.531118
2221.15, 0.530727
2222.1, 0.530042
2223.05, 0.529798
2224.0, 0.529211
2224.96, 0.528917
2225.91, 0.528526
2226.87, 0.527890
2227.83, 0.527743
2228.79, 0.527596
2229.74, 0.526814
2230.7, 0.525884
2231.66, 0.525639
2232.63, 0.525199
2233.59, 0.524465
2234.55, 0.523536
2235.51, 0.522753
2236.48, 0.521970
2237.44, 0.521237
2238.41, 0.520503
2239.38, 0.519769
2240.34, 0.519182
2241.31, 0.518057
2242.28, 0.516981
2243.25, 0.516443
2244.22, 0.515758
2245.19, 0.515024
2246.17, 0.514290
2247.14, 0.513410
2248.12, 0.512578
2249.09, 0.511648
2250.07, 0.510915
2251.04, 0.510572
2252.02, 0.509936
2253.0, 0.509105
2253.98, 0.508958
2254.96, 0.508322
2255.94, 0.507980
2256.92, 0.507637
2257.91, 0.507295
2258.89, 0.506854
2259.88, 0.506610
2260.86, 0.506121
2261.85, 0.505925
2262.83, 0.505925
2263.82, 0.505680
2264.81, 0.504947
2265.8, 0.504604
2266.79, 0.504751
2267.78, 0.504506
2268.78, 0.503968
2269.77, 0.503577
2270.76, 0.503283
2271.76, 0.502892
2272.75, 0.502403
2273.75, 0.501767
2274.75, 0.501375
2275.75, 0.500788
2276.75, 0.499908
2277.75, 0.499419
2278.75, 0.498978
2279.75, 0.498489
2280.75, 0.497853
2281.76, 0.497070
2282.76, 0.496239
2283.77, 0.495456
2284.77, 0.494771
2285.78, 0.494233
2286.79, 0.493304
2287.8, 0.492863
2288.81, 0.492276
2289.82, 0.491787
2290.83, 0.491200
2291.84, 0.490711
2292.86, 0.489928
2293.87, 0.489145
2294.89, 0.488852
2295.91, 0.488216
2296.92, 0.487433
2297.94, 0.487042
2298.96, 0.486602
2299.98, 0.486113
2301.0, 0.485868
2302.02, 0.485672
2303.04, 0.485379
2304.07, 0.484841
2305.09, 0.484400
2306.12, 0.484498
2307.15, 0.484400
2308.17, 0.484351
2309.2, 0.484058
2310.23, 0.483716
2311.26, 0.483520
2312.29, 0.483275
2313.32, 0.483128
2314.35, 0.482982
2315.39, 0.482639
2316.42, 0.482492
2317.46, 0.482492
2318.5, 0.482346
2319.53, 0.481710
2320.57, 0.481612
2321.61, 0.481367
2322.65, 0.480878
2323.69, 0.480536
2324.73, 0.480487
2325.78, 0.480291
2326.82, 0.479998
2327.86, 0.479753
2328.91, 0.479606
2329.96, 0.479508
2331.01, 0.479019
2332.05, 0.478628
2333.1, 0.478579
2334.15, 0.478628
2335.21, 0.478530
2336.26, 0.478041
2337.31, 0.478090
2338.36, 0.477992
2339.42, 0.477943
2340.48, 0.477649
2341.53, 0.477258
2342.59, 0.477062
2343.65, 0.476965
2344.71, 0.476769
2345.77, 0.476524
2346.83, 0.476280
2347.9, 0.476378
2348.96, 0.476231
2350.02, 0.476035
2351.09, 0.475937
2352.16, 0.476133
2353.23, 0.476231
2354.29, 0.476280
2355.36, 0.476084
2356.43, 0.476084
2357.51, 0.476426
2358.58, 0.476965
2359.65, 0.476965
2360.73, 0.476916
2361.8, 0.476916
2362.88, 0.477160
2363.96, 0.477307
2365.03, 0.477307
2366.11, 0.477405
2367.19, 0.477943
2368.27, 0.477992
2369.36, 0.478188
2370.44, 0.478188
2371.53, 0.478334
2372.61, 0.478824
2373.7, 0.479166
2374.78, 0.479459
2375.87, 0.479655
2376.96, 0.479900
2378.05, 0.480047
2379.14, 0.480389
2380.24, 0.480536
2381.33, 0.480340
2382.42, 0.480585
2383.52, 0.480634
2384.61, 0.480487
2385.71, 0.480340
2386.81, 0.480389
2387.91, 0.480438
2389.01, 0.480585
2390.11, 0.480144
2391.22, 0.479851
2392.32, 0.479606
2393.42, 0.479655
2394.53, 0.479655
2395.64, 0.479557
2396.74, 0.479362
2397.85, 0.478970
2398.96, 0.478970
2400.07, 0.478921
2401.18, 0.478677
2402.3, 0.478579
2403.41, 0.478334
2404.52, 0.478334
2405.64, 0.478285
2406.76, 0.478432
2407.88, 0.478579
2408.99, 0.478334
2410.11, 0.478090
2411.23, 0.477894
2412.36, 0.478139
2413.48, 0.478041
2414.6, 0.477943
2415.73, 0.477894
2416.85, 0.477845
2417.98, 0.478090
2419.11, 0.478139
2420.24, 0.477845
2421.37, 0.477552
2422.5, 0.477747
2423.64, 0.477503
2424.77, 0.477258
2425.9, 0.477160
2427.04, 0.477160
2428.18, 0.477014
2429.31, 0.476867
2430.45, 0.476426
2431.59, 0.475937
2432.73, 0.475839
2433.88, 0.475644
2435.02, 0.475252
2436.16, 0.474959
2437.31, 0.474910
2438.45, 0.474763
2439.6, 0.474127
2440.75, 0.473540
2441.9, 0.473393
2443.05, 0.473296
2444.2, 0.472660
2445.35, 0.472366
2446.51, 0.472073
2447.67, 0.472024
2448.82, 0.471681
2449.98, 0.471143
2451.14, 0.470605
2452.3, 0.470360
2453.46, 0.469822
2454.62, 0.469284
2455.78, 0.468942
2456.94, 0.468648
2458.11, 0.468061
2459.28, 0.467572
2460.44, 0.467083
2461.61, 0.466789
2462.78, 0.466398
2463.95, 0.465958
2465.12, 0.465615
2466.3, 0.465371
2467.47, 0.464490
2468.65, 0.463903
2469.82, 0.463610
2471.0, 0.463120
2472.18, 0.462436
2473.36, 0.462240
2474.54, 0.461751
2475.72, 0.461213
2476.9, 0.461164
2478.08, 0.460821
2479.27, 0.459990
2480.46, 0.459451
2481.64, 0.459060
2482.83, 0.458767
2484.02, 0.458473
2485.21, 0.458277
2486.4, 0.457690
2487.6, 0.457201
2488.79, 0.456761
2489.99, 0.456810
2491.18, 0.456614
2492.38, 0.456418
2493.58, 0.455685
2494.78, 0.455244
2495.98, 0.454804
2497.18, 0.454560
2498.39, 0.454413
2499.59, 0.454315
2500.8, 0.454119
2502.01, 0.453924
2503.21, 0.453483
2504.42, 0.453337
2505.63, 0.452945
2506.84, 0.452798
2508.06, 0.452554
2509.27, 0.452456
2510.49, 0.452114
2511.7, 0.451967
2512.92, 0.451478
2514.14, 0.451575
2515.36, 0.451380
2516.58, 0.450939
2517.8, 0.450695
2519.03, 0.450548
2520.25, 0.450450
2521.48, 0.450303
2522.7, 0.449765
2523.93, 0.449570
2525.16, 0.449276
2526.39, 0.449129
2527.62, 0.448934
2528.86, 0.448738
2530.09, 0.448396
2531.33, 0.448200
2532.56, 0.447906
2533.8, 0.447858
2535.04, 0.447368
2536.28, 0.447222
2537.52, 0.447026
2538.76, 0.446683
2540.01, 0.446488
2541.25, 0.446243
2542.5, 0.445901
2543.75, 0.445852
2544.99, 0.445656
2546.24, 0.445265
2547.49, 0.445020
2548.75, 0.444971
2550.0, 0.444580
2551.26, 0.444433
2552.51, 0.444335
2553.77, 0.444433
2555.03, 0.444042
2556.29, 0.443944
2557.55, 0.443553
2558.81, 0.442819
2560.08, 0.441889
2561.34, 0.441889
2562.61, 0.442036
2563.88, 0.441987
2565.14, 0.441987
2566.41, 0.441743
2567.68, 0.441156
2568.96, 0.440471
2570.23, 0.440569
2571.51, 0.439981
2572.78, 0.439346
2574.06, 0.440275
2575.34, 0.439492
2576.62, 0.438954
2577.9, 0.439150
2579.18, 0.438367
2580.47, 0.437731
2581.75, 0.437536
2583.04, 0.436557
2584.32, 0.437633
2585.61, 0.436997
2586.9, 0.436361
2588.2, 0.436410
2589.49, 0.436264
2590.78, 0.435823
2592.08, 0.434551
2593.37, 0.432154
2594.67, 0.432839
2595.97, 0.434992
2597.27, 0.434698
2598.57, 0.433964
2599.88, 0.433328
2601.18, 0.433035
2602.49, 0.432595
2603.79, 0.431567
2605.1, 0.431421
2606.41, 0.432008
2607.72, 0.431567
2609.03, 0.430931
2610.35, 0.430834
2611.66, 0.430295
2612.98, 0.429611
2614.3, 0.429219
2615.62, 0.427849
2616.94, 0.428094
2618.26, 0.427947
2619.58, 0.426529
2620.91, 0.427507
2622.23, 0.427116
2623.56, 0.426137
2624.89, 0.424572
2626.22, 0.423887
2627.55, 0.424425
2628.88, 0.422762
2630.21, 0.422468
2631.55, 0.423202
2632.89, 0.421881
2634.22, 0.421441
2635.56, 0.420658
2636.9, 0.419778
2638.25, 0.419240
2639.59, 0.418359
2640.93, 0.417332
2642.28, 0.416353
2643.63, 0.415424
2644.98, 0.414446
2646.33, 0.413761
2647.68, 0.412684
2649.03, 0.411608
2650.39, 0.410483
2651.74, 0.408967
2653.1, 0.408135
2654.46, 0.406667
2655.82, 0.405787
2657.18, 0.404368
2658.54, 0.402509
2659.9, 0.401237
2661.27, 0.399916
2662.64, 0.397813
2664.01, 0.394927
2665.38, 0.393166
2666.74, 0.391894
2668.12, 0.389790
2669.49, 0.385828
2670.87, 0.384751
2672.24, 0.382599
2673.62, 0.379077
2675.0, 0.375603
2676.38, 0.373060
2677.76, 0.370663
2679.15, 0.367776
2680.54, 0.364988
2681.92, 0.361074
2683.31, 0.357503
2684.7, 0.353981
2686.09, 0.350557
2687.48, 0.346741
2688.88, 0.342730
2690.27, 0.338425
2691.67, 0.333680
2693.07, 0.328983
2694.47, 0.324972
2695.87, 0.320373
2697.27, 0.315481
2698.67, 0.309905
2700.08, 0.304426
2701.49, 0.298947
2702.9, 0.293174
2704.31, 0.286423
2705.72, 0.279134
2707.13, 0.270671
2708.54, 0.261866
2709.96, 0.252669
2711.38, 0.244108
2712.8, 0.235254
2714.22, 0.226252
2715.64, 0.217643
2717.06, 0.209326
2718.49, 0.201157
2719.91, 0.193232
2721.34, 0.186285
2722.77, 0.179583
2724.2, 0.173664
2725.63, 0.168381
2727.07, 0.163049
2728.5, 0.157521
2729.94, 0.151944
2731.38, 0.146807
2732.82, 0.141866
2734.26, 0.137268
2735.7, 0.133110
2737.15, 0.129196
2738.59, 0.125381
2740.04, 0.122201
2741.49, 0.119315
2742.94, 0.116673
2744.39, 0.113884
2745.84, 0.111341
2747.3, 0.108797
2748.76, 0.106400
2750.21, 0.104052
2751.67, 0.101899
2753.14, 0.0996980
2754.6, 0.0976920
2756.06, 0.0962250
2757.53, 0.0947080
2759.0, 0.0930940
2760.46, 0.0915770
2761.94, 0.0899140
2763.41, 0.0883970
2764.88, 0.0867830
2766.36, 0.0853160
2767.83, 0.0839460
2769.31, 0.0824780
2770.79, 0.0811570
2772.27, 0.0799340
2773.76, 0.0784180
2775.24, 0.0771950
2776.73, 0.0759720
2778.22, 0.0746020
2779.71, 0.0731830
2781.2, 0.0720580
2782.69, 0.0711780
2784.18, 0.0701020
2785.68, 0.0690250
2787.18, 0.0683400
2788.68, 0.0676070
2790.18, 0.0665790
2791.68, 0.0658460
2793.19, 0.0654050
2794.69, 0.0648670
2796.2, 0.0643290
2797.71, 0.0640360
2799.22, 0.0638890
2800.73, 0.0635950
2802.24, 0.0634000
2803.76, 0.0634000
2805.28, 0.0633510
2806.8, 0.0633020
2808.32, 0.0632530
2809.84, 0.0634490
2811.36, 0.0637420
2812.89, 0.0637910
2814.42, 0.0640840
2815.94, 0.0645250
2817.48, 0.0646720
2819.01, 0.0649160
2820.54, 0.0654540
2822.08, 0.0658940
2823.61, 0.0662370
2825.15, 0.0666280
2826.69, 0.0670690
2828.23, 0.0674600
2829.78, 0.0677530
2831.32, 0.0682430
2832.87, 0.0687320
2834.42, 0.0691230
2835.97, 0.0695630
2837.52, 0.0701020
2839.08, 0.0706400
2840.63, 0.0711780
2842.19, 0.0716180
2843.75, 0.0721070
2845.31, 0.0723030
2846.87, 0.0724500
2848.44, 0.0729880
2850.0, 0.0733790
2851.57, 0.0736240
2853.14, 0.0738680
2854.71, 0.0740150
2856.28, 0.0743580
2857.86, 0.0746020
2859.43, 0.0746020
2861.01, 0.0747490
2862.59, 0.0750420
2864.17, 0.0752380
2865.76, 0.0753850
2867.34, 0.0755810
2868.93, 0.0756780
2870.52, 0.0758250
2872.11, 0.0758250
2873.7, 0.0759720
2875.29, 0.0762160
2876.89, 0.0765100
2878.49, 0.0765590
2880.08, 0.0766570
2881.69, 0.0767060
2883.29, 0.0767060
2884.89, 0.0767550
2886.5, 0.0767550
2888.11, 0.0768040
2889.72, 0.0769010
2891.33, 0.0770480
2892.94, 0.0769500
2894.56, 0.0767060
2896.17, 0.0768520
2897.79, 0.0769990
2899.42, 0.0769010
2901.04, 0.0768520
2902.66, 0.0767550
2904.29, 0.0767060
2905.92, 0.0766570
2907.55, 0.0766570
2909.18, 0.0766570
2910.81, 0.0766570
2912.45, 0.0765100
2914.08, 0.0763630
2915.72, 0.0763630
2917.36, 0.0763140
2919.01, 0.0763630
2920.65, 0.0765100
2922.3, 0.0766570
2923.94, 0.0767060
2925.59, 0.0765590
2927.25, 0.0766080
2928.9, 0.0768520
2930.56, 0.0770480
2932.21, 0.0771950
2933.87, 0.0772930
2935.53, 0.0773420
2937.2, 0.0773420
2938.86, 0.0774880
2940.53, 0.0776840
2942.2, 0.0779290
2943.87, 0.0780750
2945.54, 0.0781730
2947.22, 0.0783200
2948.89, 0.0785650
2950.57, 0.0787110
2952.25, 0.0789560
2953.93, 0.0793470
2955.62, 0.0796410
2957.3, 0.0798850
2958.99, 0.0801790
2960.68, 0.0803750
2962.37, 0.0806680
2964.07, 0.0811080
2965.76, 0.0814020
2967.46, 0.0816950
2969.16, 0.0821360
2970.86, 0.0825270
2972.56, 0.0828210
2974.27, 0.0831630
2975.98, 0.0836520
2977.69, 0.0841900
2979.4, 0.0847280
2981.11, 0.0851200
2982.83, 0.0854130
2984.54, 0.0859030
2986.26, 0.0864410
2987.98, 0.0868810
2989.71, 0.0872230
2991.43, 0.0878100
2993.16, 0.0883000
2994.89, 0.0888380
2996.62, 0.0892290
2998.35, 0.0895230
3000.09, 0.0898650
3001.83, 0.0905010
3003.57, 0.0910880
3005.31, 0.0916260
3007.05, 0.0921150
3008.79, 0.0926530
3010.54, 0.0931920
3012.29, 0.0936810
3014.04, 0.0941700
3015.8, 0.0947570
3017.55, 0.0952950
3019.31, 0.0959800
3021.07, 0.0966650
3022.83, 0.0971540
3024.59, 0.0975940
3026.36, 0.0980830
3028.13, 0.0985240
3029.9, 0.0990130
3031.67, 0.0995020
3033.44, 0.100236
3035.22, 0.100725
3037.0, 0.101068
3038.78, 0.101606
3040.56, 0.102242
3042.34, 0.102927
3044.13, 0.103514
3045.92, 0.103856
3047.71, 0.104296
3049.5, 0.104834
3051.3, 0.105372
3053.09, 0.105960
3054.89, 0.106400
3056.69, 0.106791
3058.5, 0.107231
3060.3, 0.107818
3062.11, 0.108454
3063.92, 0.108993
3065.73, 0.109433
3067.55, 0.109971
3069.36, 0.110509
3071.18, 0.110851
3073.0, 0.111341
3074.82, 0.111928
3076.65, 0.112466
3078.48, 0.113053
3080.31, 0.113591
3082.14, 0.114227
3083.97, 0.114912
3085.8, 0.115352
3087.64, 0.115743
3089.48, 0.116428
3091.33, 0.117064
3093.17, 0.117651
3095.02, 0.118287
3096.87, 0.118923
3098.72, 0.119559
3100.57, 0.120097
3102.43, 0.120635
3104.28, 0.121173
3106.14, 0.121907
3108.01, 0.122494
3109.87, 0.123081
3111.74, 0.124011
3113.61, 0.124940
3115.48, 0.125527
3117.35, 0.126065
3119.23, 0.126848
3121.1, 0.127729
3122.98, 0.128414
3124.87, 0.129049
3126.75, 0.129832
3128.64, 0.130713
3130.53, 0.131593
3132.42, 0.132376
3134.31, 0.132963
3136.21, 0.133697
3138.11, 0.134431
3140.01, 0.135311
3141.91, 0.136290
3143.82, 0.137268
3145.73, 0.138197
3147.64, 0.138980
3149.55, 0.139763
3151.46, 0.140497
3153.38, 0.141377
3155.3, 0.142258
3157.22, 0.143285
3159.14, 0.144166
3161.07, 0.145046
3163.0, 0.146025
3164.93, 0.146905
3166.86, 0.147737
3168.8, 0.148715
3170.74, 0.149645
3172.68, 0.150623
3174.62, 0.151601
3176.56, 0.152482
3178.51, 0.153314
3180.46, 0.154292
3182.42, 0.155221
3184.37, 0.156151
3186.33, 0.157031
3188.29, 0.157961
3190.25, 0.158988
3192.21, 0.159918
3194.18, 0.160749
3196.15, 0.161728
3198.12, 0.162706
3200.09, 0.163733
3202.07, 0.164712
3204.05, 0.165592
3206.03, 0.166522
3208.02, 0.167451
3210.0, 0.168430
3211.99, 0.169359
3213.98, 0.170191
3215.98, 0.171169
3217.97, 0.172245
3219.97, 0.173224
3221.97, 0.174104
3223.98, 0.174936
3225.98, 0.175768
3227.99, 0.176697
3230.0, 0.177627
3232.02, 0.178556
3234.03, 0.179485
3236.05, 0.180562
3238.07, 0.181491
3240.1, 0.182323
3242.12, 0.183057
3244.15, 0.183986
3246.18, 0.185062
3248.22, 0.186090
3250.25, 0.186823
3252.29, 0.187655
3254.33, 0.188780
3256.38, 0.189661
3258.43, 0.190443
3260.47, 0.191422
3262.53, 0.192498
3264.58, 0.193476
3266.64, 0.194161
3268.7, 0.195042
3270.76, 0.196118
3272.82, 0.197048
3274.89, 0.197977
3276.96, 0.198858
3279.04, 0.199836
3281.11, 0.200814
3283.19, 0.201744
3285.27, 0.202673
3287.35, 0.203505
3289.44, 0.204434
3291.53, 0.205511
3293.62, 0.206489
3295.71, 0.207418
3297.81, 0.208299
3299.91, 0.209180
3302.01, 0.210109
3304.11, 0.211087
3306.22, 0.212115
3308.33, 0.213093
3310.44, 0.214071
3312.56, 0.214952
3314.68, 0.215784
3316.8, 0.216713
3318.92, 0.217692
3321.05, 0.218621
3323.18, 0.219502
3325.31, 0.220382
3327.44, 0.221263
3329.58, 0.222241
3331.72, 0.223024
3333.86, 0.223806
3336.01, 0.224540
3338.16, 0.225274
3340.31, 0.226057
3342.46, 0.226742
3344.61, 0.227329
3346.77, 0.227965
3348.94, 0.228698
3351.1, 0.229481
3353.27, 0.230264
3355.44, 0.231095
3357.61, 0.232025
3359.79, 0.232954
3361.97, 0.233884
3364.15, 0.234716
3366.33, 0.235547
3368.52, 0.236526
3370.71, 0.237455
3372.9, 0.238336
3375.1, 0.239069
3377.3, 0.239901
3379.5, 0.240733
3381.71, 0.241515
3383.91, 0.242494
3386.12, 0.243374
3388.34, 0.244206
3390.55, 0.245184
3392.77, 0.246163
3394.99, 0.246945
3397.22, 0.247728
3399.45, 0.248560
3401.68, 0.249391
3403.91, 0.250321
3406.15, 0.251104
3408.39, 0.251837
3410.63, 0.252767
3412.87, 0.253696
3415.12, 0.254479
3417.37, 0.255555
3419.63, 0.256387
3421.88, 0.257267
3424.14, 0.258295
3426.41, 0.259273
3428.67, 0.260251
3430.94, 0.261230
3433.21, 0.262159
3435.49, 0.262942
3437.77, 0.263823
3440.05, 0.264801
3442.33, 0.265633
3444.62, 0.266366
3446.91, 0.267051
3449.2, 0.267883
3451.5, 0.268910
3453.8, 0.269791
3456.1, 0.270573
3458.41, 0.271356
3460.72, 0.272041
3463.03, 0.272628
3465.34, 0.273166
3467.66, 0.273704
3469.98, 0.274096
3472.31, 0.274438
3474.63, 0.274927
3476.96, 0.275514
3479.3, 0.276150
3481.64, 0.276786
3483.97, 0.277814
3486.32, 0.278792
3488.66, 0.279672
3491.01, 0.280651
3493.36, 0.281434
3495.72, 0.282265
3498.08, 0.283048
3500.44, 0.283928
3502.81, 0.284858
3505.18, 0.285787
3507.55, 0.286717
3509.92, 0.287597
3512.3, 0.288674
3514.68, 0.289701
3517.06, 0.290582
3519.45, 0.291658
3521.84, 0.292734
3524.24, 0.293810
3526.64, 0.294984
3529.04, 0.296012
3531.44, 0.296941
3533.85, 0.297919
3536.26, 0.298898
3538.67, 0.299729
3541.09, 0.300512
3543.51, 0.301393
3545.93, 0.302224
3548.36, 0.303056
3550.79, 0.303839
3553.22, 0.304670
3555.66, 0.305551
3558.1, 0.306382
3560.54, 0.307165
3562.99, 0.307997
3565.44, 0.308731
3567.9, 0.309464
3570.35, 0.310198
3572.81, 0.310981
3575.28, 0.311813
3577.75, 0.312595
3580.22, 0.313329
3582.69, 0.314112
3585.17, 0.315041
3587.65, 0.315824
3590.14, 0.316411
3592.62, 0.317096
3595.11, 0.317879
3597.61, 0.318612
3600.11, 0.319297
3602.61, 0.319933
3605.11, 0.320618
3607.62, 0.321401
3610.14, 0.322183
3612.65, 0.322868
3615.17, 0.323455
3617.69, 0.324189
3620.22, 0.324923
3622.75, 0.325608
3625.28, 0.326195
3627.82, 0.326782
3630.36, 0.327418
3632.9, 0.328152
3635.45, 0.328690
3638.0, 0.329326
3640.56, 0.330059
3643.12, 0.330647
3645.68, 0.331234
3648.24, 0.331918
3650.81, 0.332652
3653.39, 0.333239
3655.96, 0.333826
3658.54, 0.334413
3661.13, 0.335098
3663.71, 0.335685
3666.3, 0.336272
3668.9, 0.336810
3671.5, 0.337446
3674.1, 0.338131
3676.7, 0.338669
3679.31, 0.339403
3681.93, 0.339990
3684.54, 0.340528
3687.17, 0.341164
3689.79, 0.341702
3692.42, 0.342192
3695.05, 0.342730
3697.69, 0.343366
3700.32, 0.343953
3702.97, 0.344491
3705.61, 0.344980
3708.27, 0.345616
3710.92, 0.346203
3713.58, 0.346741
3716.24, 0.347230
3718.91, 0.347670
3721.58, 0.348306
3724.25, 0.348893
3726.93, 0.349383
3729.61, 0.349921
3732.29, 0.350459
3734.98, 0.350948
3737.67, 0.351437
3740.37, 0.351975
3743.07, 0.352465
3745.78, 0.352905
3748.49, 0.353394
3751.2, 0.353932
3753.91, 0.354421
3756.63, 0.354959
3759.36, 0.355449
3762.09, 0.355889
3764.82, 0.356329
3767.55, 0.356818
3770.29, 0.357210
3773.04, 0.357650
3775.78, 0.357993
3778.54, 0.358384
3781.29, 0.358824
3784.05, 0.359216
3786.82, 0.359656
3789.59, 0.360047
3792.36, 0.360194
3795.13, 0.360438
3797.92, 0.360585
3800.7, 0.360830
3803.49, 0.361026
3806.28, 0.361172
3809.08, 0.361319
3811.88, 0.361515
3814.68, 0.361613
3817.49, 0.361710
3820.31, 0.361808
3823.12, 0.361955
3825.94, 0.362053
3828.77, 0.362151
3831.6, 0.362249
3834.43, 0.362297
3837.27, 0.362346
3840.11, 0.362395
3842.96, 0.362395
3845.81, 0.362493
3848.67, 0.362738
3851.53, 0.362982
3854.39, 0.363129
3857.26, 0.363276
3860.13, 0.363520
3863.01, 0.363716
3865.89, 0.363863
3868.77, 0.364059
3871.66, 0.364156
3874.55, 0.364303
3877.45, 0.364450
3880.35, 0.364646
3883.26, 0.364841
3886.17, 0.364988
3889.09, 0.365086
3892.01, 0.365281
3894.93, 0.365379
3897.86, 0.365477
3900.79, 0.365477
3903.73, 0.365624
3906.67, 0.365771
3909.62, 0.365820
3912.57, 0.365820
3915.52, 0.365771
3918.48, 0.365624
3921.45, 0.365624
3924.42, 0.365575
3927.39, 0.365428
3930.37, 0.365330
3933.35, 0.365330
3936.34, 0.365233
3939.33, 0.364890
3942.32, 0.364303
3945.32, 0.363569
3948.33, 0.362836
3951.34, 0.362053
3954.35, 0.361270
3957.37, 0.360585
3960.39, 0.359949
3963.42, 0.359460
3966.45, 0.359069
3969.49, 0.358726
3972.53, 0.358384
3975.58, 0.358188
3978.63, 0.358041
3981.68, 0.357993
3984.75, 0.358041
3987.81, 0.358335
3990.88, 0.358873
3993.95, 0.359558
3997.03, 0.360341
4000.12, 0.361026
4003.21, 0.361759
4006.3, 0.362640
4009.4, 0.363423
4012.5, 0.364205
4015.61, 0.364694
4018.72, 0.365135
4021.84, 0.365526
4024.96, 0.365722
4028.09, 0.365966
4031.22, 0.366309
4034.36, 0.366602
4037.5, 0.366896
4040.65, 0.367043
4043.8, 0.367336
4046.96, 0.367483
4050.12, 0.367532
4053.29, 0.367581
4056.46, 0.367630
4059.64, 0.367581
4062.82, 0.367434
4066.0, 0.367238
4069.19, 0.367140
4072.39, 0.367092
4075.59, 0.366994
4078.8, 0.366798
4082.01, 0.366651
4085.23, 0.366456
4088.45, 0.366211
4091.68, 0.365869
4094.91, 0.365624
4098.15, 0.365330
4101.39, 0.365135
4104.63, 0.364988
4107.89, 0.364743
4111.14, 0.364352
4114.41, 0.363961
4117.67, 0.363716
4120.95, 0.363472
4124.23, 0.363227
4127.51, 0.363080
4130.8, 0.362787
4134.09, 0.362493
4137.39, 0.362102
4140.7, 0.361759
4144.01, 0.361515
4147.32, 0.361270
4150.64, 0.360879
4153.97, 0.360438
4157.3, 0.360047
4160.64, 0.359803
4163.98, 0.359460
4167.33, 0.359020
4170.68, 0.358482
4174.04, 0.358237
4177.4, 0.358041
4180.77, 0.357650
4184.14, 0.357063
4187.52, 0.356574
4190.91, 0.356134
4194.3, 0.355791
4197.69, 0.355400
4201.1, 0.354959
4204.5, 0.354470
4207.92, 0.353932
4211.34, 0.353296
4214.76, 0.352709
4218.19, 0.352024
4221.62, 0.351486
4225.06, 0.350997
4228.51, 0.350459
4231.96, 0.349921
4235.42, 0.349481
4238.88, 0.349138
4242.35, 0.348796
4245.83, 0.348453
4249.31, 0.348111
4252.79, 0.347817
4256.28, 0.347475
4259.78, 0.346692
4263.29, 0.345909
4266.79, 0.345176
4270.31, 0.344589
4273.83, 0.344002
4277.35, 0.343463
4280.89, 0.342925
4284.42, 0.342534
4287.97, 0.341996
4291.52, 0.341605
4295.07, 0.341164
4298.63, 0.340724
4302.2, 0.340235
4305.78, 0.339746
4309.35, 0.339159
4312.94, 0.338718
4316.53, 0.338229
4320.13, 0.337838
4323.73, 0.337300
4327.34, 0.336713
4330.96, 0.336126
4334.58, 0.335490
4338.21, 0.334854
4341.84, 0.334315
4345.48, 0.333680
4349.12, 0.333044
4352.77, 0.332310
4356.43, 0.331527
4360.1, 0.330842
4363.76, 0.330108
4367.44, 0.329326
4371.12, 0.328592
4374.81, 0.327809
4378.51, 0.327124
4382.21, 0.326293
4385.92, 0.325412
4389.63, 0.324532
4393.35, 0.323847
4397.08, 0.323015
4400.81, 0.322232
4404.55, 0.321401
4408.29, 0.320618
4412.04, 0.319835
4415.8, 0.319102
4419.57, 0.318368
4423.34, 0.317585
4427.12, 0.316704
4430.9, 0.315922
4434.69, 0.315237
4438.49, 0.314552
4442.29, 0.313671
4446.1, 0.312889
4449.92, 0.312106
4453.74, 0.311226
4457.57, 0.310345
4461.41, 0.309513
4465.25, 0.308633
4469.1, 0.307850
4472.95, 0.307165
4476.82, 0.306627
4480.69, 0.305991
4484.56, 0.305404
4488.44, 0.304670
4492.33, 0.304083
4496.23, 0.303496
4500.13, 0.302958
4504.04, 0.302616
4507.96, 0.302175
4511.88, 0.301686
4515.81, 0.301246
4519.75, 0.300708
4523.69, 0.300121
4527.65, 0.299485
4531.6, 0.298996
4535.57, 0.298360
4539.54, 0.297626
4543.52, 0.296990
4547.5, 0.296354
4551.5, 0.295571
4555.5, 0.294740
4559.5, 0.293908
4563.52, 0.293174
4567.54, 0.292294
4571.56, 0.291462
4575.6, 0.290630
4579.64, 0.289750
4583.69, 0.288869
4587.75, 0.288087
4591.81, 0.287206
4595.88, 0.286326
4599.96, 0.285396
4604.04, 0.284418
4608.14, 0.283439
4612.24, 0.282559
4616.34, 0.281434
4620.46, 0.280455
4624.58, 0.279428
4628.71, 0.278401
4632.84, 0.277324
4636.99, 0.276444
4641.14, 0.275416
4645.3, 0.274193
4649.47, 0.273068
4653.64, 0.272139
4657.82, 0.271258
4662.01, 0.270329
4666.21, 0.269302
4670.41, 0.268323
4674.62, 0.267443
4678.84, 0.266611
4683.07, 0.265779
4687.3, 0.265143
4691.54, 0.264507
4695.79, 0.263969
4700.05, 0.263480
4704.31, 0.262991
4708.59, 0.262355
4712.87, 0.261719
4717.15, 0.260985
4721.45, 0.260349
4725.76, 0.259616
4730.07, 0.258931
4734.39, 0.258197
4738.72, 0.257512
4743.05, 0.256778
4747.39, 0.255947
4751.75, 0.255066
4756.1, 0.254381
4760.47, 0.253696
4764.85, 0.253011
4769.23, 0.252326
4773.62, 0.251642
4778.02, 0.251006
4782.43, 0.250419
4786.85, 0.249881
4791.27, 0.249440
4795.7, 0.248902
4800.14, 0.248315
4804.59, 0.247826
4809.05, 0.247386
4813.51, 0.246750
4817.99, 0.246065
4822.47, 0.245380
4826.96, 0.244695
4831.46, 0.244059
4835.96, 0.243325
4840.48, 0.242396
4845.0, 0.241515
4849.54, 0.240586
4854.08, 0.239559
4858.63, 0.238482
4863.18, 0.237455
4867.75, 0.236330
4872.33, 0.235058
4876.91, 0.233639
4881.5, 0.232172
4886.1, 0.230655
4890.71, 0.229090
4895.33, 0.227280
4899.96, 0.225421
4904.59, 0.223415
4909.24, 0.221409
4913.89, 0.219453
4918.55, 0.217692
4923.22, 0.216077
4927.9, 0.214707
4932.59, 0.213582
4937.29, 0.212555
4942.0, 0.211381
4946.71, 0.210109
4951.44, 0.208690
4956.17, 0.207174
4960.91, 0.205462
4965.67, 0.203456
4970.43, 0.201352
4975.2, 0.199298
4979.98, 0.197390
4984.76, 0.195727
4989.56, 0.194308
4994.37, 0.193036
4999.18, 0.191911
5004.01, 0.191030
5008.84, 0.190199
5013.69, 0.189465
5018.54, 0.188927
5023.4, 0.188536
5028.28, 0.188193
5033.16, 0.187900
5038.05, 0.187557
5042.95, 0.187215
5047.86, 0.186921
5052.78, 0.186481
5057.71, 0.185992
5062.65, 0.185551
5067.6, 0.185258
5072.56, 0.184964
5077.53, 0.184720
5082.5, 0.184671
5087.49, 0.184524
5092.49, 0.184328
5097.5, 0.184280
5102.51, 0.184035
5107.54, 0.183595
5112.58, 0.183105
5117.62, 0.182567
5122.68, 0.181980
5127.75, 0.181442
5132.82, 0.180806
5137.91, 0.180072
5143.01, 0.179583
5148.12, 0.179192
5153.23, 0.178654
5158.36, 0.178067
5163.5, 0.177578
5168.65, 0.176991
5173.81, 0.176452
5178.98, 0.175865
5184.15, 0.175229
5189.34, 0.174447
5194.54, 0.173664
5199.75, 0.172783
5204.98, 0.171805
5210.21, 0.170435
5215.45, 0.169115
5220.7, 0.167647
5225.96, 0.165837
5231.23, 0.163880
5236.52, 0.161923
5241.81, 0.159869
5247.12, 0.157912
5252.44, 0.156004
5257.76, 0.154047
5263.1, 0.152188
5268.45, 0.150476
5273.81, 0.148862
5279.18, 0.147296
5284.56, 0.145829
5289.95, 0.144459
5295.36, 0.143285
5300.77, 0.142258
5306.2, 0.141328
5311.63, 0.140448
5317.08, 0.139616
5322.54, 0.138833
5328.01, 0.138051
5333.49, 0.137366
5338.98, 0.136681
5344.49, 0.136045
5350.0, 0.135654
5355.53, 0.135605
5361.07, 0.135703
5366.62, 0.136094
5372.18, 0.136632
5377.75, 0.137317
5383.34, 0.138149
5388.93, 0.139225
5394.54, 0.140301
5400.16, 0.141377
5405.79, 0.142356
5411.44, 0.143236
5417.09, 0.143530
5422.76, 0.143872
5428.43, 0.144215
5434.12, 0.144166
5439.83, 0.143872
5445.54, 0.143383
5451.26, 0.142747
5457.0, 0.141964
5462.75, 0.141084
5468.52, 0.140252
5474.29, 0.139176
5480.08, 0.138149
5485.88, 0.137170
5491.69, 0.136045
5497.51, 0.134822
5503.35, 0.133599
5509.2, 0.132376
5515.06, 0.131104
5520.93, 0.129783
5526.82, 0.128511
5532.71, 0.127191
5538.63, 0.125674
5544.55, 0.124011
5550.49, 0.122396
5556.44, 0.120978
5562.4, 0.119902
5568.37, 0.119070
5574.36, 0.118287
5580.36, 0.117945
5586.37, 0.118140
5592.4, 0.118483
5598.44, 0.118679
5604.49, 0.118825
5610.56, 0.118923
5616.63, 0.119070
5622.73, 0.119168
5628.83, 0.119168
5634.95, 0.119168
5641.08, 0.119412
5647.23, 0.119950
5653.39, 0.120244
5659.56, 0.120538
5665.74, 0.120684
5671.94, 0.120733
5678.15, 0.120831
5684.38, 0.120831
5690.62, 0.120684
5696.87, 0.120635
5703.14, 0.120293
5709.42, 0.120048
5715.72, 0.119804
5722.03, 0.119510
5728.35, 0.119168
5734.69, 0.118825
5741.03, 0.118385
5747.4, 0.118043
5753.78, 0.117553
5760.17, 0.116722
5766.58, 0.116282
5773.0, 0.116037
5779.44, 0.115450
5785.88, 0.114912
5792.35, 0.114374
5798.83, 0.113738
5805.32, 0.113004
5811.83, 0.112123
5818.35, 0.111145
5824.89, 0.110411
5831.45, 0.109677
5838.01, 0.108895
5844.59, 0.107916
5851.19, 0.106742
5857.8, 0.105519
5864.43, 0.104394
5871.07, 0.103122
5877.73, 0.101557
5884.4, 0.100285
5891.09, 0.0989150
5897.79, 0.0973990
5904.5, 0.0960290
5911.23, 0.0944150
5917.98, 0.0927510
5924.75, 0.0911370
5931.53, 0.0895230
5938.32, 0.0881040
5945.13, 0.0869300
5951.96, 0.0856580
5958.8, 0.0843860
5965.65, 0.0830650
5972.53, 0.0818420
5979.42, 0.0806680
5986.32, 0.0793470
5993.24, 0.0781730
6000.18, 0.0769990
6007.13, 0.0757270
6014.1, 0.0745040
6021.08, 0.0733300
6028.09, 0.0722050
6035.1, 0.0710310
6042.14, 0.0698080
6049.19, 0.0687810
6056.25, 0.0681940
6063.34, 0.0673130
6070.44, 0.0664820
6077.55, 0.0657970
6084.69, 0.0652590
6091.84, 0.0646230
6099.0, 0.0641820
6106.19, 0.0637420
6113.39, 0.0634000
6120.61, 0.0632530
6127.84, 0.0631550
6135.09, 0.0630570
6142.36, 0.0630570
6149.65, 0.0631060
6156.95, 0.0632040
6164.27, 0.0633510
6171.61, 0.0635950
6178.97, 0.0638890
6186.34, 0.0643780
6193.73, 0.0650630
6201.14, 0.0656990
6208.57, 0.0664820
6216.01, 0.0675090
6223.47, 0.0686340
6230.95, 0.0696610
6238.45, 0.0708350
6245.97, 0.0720580
6253.5, 0.0732810
6261.06, 0.0745040
6268.63, 0.0757270
6276.21, 0.0769010
6283.82, 0.0780750
6291.45, 0.0792010
6299.1, 0.0803260
6306.76, 0.0813040
6314.44, 0.0822340
6322.14, 0.0831630
6329.86, 0.0839950
6337.6, 0.0846800
6345.35, 0.0857070
6353.13, 0.0867830
6360.92, 0.0874190
6368.74, 0.0881040
6376.57, 0.0888870
6384.43, 0.0895230
6392.3, 0.0900120
6400.19, 0.0903540
6408.1, 0.0905010
6416.03, 0.0909410
6423.98, 0.0914300
6431.95, 0.0916260
6439.94, 0.0917730
6447.95, 0.0916750
6455.98, 0.0914300
6464.03, 0.0911370
6472.1, 0.0907460
6480.19, 0.0900120
6488.31, 0.0892780
6496.44, 0.0887890
6504.59, 0.0883490
6512.76, 0.0874680
6520.95, 0.0865870
6529.16, 0.0858540
6537.4, 0.0850710
6545.65, 0.0843370
6553.92, 0.0838970
6562.22, 0.0836520
6570.54, 0.0832610
6578.88, 0.0831630
6587.23, 0.0828700
6595.61, 0.0826250
6604.02, 0.0823800
6612.44, 0.0820870
6620.89, 0.0817440
6629.35, 0.0812060
6637.84, 0.0808640
6646.35, 0.0807170
6654.88, 0.0802770
6663.44, 0.0797390
6672.01, 0.0792010
6680.61, 0.0786140
6689.23, 0.0781730
6697.88, 0.0775860
6706.54, 0.0770480
6715.23, 0.0766570
6723.94, 0.0762650
6732.67, 0.0759230
6741.42, 0.0755320
6750.2, 0.0751400
6759.0, 0.0748470
6767.82, 0.0744060
6776.67, 0.0739170
6785.54, 0.0734280
6794.44, 0.0731350
6803.35, 0.0727430
6812.29, 0.0721560
6821.26, 0.0715690
6830.24, 0.0710310
6839.25, 0.0704440
6848.29, 0.0697590
6857.35, 0.0690250
6866.43, 0.0685360
6875.54, 0.0682430
6884.67, 0.0679000
6893.82, 0.0675580
6903.0, 0.0672640
6912.2, 0.0670200
6921.43, 0.0666280
6930.69, 0.0660900
6939.96, 0.0654540
6949.27, 0.0647690
6958.59, 0.0640360
6967.95, 0.0634970
6977.33, 0.0629100
6986.73, 0.0624210
6996.16, 0.0619810
7005.61, 0.0615900
7015.09, 0.0613450
7024.6, 0.0611490
7034.13, 0.0608560
7043.69, 0.0606110
7053.27, 0.0605130
7062.88, 0.0604160
7072.52, 0.0602690
7082.18, 0.0601220
7091.87, 0.0598770
7101.58, 0.0595350
7111.32, 0.0590460
7121.09, 0.0585080
7130.88, 0.0580180
7140.71, 0.0574310
7150.56, 0.0568930
7160.43, 0.0564530
7170.33, 0.0560130
7180.27, 0.0555720
7190.23, 0.0551320
7200.21, 0.0546920
7210.23, 0.0543010
7220.27, 0.0539090
7230.34, 0.0534200
7240.44, 0.0528820
7250.56, 0.0523440
7260.72, 0.0519520
7270.9, 0.0513160
7281.12, 0.0507290
7291.36, 0.0501910
7301.63, 0.0497510
7311.93, 0.0493110
7322.25, 0.0488220
7332.61, 0.0482830
7343.0, 0.0480390
7353.41, 0.0476480
7363.86, 0.0472070
7374.33, 0.0467670
7384.83, 0.0462290
7395.37, 0.0457400
7405.93, 0.0453480
7416.53, 0.0450060
7427.15, 0.0445170
7437.81, 0.0441740
7448.5, 0.0437830
7459.22, 0.0433430
7469.96, 0.0429510
7480.74, 0.0425600
7491.55, 0.0421690
7502.39, 0.0417770
7513.27, 0.0413860
7524.17, 0.0410430
7535.11, 0.0406520
7546.08, 0.0402610
7557.08, 0.0397720
7568.11, 0.0393310
7579.17, 0.0389400
7590.27, 0.0385000
7601.4, 0.0381570
7612.56, 0.0378640
7623.76, 0.0376190
7634.98, 0.0373740
7646.24, 0.0372280
7657.54, 0.0370810
7668.87, 0.0368360
7680.23, 0.0366410
7691.62, 0.0364450
7703.05, 0.0362490
7714.51, 0.0359560
7726.01, 0.0356620
7737.54, 0.0355160
7749.11, 0.0352710
7760.71, 0.0349770
7772.35, 0.0347330
7784.02, 0.0344880
7795.72, 0.0341950
7807.46, 0.0341460
7819.23, 0.0341460
7831.04, 0.0341950
7842.89, 0.0342930
7854.77, 0.0345370
7866.69, 0.0348310
7878.65, 0.0352220
7890.64, 0.0356620
7902.67, 0.0362000
7914.74, 0.0368360
7926.84, 0.0375700
7938.98, 0.0384510
7951.16, 0.0392820
7963.37, 0.0402120
7975.62, 0.0411410
7987.91, 0.0419240
8000.24, 0.0428530
8012.6, 0.0437340
8025.01, 0.0446150
8037.45, 0.0456910
8049.93, 0.0468650
8062.45, 0.0481860
8075.01, 0.0496040
8087.61, 0.0510230
8100.24, 0.0525880
8112.91, 0.0541540
8125.63, 0.0558170
8138.39, 0.0573340
8151.18, 0.0587030
8164.02, 0.0599750
8176.9, 0.0609540
8189.81, 0.0617360
8202.77, 0.0623230
8215.77, 0.0625680
8228.82, 0.0625680
8241.9, 0.0624700
8255.02, 0.0622260
8268.19, 0.0618830
8281.39, 0.0614430
8294.65, 0.0609050
8307.94, 0.0603670
8321.28, 0.0598280
8334.66, 0.0590950
8348.08, 0.0585080
8361.54, 0.0579210
8375.05, 0.0572850
8388.6, 0.0566000
8402.2, 0.0558660
8415.84, 0.0552300
8429.52, 0.0545450
8443.25, 0.0538600
8457.02, 0.0531270
8470.84, 0.0523930
8484.7, 0.0515610
8498.61, 0.0508760
8512.57, 0.0501910
8526.57, 0.0493600
8540.62, 0.0485280
8554.71, 0.0476960
8568.85, 0.0466690
8583.04, 0.0454460
8597.27, 0.0441250
8611.55, 0.0429510
8625.88, 0.0420710
8640.26, 0.0419730
8654.68, 0.0422170
8669.16, 0.0423640
8683.68, 0.0423150
8698.25, 0.0423150
8712.87, 0.0423150
8727.53, 0.0420710
8742.25, 0.0416790
8757.02, 0.0414840
8771.83, 0.0411900
8786.7, 0.0410430
8801.62, 0.0409940
8816.59, 0.0409940
8831.61, 0.0409460
8846.68, 0.0408970
8861.8, 0.0408970
8876.97, 0.0408480
8892.2, 0.0407990
8907.48, 0.0408970
8922.81, 0.0408970
8938.2, 0.0408970
8953.63, 0.0410920
8969.13, 0.0412390
8984.67, 0.0413370
9000.27, 0.0415330
9015.92, 0.0416790
9031.63, 0.0416790
9047.39, 0.0418260
9063.21, 0.0420220
9079.08, 0.0421200
9095.01, 0.0423150
9111.0, 0.0427560
9127.04, 0.0433430
9143.13, 0.0437340
9159.28, 0.0439790
9175.49, 0.0443210
9191.76, 0.0448100
9208.09, 0.0452020
9224.47, 0.0453970
9240.92, 0.0457400
9257.42, 0.0462290
9273.98, 0.0464250
9290.6, 0.0465220
9307.28, 0.0466690
9324.02, 0.0464730
9340.82, 0.0460820
9357.68, 0.0457890
9374.6, 0.0452990
9391.58, 0.0446630
9408.62, 0.0442230
9425.73, 0.0441740
9442.9, 0.0444190
9460.13, 0.0447120
9477.42, 0.0451040
9494.78, 0.0456420
9512.2, 0.0462290
9529.69, 0.0467670
9547.24, 0.0472560
9564.86, 0.0475990
9582.54, 0.0477450
9600.28, 0.0478430
9618.1, 0.0479410
9635.97, 0.0478430
9653.92, 0.0474030
9671.93, 0.0471090
9690.01, 0.0468650
9708.16, 0.0464250
9726.37, 0.0459350
9744.65, 0.0455930
9763.0, 0.0453970
9781.43, 0.0452500
9799.92, 0.0452020
9818.48, 0.0451530
9837.1, 0.0450550
9855.8, 0.0450550
9874.58, 0.0448590
9893.42, 0.0445170
9912.34, 0.0443210
9931.33, 0.0439790
9950.39, 0.0436360
9969.52, 0.0434400
9988.74, 0.0431960
10008.0, 0.0427560
10027.4, 0.0422170
10046.8, 0.0418750
10066.3, 0.0417280
10085.9, 0.0413370
10105.6, 0.0410430
10125.3, 0.0407990
10145.1, 0.0404070
10165.0, 0.0398690
10185.0, 0.0395760
10205.0, 0.0393800
10225.2, 0.0391360
10245.4, 0.0388420
10265.7, 0.0385970
10286.0, 0.0384510
10306.5, 0.0383040
10327.0, 0.0380100
10347.6, 0.0377660
10368.3, 0.0378150
10389.1, 0.0376190
10409.9, 0.0374230
10430.9, 0.0374230
10451.9, 0.0374720
10473.0, 0.0373740
10494.2, 0.0373260
10515.5, 0.0373260
10536.9, 0.0373740
10558.4, 0.0373740
10579.9, 0.0373740
10601.5, 0.0375700
10623.3, 0.0377660
10645.1, 0.0379130
10667.0, 0.0379130
10689.0, 0.0381080
10711.1, 0.0385970
10733.2, 0.0387930
10755.5, 0.0390870
10777.9, 0.0394780
10800.3, 0.0398200
10822.9, 0.0400650
10845.5, 0.0403590
10868.2, 0.0408480
10891.1, 0.0412390
10914.0, 0.0416300
10937.0, 0.0420220
10960.2, 0.0425110
10983.4, 0.0428530
11006.7, 0.0431960
11030.1, 0.0435870
11053.6, 0.0439790
11077.3, 0.0443700
11101.0, 0.0446630
11124.8, 0.0449080
11148.7, 0.0451040
11172.7, 0.0454950
11196.9, 0.0456420
11221.1, 0.0457890
11245.4, 0.0459350
11269.9, 0.0461800
11294.4, 0.0462290
11319.1, 0.0460820
11343.9, 0.0458860
11368.8, 0.0457400
11393.7, 0.0456420
11418.8, 0.0456420
11444.0, 0.0453970
11469.4, 0.0452990
11494.8, 0.0451040
11520.3, 0.0452020
11546.0, 0.0452020
11571.8, 0.0451530
11597.7, 0.0451530
11623.7, 0.0448100
11649.8, 0.0446150
11676.0, 0.0445660
11702.4, 0.0444680
11728.9, 0.0443700
11755.5, 0.0439790
11782.2, 0.0432940
11809.0, 0.0430000
11836.0, 0.0430000
11863.0, 0.0426580
11890.3, 0.0421200
11917.6, 0.0415820
11945.0, 0.0408970
11972.6, 0.0402610
12000.4, 0.0397720
12028.2, 0.0392330
12056.2, 0.0383530
12084.3, 0.0371790
12112.5, 0.0360050
12140.9, 0.0349770
12169.4, 0.0336080
12198.0, 0.0318950
12226.8, 0.0302810
12255.7, 0.0288620
12284.7, 0.0274930
12313.9, 0.0259270
12343.2, 0.0245580
12372.7, 0.0236280
12402.3, 0.0231880
12432.0, 0.0229920
12461.9, 0.0229430
12491.9, 0.0227480
12522.1, 0.0224540
12552.4, 0.0223560
12582.9, 0.0225520
12613.5, 0.0223560
12644.3, 0.0217690
12675.2, 0.0216220
12706.3, 0.0220140
12737.5, 0.0225520
12768.9, 0.0228940
12800.4, 0.0230900
12832.1, 0.0231390
12863.9, 0.0228450
12895.9, 0.0227480
12928.1, 0.0228940
12960.4, 0.0228450
12992.9, 0.0228450
13025.5, 0.0229430
13058.3, 0.0231390
13091.3, 0.0230900
13124.4, 0.0231390
13157.8, 0.0236280
13191.2, 0.0238240
13224.9, 0.0239710
13258.7, 0.0239710
13292.7, 0.0240680
13326.9, 0.0239710
13361.2, 0.0235300
13395.7, 0.0232860
13430.4, 0.0231390
13465.3, 0.0229920
13500.4, 0.0230410
13535.7, 0.0228940
13571.1, 0.0229430
13606.7, 0.0230410
13642.5, 0.0228940
13678.5, 0.0227480
13714.7, 0.0224050
13751.1, 0.0222580
13787.6, 0.0224050
13824.4, 0.0222580
13861.4, 0.0223070
13898.5, 0.0223070
13935.9, 0.0222580
13973.5, 0.0223560
14011.2, 0.0221610
14049.2, 0.0219650
14087.4, 0.0219650
14125.8, 0.0218670
14164.3, 0.0217690
14203.2, 0.0212800
14242.2, 0.0205460
14281.4, 0.0200570
14320.9, 0.0196660
14360.5, 0.0195190
14400.4, 0.0197630
14440.5, 0.0202530
14480.9, 0.0204970
14521.4, 0.0206930
14562.2, 0.0209380
14603.3, 0.0206440
14644.5, 0.0201550
14686.0, 0.0198610
14727.7, 0.0198120
14769.7, 0.0198120
14811.9, 0.0198120
14854.3, 0.0197150
14897.0, 0.0194210
14939.9, 0.0193230
14983.1, 0.0194700
15026.5, 0.0193720
15070.2, 0.0194210
15114.2, 0.0193230
15158.3, 0.0190790
15202.8, 0.0192740
15247.5, 0.0201060
15292.5, 0.0204480
15337.7, 0.0199590
15383.2, 0.0200080
15429.0, 0.0206440
15475.1, 0.0208400
15521.4, 0.0205950
15568.0, 0.0202530
15614.9, 0.0205950
15662.1, 0.0210350
15709.6, 0.0212310
15757.3, 0.0211330
15805.4, 0.0210350
15853.7, 0.0217200
15902.3, 0.0226500
15951.2, 0.0228450
16000.5, 0.0232370
16050.0, 0.0237750
16099.8, 0.0239220
16150.0, 0.0239710
16200.5, 0.0239710
16251.3, 0.0243620
16302.4, 0.0249490
16353.8, 0.0245090
16405.5, 0.0247530
16457.6, 0.0258290
16510.0, 0.0268570
16562.8, 0.0274440
16615.9, 0.0284220
16669.3, 0.0291070
16723.1, 0.0297920
16777.2, 0.0304280
16831.7, 0.0307700
16886.5, 0.0307210
16941.7, 0.0309170
16997.2, 0.0310150
17053.1, 0.0312110
17109.4, 0.0314060
17166.1, 0.0311620
17223.1, 0.0311620
17280.5, 0.0314060
17338.3, 0.0312110
17396.5, 0.0308190
17455.1, 0.0303790
17514.0, 0.0301830
17573.4, 0.0302320
17633.2, 0.0303790
17693.4, 0.0304770
17754.0, 0.0300370
17815.0, 0.0297920
17876.4, 0.0296940
17938.3, 0.0296450
18000.5, 0.0299880
18063.3, 0.0299390
18126.4, 0.0295470
18190.0, 0.0292540
18254.1, 0.0294010
18318.6, 0.0294010
18383.5, 0.0296940
18449.0, 0.0303300
18514.9, 0.0315040
18581.2, 0.0318470
18648.0, 0.0325800
18715.4, 0.0332160
18783.2, 0.0330700
18851.5, 0.0326290
18920.3, 0.0332160
18989.6, 0.0339500
19059.4, 0.0335100
19129.7, 0.0338030
19200.6, 0.0342440
19272.0, 0.0342930
19343.9, 0.0348800
19416.3, 0.0356130
19489.3, 0.0357600
19562.8, 0.0358090
19637.0, 0.0363960
19711.6, 0.0365430
19786.8, 0.0375210
19862.6, 0.0387930
19939.0, 0.0397230
20016.0, 0.0405050
20093.6, 0.0409940
20171.8, 0.0418260
20250.6, 0.0426580
20330.0, 0.0425600
20410.0, 0.0428530
20490.7, 0.0427560
20572.0, 0.0430000
20654.0, 0.0440760
20736.6, 0.0450060
20819.9, 0.0451040
20903.8, 0.0453480
20988.5, 0.0462290
21073.8, 0.0464250
21159.8, 0.0469630
21246.5, 0.0474030
21334.0, 0.0469140
21422.1, 0.0467670
21511.0, 0.0485770
21600.7, 0.0489680
21691.0, 0.0468160
21782.1, 0.0460330
21874.0, 0.0463760
21966.7, 0.0464250
22060.2, 0.0461800
22154.5, 0.0463270
22249.6, 0.0464250
22345.5, 0.0464730
22442.2, 0.0461310
22539.8, 0.0469140
22638.2, 0.0469140
22737.5, 0.0458380
22837.7, 0.0460330
22938.7, 0.0475010
23040.7, 0.0462780
23143.5, 0.0460820
23247.3, 0.0469630
23352.1, 0.0465220
23457.7, 0.0477940
23564.4, 0.0492130
23672.0, 0.0489680
23780.5, 0.0479410
23890.1, 0.0467180
24000.7, 0.0469630
24112.3, 0.0444680
24225.0, 0.0449570
24338.7, 0.0450550
24453.5, 0.0442720
24569.4, 0.0423640
24686.4, 0.0431470
24804.5, 0.0450550
24923.8, 0.0438320
