Database of Origin, USGS Spectral Database
Sample Description, See USGS database for additional info
Date Added,2016-08-10 05:33:58.376743

Data ID,USGS_riv01          
Sample ID, rivadavite_nmnh170164.19626
Mineral Name, rivadavite
Material Class,Borate

Wavelength
213.1, 0.443849
221.1, 0.466832
229.1, 0.484614
236.1, 0.497461
242.1, 0.503679
248.1, 0.507891
253.6, 0.512234
258.6, 0.515722
263.6, 0.517977
268.6, 0.522127
273.1, 0.526915
277.1, 0.530687
281.1, 0.535158
285.1, 0.541421
289.1, 0.548916
293.1, 0.556511
297.1, 0.562753
301.1, 0.565051
305.1, 0.569375
309.1, 0.573586
313.1, 0.580302
317.1, 0.584603
321.1, 0.590168
325.1, 0.596198
329.1, 0.599247
333.1, 0.604515
337.1, 0.610456
341.1, 0.613959
345.1, 0.619119
349.1, 0.621399
353.1, 0.626265
357.1, 0.631172
360.6, 0.635453
363.6, 0.636849
366.6, 0.639935
369.6, 0.641083
372.6, 0.644790
375.6, 0.645611
378.6, 0.647641
381.1, 0.651387
383.1, 0.650387
385.1, 0.652005
387.1, 0.653990
389.1, 0.654780
391.1, 0.656056
393.1, 0.656151
395.1, 0.657900
397.1, 0.659225
399.1, 0.659524
401.1, 0.661114
403.1, 0.661938
405.1, 0.663785
407.1, 0.664782
409.1, 0.666095
411.1, 0.668493
412.8, 0.667736
415.8, 0.668838
418.8, 0.669215
421.8, 0.670050
424.8, 0.672331
427.8, 0.673244
430.8, 0.674369
433.8, 0.675047
436.8, 0.677134
439.8, 0.677220
442.8, 0.679789
445.8, 0.679991
448.8, 0.682052
451.3, 0.683484
453.3, 0.683833
455.3, 0.685140
457.3, 0.686138
459.3, 0.685477
461.3, 0.686859
463.3, 0.688702
465.3, 0.688922
467.3, 0.688605
469.3, 0.690038
471.3, 0.690637
473.3, 0.692478
475.3, 0.691376
477.3, 0.693105
479.3, 0.694332
481.3, 0.694261
483.3, 0.695360
485.3, 0.696592
487.3, 0.696538
489.3, 0.697461
491.3, 0.698067
493.3, 0.698845
495.3, 0.699079
497.3, 0.698270
499.3, 0.700953
501.3, 0.703671
503.3, 0.703311
505.3, 0.703813
507.3, 0.704754
509.3, 0.705605
511.3, 0.706686
513.3, 0.706678
515.3, 0.707599
517.3, 0.709110
519.3, 0.708946
521.3, 0.710227
523.3, 0.710324
525.3, 0.712296
527.3, 0.711749
529.3, 0.713021
531.3, 0.714410
533.3, 0.717450
535.3, 0.716241
537.3, 0.717328
539.3, 0.718758
541.3, 0.719397
543.3, 0.720878
545.3, 0.722490
547.3, 0.724005
549.3, 0.724244
551.3, 0.725323
553.3, 0.727714
555.3, 0.727975
557.3, 0.729841
559.3, 0.731434
561.3, 0.734216
563.3, 0.736302
565.3, 0.736166
567.3, 0.739054
569.3, 0.740533
571.3, 0.741958
573.3, 0.743979
575.3, 0.745274
577.3, 0.746368
579.3, 0.747791
581.3, 0.749338
583.3, 0.751485
585.3, 0.751707
587.3, 0.752982
589.3, 0.754575
591.3, 0.755956
593.3, 0.756362
595.3, 0.758674
597.3, 0.757933
599.3, 0.757935
601.1, 0.759124
602.7, 0.758338
604.3, 0.759344
605.9, 0.759622
607.5, 0.760427
609.1, 0.761200
610.7, 0.761660
612.3, 0.761053
613.9, 0.760850
615.5, 0.762106
617.1, 0.762999
618.7, 0.761340
620.3, 0.762498
621.9, 0.761675
623.5, 0.763562
625.1, 0.762878
626.7, 0.765463
628.3, 0.763175
629.9, 0.764635
631.7, 0.766107
633.7, 0.765347
635.7, 0.767285
637.7, 0.765664
639.7, 0.766836
641.7, 0.767876
643.7, 0.767340
645.7, 0.767604
647.7, 0.768545
649.7, 0.769278
651.7, 0.769230
653.7, 0.769232
655.7, 0.770480
657.7, 0.770566
659.7, 0.770407
661.7, 0.771064
663.7, 0.771846
665.7, 0.772027
667.7, 0.772577
670.2, 0.772521
673.2, 0.773643
676.2, 0.773863
679.2, 0.774808
682.2, 0.775694
685.2, 0.775230
688.2, 0.776063
691.2, 0.778153
694.2, 0.777460
697.2, 0.777806
700.2, 0.775986
702.0, 0.777024
704.0, 0.778275
706.0, 0.780521
708.0, 0.778250
710.0, 0.777022
712.0, 0.778250
714.0, 0.780320
716.0, 0.779781
718.0, 0.779668
720.0, 0.778765
722.0, 0.780443
724.0, 0.780091
726.0, 0.780091
728.0, 0.779191
730.0, 0.782414
732.0, 0.781616
734.0, 0.781492
736.0, 0.781034
738.0, 0.781015
740.0, 0.781409
742.0, 0.781214
744.0, 0.781931
746.0, 0.780732
748.0, 0.781998
750.5, 0.780972
753.5, 0.779979
756.5, 0.779887
759.5, 0.780514
762.5, 0.782776
765.5, 0.782775
768.5, 0.783018
771.5, 0.783673
774.5, 0.784460
777.5, 0.784170
781.0, 0.785381
785.0, 0.786536
789.0, 0.785991
793.0, 0.786330
797.0, 0.788099
801.5, 0.786579
806.5, 0.787574
811.5, 0.787855
816.5, 0.787086
822.0, 0.786469
828.0, 0.785385
835.0, 0.784682
843.0, 0.782322
851.0, 0.781081
859.0, 0.779402
871.0, 0.777764
883.0, 0.777241
894.0, 0.774894
904.0, 0.772946
914.0, 0.771321
924.0, 0.766996
933.0, 0.764262
941.0, 0.760384
949.0, 0.756762
957.0, 0.749663
964.0, 0.741337
970.0, 0.728515
976.0, 0.717635
982.0, 0.710896
988.0, 0.711827
994.0, 0.720459
1000.0, 0.727018
1006.0, 0.734945
1012.0, 0.738584
1018.0, 0.743751
1023.5, 0.747936
1028.5, 0.750420
1033.5, 0.752865
1038.5, 0.756554
1043.5, 0.754657
1048.5, 0.757065
1053.5, 0.757830
1058.5, 0.759522
1063.5, 0.759008
1068.5, 0.757550
1073.5, 0.760578
1078.5, 0.759240
1083.5, 0.759159
1088.5, 0.759267
1093.5, 0.757089
1098.5, 0.756954
1103.5, 0.756204
1108.5, 0.754964
1113.5, 0.753444
1118.5, 0.753439
1123.5, 0.754962
1128.5, 0.752755
1133.5, 0.748834
1138.5, 0.748205
1143.5, 0.741436
1148.5, 0.733716
1153.5, 0.722160
1158.5, 0.710488
1163.5, 0.700981
1168.5, 0.694091
1173.5, 0.688810
1178.5, 0.691185
1183.5, 0.697778
1188.5, 0.698475
1193.5, 0.699056
1198.5, 0.699052
1203.5, 0.700442
1208.5, 0.701300
1213.5, 0.699362
1218.5, 0.698088
1223.5, 0.698958
1228.5, 0.697099
1233.5, 0.693784
1238.5, 0.691315
1243.5, 0.688076
1248.5, 0.685617
1253.5, 0.678796
1258.5, 0.679860
1263.5, 0.680665
1268.5, 0.683109
1273.5, 0.683863
1278.5, 0.684668
1283.5, 0.683248
1288.5, 0.681738
1293.5, 0.677459
1298.5, 0.674452
1303.5, 0.666077
1308.5, 0.661370
1313.5, 0.653893
1318.5, 0.640284
1323.5, 0.631712
1328.5, 0.614358
1333.5, 0.601198
1338.5, 0.595596
1343.5, 0.594079
1348.5, 0.593262
1353.5, 0.591496
1358.5, 0.591650
1363.5, 0.592846
1368.5, 0.589567
1373.5, 0.583570
1378.5, 0.574122
1383.5, 0.559287
1388.5, 0.536445
1393.5, 0.506670
1398.5, 0.465982
1403.5, 0.422394
1408.5, 0.396085
1413.5, 0.377178
1418.5, 0.352009
1423.5, 0.326664
1428.5, 0.307930
1433.5, 0.300196
1438.5, 0.291891
1443.5, 0.281848
1448.5, 0.286156
1453.5, 0.304095
1458.5, 0.323946
1463.5, 0.329763
1468.5, 0.331386
1473.5, 0.332181
1478.5, 0.336103
1483.5, 0.343684
1488.5, 0.348369
1493.5, 0.353805
1498.5, 0.356265
1503.5, 0.361123
1508.5, 0.363448
1513.5, 0.365625
1518.5, 0.370733
1523.5, 0.375062
1528.5, 0.377618
1534.0, 0.378053
1540.0, 0.378460
1546.0, 0.380617
1552.0, 0.379318
1558.0, 0.381807
1564.0, 0.381864
1570.5, 0.379582
1577.5, 0.377848
1584.5, 0.380282
1591.5, 0.380732
1598.5, 0.382737
1605.5, 0.383243
1612.5, 0.386574
1619.5, 0.388939
1626.5, 0.390751
1633.5, 0.391545
1640.5, 0.391645
1647.5, 0.390935
1654.5, 0.388304
1661.5, 0.391461
1668.5, 0.387851
1676.0, 0.384591
1684.0, 0.386066
1692.0, 0.384271
1700.0, 0.381524
1708.0, 0.380286
1716.0, 0.377545
1724.0, 0.372367
1732.0, 0.371838
1740.0, 0.368534
1748.0, 0.364978
1756.0, 0.361919
1764.0, 0.355072
1772.0, 0.355061
1780.0, 0.355900
1788.0, 0.354939
1796.0, 0.355449
1805.0, 0.356745
1815.0, 0.361982
1825.0, 0.365081
1835.0, 0.367884
1845.0, 0.367084
1855.0, 0.363887
1865.0, 0.356641
1875.0, 0.341676
1885.0, 0.314269
1895.0, 0.271762
1905.0, 0.220363
1915.0, 0.172924
1925.0, 0.142424
1935.0, 0.146941
1945.0, 0.162595
1955.0, 0.170814
1965.0, 0.183303
1975.0, 0.200079
1985.0, 0.215889
1995.0, 0.225413
2005.0, 0.230075
2015.0, 0.234025
2025.0, 0.232389
2035.0, 0.232258
2045.0, 0.230281
2055.0, 0.230228
2065.0, 0.227816
2075.0, 0.218982
2085.0, 0.205401
2095.0, 0.199765
2105.0, 0.193474
2115.0, 0.189318
2125.0, 0.190594
2135.0, 0.180655
2145.0, 0.163719
2155.0, 0.144704
2165.0, 0.137729
2175.0, 0.148239
2185.0, 0.151982
2195.0, 0.154376
2205.0, 0.163638
2215.0, 0.174698
2225.0, 0.185669
2235.0, 0.194156
2245.0, 0.196174
2255.0, 0.197403
2265.0, 0.197867
2275.0, 0.203932
2285.0, 0.216936
2295.0, 0.217020
2305.0, 0.231877
2315.0, 0.228028
2325.0, 0.207447
2335.0, 0.205012
2345.0, 0.195807
2355.0, 0.183438
2365.0, 0.178923
2375.0, 0.164516
2386.0, 0.149086
2400.0, 0.134155
2418.0, 0.114276
2440.0, 0.0984470
2466.0, 0.102579
2496.0, 0.122562
2528.0, 0.123448
2560.0, 0.125567
2592.0, 0.125658
2624.0, 0.115178
2656.0, 0.0968320
2688.0, 0.0679130
2720.0, 0.0264640
2752.0, 0.00429200
2784.0, 0.0179990
2816.0, 0.000575000
2848.0, 0.0108570
2880.0, 0.0131540
2912.0, 0.00632300
2944.0, 0.00920000
2976.0, 0.00510100
