Database of Origin, USGS Spectral Database
Sample Description, See USGS database for additional info
Date Added,2016-08-03 21:29:45.658020

Data ID,USGS_dic02          
Sample ID, dickite_nmnh106242.6832
Mineral Name, dickite
Material Class,Phyllosilicate

Wavelength
1343.74, 0.537326
1344.09, 0.537621
1344.44, 0.537916
1344.79, 0.538285
1345.14, 0.539392
1345.48, 0.538801
1345.83, 0.537031
1346.18, 0.536441
1346.53, 0.537400
1346.88, 0.537400
1347.23, 0.536441
1347.58, 0.535777
1347.93, 0.535039
1348.28, 0.535408
1348.64, 0.535703
1348.99, 0.534965
1349.34, 0.535334
1349.69, 0.534965
1350.04, 0.534670
1350.39, 0.534818
1350.74, 0.534449
1351.1, 0.534375
1351.45, 0.534080
1351.8, 0.533195
1352.15, 0.533343
1352.51, 0.533269
1352.86, 0.532974
1353.21, 0.532310
1353.56, 0.531572
1353.92, 0.530613
1354.27, 0.529654
1354.63, 0.528621
1354.98, 0.527146
1355.33, 0.526261
1355.69, 0.524490
1356.04, 0.521540
1356.4, 0.518810
1356.75, 0.515638
1357.11, 0.512540
1357.46, 0.509589
1357.82, 0.507229
1358.18, 0.504573
1358.53, 0.502286
1358.89, 0.500368
1359.24, 0.499926
1359.6, 0.500442
1359.96, 0.499999
1360.31, 0.499926
1360.67, 0.501770
1361.03, 0.503393
1361.39, 0.504942
1361.74, 0.506860
1362.1, 0.508852
1362.46, 0.510106
1362.82, 0.510843
1363.18, 0.510917
1363.53, 0.511876
1363.89, 0.512540
1364.25, 0.512909
1364.61, 0.513647
1364.97, 0.514237
1365.33, 0.514384
1365.69, 0.515196
1366.05, 0.515638
1366.41, 0.515565
1366.77, 0.514015
1367.13, 0.511655
1367.49, 0.509737
1367.85, 0.508261
1368.21, 0.506786
1368.57, 0.504573
1368.93, 0.502065
1369.3, 0.499999
1369.66, 0.497786
1370.02, 0.495647
1370.38, 0.493434
1370.74, 0.491369
1371.11, 0.488639
1371.47, 0.486057
1371.83, 0.482959
1372.19, 0.479049
1372.56, 0.475656
1372.92, 0.472558
1373.29, 0.468427
1373.65, 0.463706
1374.01, 0.458984
1374.38, 0.454632
1374.74, 0.449321
1375.11, 0.443493
1375.47, 0.437665
1375.84, 0.432207
1376.2, 0.426969
1376.57, 0.422396
1376.93, 0.417822
1377.3, 0.412511
1377.67, 0.407126
1378.03, 0.401003
1378.4, 0.394437
1378.76, 0.387946
1379.13, 0.381159
1379.5, 0.374668
1379.87, 0.368619
1380.23, 0.363971
1380.6, 0.359398
1380.97, 0.354972
1381.34, 0.352316
1381.7, 0.350767
1382.07, 0.350177
1382.44, 0.350472
1382.81, 0.351873
1383.18, 0.354381
1383.55, 0.357996
1383.92, 0.362865
1384.29, 0.368619
1384.66, 0.374594
1385.03, 0.380864
1385.4, 0.387430
1385.77, 0.394437
1386.14, 0.400782
1386.51, 0.407347
1386.88, 0.413838
1387.25, 0.420035
1387.62, 0.426158
1387.99, 0.432059
1388.36, 0.436928
1388.74, 0.441428
1389.11, 0.446370
1389.48, 0.450944
1389.85, 0.454706
1390.23, 0.458394
1390.6, 0.462083
1390.97, 0.465624
1391.35, 0.468722
1391.72, 0.471673
1392.09, 0.474107
1392.47, 0.476467
1392.84, 0.478533
1393.21, 0.479935
1393.59, 0.481336
1393.96, 0.482885
1394.34, 0.483918
1394.71, 0.484656
1395.09, 0.485467
1395.46, 0.486279
1395.84, 0.486500
1396.22, 0.486426
1396.59, 0.485984
1396.97, 0.485467
1397.35, 0.485320
1397.72, 0.485025
1398.1, 0.484582
1398.48, 0.484361
1398.85, 0.483770
1399.23, 0.482812
1399.61, 0.481779
1399.99, 0.480820
1400.37, 0.479639
1400.74, 0.478533
1401.12, 0.476910
1401.5, 0.474771
1401.88, 0.473222
1402.26, 0.472041
1402.64, 0.470566
1403.02, 0.468574
1403.4, 0.466140
1403.78, 0.463706
1404.16, 0.461345
1404.54, 0.459058
1404.92, 0.456107
1405.3, 0.453452
1405.68, 0.450796
1406.06, 0.446887
1406.44, 0.442903
1406.83, 0.438920
1407.21, 0.434641
1407.59, 0.429625
1407.97, 0.423871
1408.35, 0.418043
1408.74, 0.411773
1409.12, 0.404839
1409.5, 0.396650
1409.89, 0.387282
1410.27, 0.376512
1410.65, 0.364709
1411.04, 0.349955
1411.42, 0.333062
1411.81, 0.313883
1412.19, 0.291826
1412.58, 0.267557
1412.96, 0.241516
1413.35, 0.211935
1413.73, 0.182871
1414.12, 0.167306
1414.5, 0.176232
1414.89, 0.205960
1415.28, 0.243066
1415.66, 0.275892
1416.05, 0.300457
1416.44, 0.317424
1416.82, 0.328636
1417.21, 0.335792
1417.6, 0.340439
1417.98, 0.346488
1418.37, 0.353349
1418.76, 0.360062
1419.15, 0.368250
1419.54, 0.378799
1419.93, 0.389643
1420.32, 0.400560
1420.71, 0.410814
1421.09, 0.420404
1421.48, 0.430510
1421.88, 0.439952
1422.27, 0.449173
1422.66, 0.456255
1423.05, 0.460902
1423.44, 0.465181
1423.83, 0.471230
1424.22, 0.477500
1424.61, 0.482664
1425.0, 0.486057
1425.39, 0.488861
1425.78, 0.492254
1426.18, 0.495942
1426.57, 0.498819
1426.96, 0.501475
1427.36, 0.504204
1427.75, 0.507081
1428.14, 0.509884
1428.54, 0.510843
1428.93, 0.511360
1429.32, 0.513573
1429.72, 0.516966
1430.11, 0.519105
1430.51, 0.518663
1430.9, 0.518146
1431.3, 0.517778
1431.69, 0.519327
1432.09, 0.522868
1432.48, 0.525154
1432.88, 0.525818
1433.28, 0.525966
1433.67, 0.526851
1434.07, 0.528031
1434.46, 0.529285
1434.86, 0.529654
1435.26, 0.531056
1435.66, 0.532384
1436.05, 0.531203
1436.45, 0.531498
1436.85, 0.533564
1437.25, 0.533711
1437.65, 0.533343
1438.05, 0.534892
1438.44, 0.535924
1438.84, 0.534965
1439.24, 0.535482
1439.64, 0.536220
1440.04, 0.535998
1440.44, 0.535851
1440.84, 0.536441
1441.24, 0.536883
1441.65, 0.536883
1442.05, 0.536957
1442.45, 0.537400
1442.85, 0.537326
1443.25, 0.537031
1443.65, 0.537179
1444.05, 0.537695
1444.46, 0.537621
1444.86, 0.537547
1445.26, 0.537916
1445.67, 0.537916
1446.07, 0.537474
1446.47, 0.537105
1446.88, 0.537400
1447.28, 0.537769
1447.68, 0.537547
1448.09, 0.537400
1448.49, 0.538137
1448.9, 0.538506
1449.3, 0.538801
1449.71, 0.538801
1450.11, 0.539318
1450.52, 0.540056
1450.93, 0.540498
1451.33, 0.540572
1451.74, 0.540941
1452.14, 0.541531
1452.55, 0.542047
1452.96, 0.542047
1453.36, 0.541826
1453.77, 0.541900
1454.18, 0.542195
1454.59, 0.542416
1455.0, 0.542932
1455.41, 0.543301
1455.81, 0.543375
1456.22, 0.543449
1456.63, 0.544260
1457.04, 0.544629
1457.45, 0.544555
1457.86, 0.544260
1458.27, 0.544334
1458.68, 0.544703
1459.09, 0.545146
1459.5, 0.545441
1459.91, 0.545588
1460.32, 0.545588
1460.74, 0.545662
1461.15, 0.545809
1461.56, 0.545588
1461.97, 0.545441
1462.39, 0.545514
1462.8, 0.545662
1463.21, 0.545736
1463.62, 0.545736
1464.04, 0.545662
1464.45, 0.545662
1464.86, 0.546031
1465.28, 0.546400
1465.69, 0.546400
1466.11, 0.545809
1466.52, 0.545736
1466.94, 0.545883
1467.35, 0.546178
1467.77, 0.546104
1468.18, 0.546031
1468.6, 0.545883
1469.02, 0.545662
1469.43, 0.545367
1469.85, 0.545441
1470.27, 0.545883
1470.68, 0.546031
1471.1, 0.546252
1471.52, 0.546400
1471.94, 0.546326
1472.35, 0.545883
1472.77, 0.545588
1473.19, 0.545514
1473.61, 0.545883
1474.03, 0.546473
1474.45, 0.546768
1474.87, 0.547211
1475.29, 0.547285
1475.71, 0.546768
1476.13, 0.546547
1476.55, 0.546547
1476.97, 0.546473
1477.39, 0.546621
1477.81, 0.546400
1478.23, 0.546178
1478.65, 0.546252
1479.07, 0.545883
1479.5, 0.545588
1479.92, 0.545662
1480.34, 0.545736
1480.76, 0.546104
1481.19, 0.546473
1481.61, 0.546473
1482.03, 0.546400
1482.46, 0.546547
1482.88, 0.546400
1483.31, 0.546252
1483.73, 0.546031
1484.16, 0.545957
1484.58, 0.545957
1485.01, 0.546031
1485.43, 0.546031
1485.86, 0.546621
1486.28, 0.547137
1486.71, 0.547211
1487.14, 0.546842
1487.56, 0.547063
1487.99, 0.547063
1488.42, 0.547063
1488.84, 0.547137
1489.27, 0.547063
1489.7, 0.547359
1490.13, 0.547506
1490.56, 0.547727
1490.98, 0.547875
1491.41, 0.547432
1491.84, 0.547506
1492.27, 0.547801
1492.7, 0.547801
1493.13, 0.547801
1493.56, 0.547727
1493.99, 0.547063
1494.42, 0.547063
1494.85, 0.547359
1495.29, 0.547285
1495.72, 0.547359
1496.15, 0.547875
1496.58, 0.548244
1497.01, 0.547949
1497.44, 0.548022
1497.88, 0.548613
1498.31, 0.548686
1498.74, 0.548539
1499.18, 0.548539
1499.61, 0.549055
1500.04, 0.549424
1500.48, 0.549129
1500.91, 0.548686
1501.35, 0.549055
1501.78, 0.548686
1502.22, 0.549719
1502.65, 0.549350
1503.09, 0.549055
1503.53, 0.549276
1503.96, 0.549055
1504.4, 0.549424
1504.83, 0.549203
1505.27, 0.549645
1505.71, 0.551121
1506.15, 0.550235
1506.58, 0.548760
1507.02, 0.548244
1507.46, 0.550088
1507.9, 0.551490
1508.34, 0.550899
1508.78, 0.549645
1509.21, 0.549719
1509.66, 0.549572
1510.09, 0.548908
1510.53, 0.550088
1510.97, 0.550973
1511.42, 0.550973
1511.86, 0.551416
1512.3, 0.550531
1512.74, 0.548465
1513.18, 0.547506
1513.62, 0.550235
1514.06, 0.552965
1514.51, 0.553260
1514.95, 0.552006
1515.39, 0.551858
1515.83, 0.551932
1516.28, 0.551785
1516.72, 0.552965
1517.16, 0.553924
1517.61, 0.553407
1518.05, 0.552891
1518.5, 0.552522
1518.94, 0.552817
1519.39, 0.553260
1519.83, 0.553334
1520.28, 0.553039
1520.73, 0.553555
1521.17, 0.554145
1521.62, 0.553850
1522.07, 0.554514
1522.51, 0.555178
1522.96, 0.554735
1523.41, 0.554514
1523.85, 0.554735
1524.3, 0.554883
1524.75, 0.555030
1525.2, 0.555325
1525.65, 0.555252
1526.1, 0.555473
1526.55, 0.555473
1527.0, 0.556137
1527.45, 0.556801
1527.9, 0.556358
1528.35, 0.555842
1528.8, 0.556211
1529.25, 0.557022
1529.7, 0.557022
1530.15, 0.557096
1530.6, 0.557170
1531.05, 0.556801
1531.51, 0.557096
1531.96, 0.557317
1532.41, 0.557096
1532.87, 0.557170
1533.32, 0.557612
1533.77, 0.557907
1534.23, 0.557907
1534.68, 0.557834
1535.14, 0.557981
1535.59, 0.558202
1536.05, 0.558276
1536.5, 0.558202
1536.96, 0.558645
1537.41, 0.558645
1537.87, 0.558645
1538.32, 0.558940
1538.78, 0.559161
1539.24, 0.559530
1539.7, 0.559456
1540.15, 0.559088
1540.61, 0.559309
1541.07, 0.559604
1541.53, 0.559752
1541.98, 0.559604
1542.44, 0.559899
1542.9, 0.560120
1543.36, 0.560415
1543.82, 0.560268
1544.28, 0.560415
1544.74, 0.560563
1545.2, 0.560710
1545.66, 0.560710
1546.12, 0.561079
1546.59, 0.561079
1547.05, 0.561153
1547.51, 0.561227
1547.97, 0.561153
1548.43, 0.561153
1548.9, 0.561079
1549.36, 0.561227
1549.82, 0.561743
1550.29, 0.562038
1550.75, 0.561743
1551.21, 0.561743
1551.68, 0.562407
1552.14, 0.562702
1552.61, 0.562555
1553.07, 0.562555
1553.54, 0.562702
1554.0, 0.562555
1554.47, 0.562629
1554.93, 0.562850
1555.4, 0.563292
1555.87, 0.563292
1556.34, 0.563440
1556.8, 0.563661
1557.27, 0.563735
1557.74, 0.563587
1558.21, 0.563661
1558.68, 0.563809
1559.14, 0.564546
1559.61, 0.564915
1560.08, 0.565063
1560.55, 0.564842
1561.02, 0.564989
1561.49, 0.565210
1561.96, 0.565432
1562.43, 0.565727
1562.9, 0.565653
1563.38, 0.565505
1563.85, 0.566096
1564.32, 0.566243
1564.79, 0.566464
1565.26, 0.566612
1565.74, 0.566760
1566.21, 0.566833
1566.68, 0.567055
1567.16, 0.567350
1567.63, 0.567645
1568.1, 0.567497
1568.58, 0.567719
1569.05, 0.568087
1569.53, 0.568309
1570.0, 0.567940
1570.48, 0.567940
1570.96, 0.568751
1571.43, 0.569268
1571.91, 0.569341
1572.39, 0.569710
1572.86, 0.569710
1573.34, 0.569563
1573.82, 0.569489
1574.3, 0.569784
1574.77, 0.569858
1575.25, 0.570300
1575.73, 0.570743
1576.21, 0.571038
1576.69, 0.570964
1577.17, 0.571038
1577.65, 0.571333
1578.13, 0.571702
1578.61, 0.571702
1579.09, 0.571997
1579.57, 0.572292
1580.05, 0.572661
1580.54, 0.572808
1581.02, 0.573104
1581.5, 0.573399
1581.98, 0.573620
1582.47, 0.573546
1582.95, 0.573841
1583.43, 0.574210
1583.92, 0.574431
1584.4, 0.574505
1584.88, 0.574579
1585.37, 0.574800
1585.85, 0.575095
1586.34, 0.575169
1586.82, 0.575464
1587.31, 0.576054
1587.8, 0.576497
1588.28, 0.576718
1588.77, 0.576866
1589.26, 0.577087
1589.74, 0.577382
1590.23, 0.577530
1590.72, 0.577677
1591.21, 0.578046
1591.7, 0.578194
1592.19, 0.578046
1592.67, 0.578341
1593.16, 0.578636
1593.65, 0.579005
1594.14, 0.579005
1594.63, 0.579226
1595.12, 0.579448
1595.61, 0.579521
1596.11, 0.580112
1596.6, 0.580480
1597.09, 0.580407
1597.58, 0.580259
1598.08, 0.580112
1598.57, 0.580407
1599.06, 0.580554
1599.55, 0.580849
1600.05, 0.581144
1600.54, 0.581366
1601.04, 0.581439
1601.53, 0.581366
1602.03, 0.581513
1602.52, 0.581734
1603.02, 0.582103
1603.51, 0.582472
1604.01, 0.582472
1604.5, 0.582767
1605.0, 0.582915
1605.5, 0.582915
1606.0, 0.582915
1606.49, 0.583136
1606.99, 0.583283
1607.49, 0.583505
1607.99, 0.583652
1608.49, 0.583874
1608.99, 0.583947
1609.49, 0.584169
1609.99, 0.584169
1610.49, 0.584169
1610.99, 0.584316
1611.49, 0.584316
1611.99, 0.584243
1612.49, 0.584611
1612.99, 0.584833
1613.49, 0.584906
1614.0, 0.584980
1614.5, 0.585128
1615.0, 0.585349
1615.51, 0.585497
1616.01, 0.585570
1616.51, 0.585644
1617.02, 0.585865
1617.52, 0.586087
1618.03, 0.585792
1618.53, 0.585939
1619.04, 0.586160
1619.54, 0.586234
1620.05, 0.586382
1620.55, 0.586529
1621.06, 0.586677
1621.57, 0.586898
1622.08, 0.586751
1622.58, 0.586824
1623.09, 0.586824
1623.6, 0.587193
1624.11, 0.587415
1624.62, 0.587488
1625.13, 0.587415
1625.64, 0.587783
1626.15, 0.588078
1626.66, 0.588078
1627.17, 0.587931
1627.68, 0.588005
1628.19, 0.588226
1628.7, 0.588521
1629.21, 0.588669
1629.72, 0.588890
1630.24, 0.588816
1630.75, 0.588964
1631.26, 0.589259
1631.78, 0.589628
1632.29, 0.589554
1632.8, 0.589701
1633.32, 0.589923
1633.83, 0.590218
1634.35, 0.590291
1634.86, 0.590513
1635.38, 0.590734
1635.9, 0.590734
1636.41, 0.590660
1636.93, 0.590734
1637.45, 0.591029
1637.96, 0.591398
1638.48, 0.591619
1639.0, 0.591914
1639.52, 0.591988
1640.04, 0.592062
1640.56, 0.592357
1641.08, 0.592726
1641.59, 0.592652
1642.11, 0.592800
1642.63, 0.592947
1643.16, 0.593242
1643.68, 0.593464
1644.2, 0.593537
1644.72, 0.593464
1645.24, 0.593537
1645.76, 0.593832
1646.29, 0.594349
1646.81, 0.594791
1647.33, 0.595160
1647.86, 0.595308
1648.38, 0.595308
1648.9, 0.595529
1649.43, 0.595898
1649.95, 0.596414
1650.48, 0.596488
1651.0, 0.596414
1651.53, 0.596488
1652.06, 0.596562
1652.58, 0.596636
1653.11, 0.596931
1653.64, 0.597299
1654.17, 0.597594
1654.69, 0.597890
1655.22, 0.598037
1655.75, 0.598037
1656.28, 0.598111
1656.81, 0.598627
1657.34, 0.598775
1657.87, 0.598922
1658.4, 0.599070
1658.93, 0.599291
1659.46, 0.599439
1659.99, 0.599660
1660.52, 0.599660
1661.05, 0.599955
1661.59, 0.600103
1662.12, 0.600398
1662.65, 0.600693
1663.19, 0.600840
1663.72, 0.600693
1664.26, 0.600988
1664.79, 0.601062
1665.32, 0.601578
1665.86, 0.601799
1666.39, 0.601947
1666.93, 0.601947
1667.47, 0.602094
1668.0, 0.602389
1668.54, 0.602537
1669.08, 0.602537
1669.61, 0.602611
1670.15, 0.602684
1670.69, 0.603201
1671.23, 0.603422
1671.77, 0.603422
1672.31, 0.603496
1672.85, 0.603791
1673.39, 0.603865
1673.93, 0.603570
1674.47, 0.603643
1675.01, 0.604160
1675.55, 0.604234
1676.09, 0.604234
1676.64, 0.604234
1677.18, 0.604529
1677.72, 0.604750
1678.26, 0.604971
1678.81, 0.604971
1679.35, 0.605119
1679.89, 0.605045
1680.44, 0.604971
1680.98, 0.605045
1681.53, 0.605193
1682.07, 0.605340
1682.62, 0.605119
1683.17, 0.605119
1683.71, 0.605709
1684.26, 0.605635
1684.81, 0.605561
1685.36, 0.605635
1685.9, 0.605783
1686.45, 0.605930
1687.0, 0.606225
1687.55, 0.606299
1688.1, 0.606373
1688.65, 0.606152
1689.2, 0.606152
1689.75, 0.606152
1690.3, 0.606078
1690.85, 0.606004
1691.41, 0.606373
1691.96, 0.606668
1692.51, 0.606889
1693.06, 0.606889
1693.61, 0.607111
1694.17, 0.606889
1694.72, 0.607037
1695.28, 0.607111
1695.83, 0.607111
1696.39, 0.607184
1696.94, 0.607184
1697.5, 0.607258
1698.05, 0.607111
1698.61, 0.607111
1699.17, 0.607627
1699.72, 0.607774
1700.28, 0.607479
1700.84, 0.607406
1701.4, 0.607553
1701.95, 0.607627
1702.51, 0.608070
1703.07, 0.608143
1703.63, 0.608143
1704.19, 0.608291
1704.75, 0.608291
1705.31, 0.608365
1705.88, 0.608438
1706.44, 0.608217
1707.0, 0.608512
1707.56, 0.608734
1708.12, 0.608807
1708.69, 0.608807
1709.25, 0.608955
1709.81, 0.609250
1710.38, 0.609545
1710.94, 0.609545
1711.51, 0.609471
1712.07, 0.609545
1712.64, 0.609545
1713.2, 0.609914
1713.77, 0.610135
1714.34, 0.610283
1714.9, 0.610504
1715.47, 0.610430
1716.04, 0.610578
1716.61, 0.611020
1717.18, 0.611168
1717.74, 0.611094
1718.31, 0.611168
1718.88, 0.611315
1719.45, 0.611389
1720.02, 0.611610
1720.59, 0.611832
1721.17, 0.611979
1721.74, 0.612127
1722.31, 0.612127
1722.88, 0.612274
1723.45, 0.612274
1724.03, 0.612422
1724.6, 0.612422
1725.18, 0.612348
1725.75, 0.612717
1726.33, 0.613086
1726.9, 0.613160
1727.48, 0.613455
1728.05, 0.613602
1728.63, 0.613676
1729.2, 0.613528
1729.78, 0.613307
1730.36, 0.613381
1730.94, 0.613381
1731.51, 0.613381
1732.09, 0.613823
1732.67, 0.613823
1733.25, 0.613971
1733.83, 0.614119
1734.41, 0.614119
1734.99, 0.614119
1735.57, 0.614414
1736.15, 0.614635
1736.73, 0.614635
1737.32, 0.614561
1737.9, 0.614561
1738.48, 0.614266
1739.07, 0.614045
1739.65, 0.614119
1740.23, 0.614487
1740.82, 0.614709
1741.4, 0.615151
1741.99, 0.615299
1742.57, 0.615225
1743.16, 0.615151
1743.74, 0.615151
1744.33, 0.615004
1744.92, 0.615004
1745.51, 0.615151
1746.09, 0.615299
1746.68, 0.615594
1747.27, 0.615594
1747.86, 0.615299
1748.45, 0.615668
1749.04, 0.615668
1749.63, 0.615446
1750.22, 0.615594
1750.81, 0.615963
1751.4, 0.615815
1751.99, 0.615594
1752.59, 0.615741
1753.18, 0.616037
1753.77, 0.616184
1754.37, 0.616110
1754.96, 0.616037
1755.56, 0.616184
1756.15, 0.616110
1756.74, 0.616332
1757.34, 0.616332
1757.94, 0.616184
1758.53, 0.616184
1759.13, 0.616258
1759.73, 0.616037
1760.32, 0.615741
1760.92, 0.615815
1761.52, 0.616037
1762.12, 0.615741
1762.72, 0.615594
1763.32, 0.615520
1763.92, 0.615520
1764.52, 0.615225
1765.12, 0.615078
1765.72, 0.615004
1766.32, 0.614856
1766.92, 0.614782
1767.53, 0.614561
1768.13, 0.614266
1768.73, 0.614119
1769.34, 0.613897
1769.94, 0.613676
1770.55, 0.613233
1771.15, 0.613012
1771.76, 0.613012
1772.36, 0.612717
1772.97, 0.612274
1773.57, 0.612274
1774.18, 0.612127
1774.79, 0.611906
1775.4, 0.611537
1776.0, 0.611242
1776.61, 0.611020
1777.22, 0.610873
1777.83, 0.610873
1778.44, 0.610578
1779.05, 0.610135
1779.66, 0.609840
1780.27, 0.609471
1780.88, 0.609176
1781.5, 0.608660
1782.11, 0.608438
1782.72, 0.607922
1783.33, 0.607774
1783.95, 0.607553
1784.56, 0.607037
1785.18, 0.606520
1785.79, 0.605930
1786.41, 0.605340
1787.02, 0.604971
1787.64, 0.604529
1788.26, 0.603865
1788.87, 0.603275
1789.49, 0.602980
1790.11, 0.602537
1790.73, 0.602242
1791.35, 0.601799
1791.96, 0.601504
1792.58, 0.601209
1793.21, 0.600693
1793.83, 0.600103
1794.45, 0.599734
1795.07, 0.599439
1795.69, 0.599291
1796.31, 0.598996
1796.93, 0.598627
1797.56, 0.598185
1798.18, 0.598185
1798.8, 0.598037
1799.43, 0.597890
1800.05, 0.598037
1800.68, 0.598111
1801.3, 0.597742
1801.93, 0.597668
1802.56, 0.597668
1803.18, 0.597963
1803.81, 0.597963
1804.44, 0.598258
1805.07, 0.598922
1805.7, 0.599217
1806.33, 0.599291
1806.95, 0.599808
1807.58, 0.600471
1808.22, 0.601062
1808.85, 0.601430
1809.48, 0.602094
1810.11, 0.602537
1810.74, 0.602980
1811.38, 0.603348
1812.01, 0.603865
1812.64, 0.604234
1813.28, 0.604381
1813.91, 0.604603
1814.55, 0.604824
1815.18, 0.604971
1815.82, 0.604897
1816.45, 0.604897
1817.09, 0.605045
1817.73, 0.604750
1818.36, 0.604603
1819.0, 0.604603
1819.64, 0.604307
1820.28, 0.604012
1820.92, 0.603939
1821.56, 0.603717
1822.2, 0.603422
1822.84, 0.602980
1823.48, 0.602980
1824.12, 0.603053
1824.76, 0.602832
1825.41, 0.602980
1826.05, 0.603422
1826.69, 0.603570
1827.34, 0.603791
1827.98, 0.604012
1828.63, 0.604234
1829.27, 0.604676
1829.92, 0.605119
1830.56, 0.605561
1831.21, 0.606225
1831.86, 0.606520
1832.5, 0.606889
1833.15, 0.607406
1833.8, 0.608143
1834.45, 0.608512
1835.1, 0.608881
1835.75, 0.609397
1836.4, 0.609766
1837.05, 0.609692
1837.7, 0.609840
1838.35, 0.609619
1839.01, 0.609397
1839.66, 0.608734
1840.31, 0.608070
1840.96, 0.607774
1841.62, 0.607922
1842.27, 0.608070
1842.93, 0.608734
1843.58, 0.609766
1844.24, 0.611168
1844.9, 0.612496
1845.55, 0.613971
1846.21, 0.615520
1846.87, 0.617069
1847.53, 0.618250
1848.18, 0.619061
1848.84, 0.619651
1849.5, 0.620463
1850.16, 0.620831
1850.82, 0.621274
1851.48, 0.621864
1852.14, 0.622454
1852.81, 0.622823
1853.47, 0.623340
1854.13, 0.623340
1854.8, 0.623487
1855.46, 0.623782
1856.12, 0.624225
1856.79, 0.624446
1857.45, 0.624446
1858.12, 0.624815
1858.79, 0.625036
1859.45, 0.625110
1860.12, 0.625036
1860.79, 0.624962
1861.46, 0.625257
1862.12, 0.625405
1862.79, 0.625479
1863.46, 0.625405
1864.13, 0.625626
1864.8, 0.625700
1865.48, 0.625848
1866.15, 0.625774
1866.82, 0.625848
1867.49, 0.625921
1868.16, 0.625626
1868.84, 0.625553
1869.51, 0.625626
1870.19, 0.625848
1870.86, 0.626290
1871.54, 0.625995
1872.21, 0.625921
1872.89, 0.626069
1873.56, 0.625921
1874.24, 0.625553
1874.92, 0.625700
1875.6, 0.625700
1876.28, 0.625479
1876.96, 0.625405
1877.64, 0.625405
1878.32, 0.625700
1879.0, 0.625700
1879.68, 0.625700
1880.36, 0.625626
1881.04, 0.625553
1881.73, 0.625700
1882.41, 0.625626
1883.09, 0.625479
1883.78, 0.625257
1884.46, 0.625553
1885.15, 0.625553
1885.83, 0.625331
1886.52, 0.625405
1887.21, 0.625553
1887.89, 0.625184
1888.58, 0.624889
1889.27, 0.624741
1889.96, 0.624815
1890.65, 0.625036
1891.34, 0.624962
1892.03, 0.624889
1892.72, 0.624741
1893.41, 0.624446
1894.1, 0.624520
1894.79, 0.624372
1895.49, 0.624225
1896.18, 0.623856
1896.87, 0.623487
1897.57, 0.623340
1898.26, 0.623487
1898.96, 0.623561
1899.65, 0.623487
1900.35, 0.623192
1901.05, 0.622971
1901.74, 0.622749
1902.44, 0.622602
1903.14, 0.622381
1903.84, 0.622012
1904.54, 0.621790
1905.24, 0.621790
1905.94, 0.621643
1906.64, 0.621717
1907.34, 0.621569
1908.04, 0.621126
1908.75, 0.620831
1909.45, 0.620536
1910.15, 0.620610
1910.86, 0.620758
1911.56, 0.620610
1912.27, 0.620315
1912.97, 0.620167
1913.68, 0.620094
1914.39, 0.619872
1915.09, 0.619577
1915.8, 0.619430
1916.51, 0.619430
1917.22, 0.619209
1917.93, 0.618692
1918.64, 0.618545
1919.35, 0.618471
1920.06, 0.618250
1920.77, 0.618545
1921.48, 0.618323
1922.19, 0.618102
1922.91, 0.618028
1923.62, 0.617954
1924.33, 0.617733
1925.05, 0.617217
1925.76, 0.616995
1926.48, 0.616922
1927.19, 0.616774
1927.91, 0.616774
1928.63, 0.616700
1929.35, 0.616405
1930.07, 0.616037
1930.78, 0.615815
1931.5, 0.615520
1932.22, 0.615373
1932.94, 0.615520
1933.66, 0.615299
1934.39, 0.614782
1935.11, 0.614414
1935.83, 0.614192
1936.55, 0.614119
1937.28, 0.613750
1938.0, 0.613307
1938.73, 0.613233
1939.45, 0.613233
1940.18, 0.612864
1940.9, 0.612717
1941.63, 0.612569
1942.36, 0.612274
1943.09, 0.612127
1943.81, 0.612053
1944.54, 0.611758
1945.27, 0.611684
1946.0, 0.611610
1946.73, 0.611537
1947.47, 0.611537
1948.2, 0.611389
1948.93, 0.611094
1949.66, 0.611094
1950.4, 0.610947
1951.13, 0.610947
1951.86, 0.610799
1952.6, 0.610578
1953.34, 0.610283
1954.07, 0.610283
1954.81, 0.610430
1955.55, 0.610578
1956.29, 0.610578
1957.02, 0.610504
1957.76, 0.610356
1958.5, 0.610209
1959.24, 0.610430
1959.98, 0.610873
1960.72, 0.611020
1961.47, 0.611242
1962.21, 0.611020
1962.95, 0.610947
1963.7, 0.611020
1964.44, 0.611389
1965.18, 0.611389
1965.93, 0.611389
1966.67, 0.611684
1967.42, 0.611832
1968.17, 0.611537
1968.92, 0.611537
1969.66, 0.611610
1970.41, 0.611832
1971.16, 0.611832
1971.91, 0.611832
1972.66, 0.611906
1973.41, 0.611832
1974.16, 0.612053
1974.92, 0.612053
1975.67, 0.611684
1976.42, 0.611610
1977.18, 0.611832
1977.93, 0.611906
1978.69, 0.611832
1979.44, 0.611979
1980.2, 0.611758
1980.95, 0.611610
1981.71, 0.611389
1982.47, 0.611610
1983.23, 0.611758
1983.99, 0.611758
1984.74, 0.611610
1985.51, 0.611463
1986.27, 0.611463
1987.03, 0.611315
1987.79, 0.611315
1988.55, 0.611242
1989.32, 0.611242
1990.08, 0.611389
1990.84, 0.611094
1991.61, 0.611020
1992.37, 0.610947
1993.14, 0.610947
1993.9, 0.610651
1994.67, 0.610504
1995.44, 0.610504
1996.21, 0.610430
1996.98, 0.610209
1997.75, 0.610061
1998.52, 0.609988
1999.29, 0.609914
2000.06, 0.609914
2000.83, 0.610061
2001.6, 0.609914
2002.38, 0.609988
2003.15, 0.610283
2003.93, 0.610283
2004.7, 0.609988
2005.48, 0.610209
2006.25, 0.610356
2007.03, 0.610283
2007.81, 0.610135
2008.58, 0.610283
2009.36, 0.610209
2010.14, 0.609914
2010.92, 0.609692
2011.7, 0.609619
2012.48, 0.609545
2013.26, 0.609545
2014.05, 0.609397
2014.83, 0.609397
2015.61, 0.609102
2016.4, 0.608438
2017.18, 0.607848
2017.97, 0.607774
2018.75, 0.607701
2019.54, 0.607701
2020.32, 0.607479
2021.11, 0.606816
2021.9, 0.606225
2022.69, 0.606004
2023.48, 0.605635
2024.27, 0.605193
2025.06, 0.604897
2025.85, 0.604676
2026.64, 0.604234
2027.44, 0.603865
2028.23, 0.603275
2029.02, 0.602906
2029.82, 0.602537
2030.61, 0.602094
2031.41, 0.601726
2032.2, 0.601209
2033.0, 0.600767
2033.8, 0.600471
2034.6, 0.599881
2035.4, 0.599512
2036.2, 0.599144
2037.0, 0.598849
2037.8, 0.598185
2038.6, 0.597447
2039.4, 0.596783
2040.2, 0.596340
2041.01, 0.595824
2041.81, 0.594939
2042.61, 0.594127
2043.42, 0.593685
2044.22, 0.593242
2045.03, 0.592283
2045.84, 0.591472
2046.65, 0.591103
2047.46, 0.590218
2048.26, 0.589333
2049.07, 0.588669
2049.88, 0.587636
2050.69, 0.586677
2051.51, 0.585423
2052.32, 0.584243
2053.13, 0.583283
2053.94, 0.581808
2054.76, 0.580259
2055.57, 0.578784
2056.39, 0.577899
2057.2, 0.577013
2058.02, 0.576054
2058.84, 0.575095
2059.66, 0.574358
2060.48, 0.573841
2061.29, 0.573989
2062.11, 0.573915
2062.94, 0.573767
2063.76, 0.573472
2064.58, 0.573177
2065.4, 0.573104
2066.22, 0.572956
2067.05, 0.572735
2067.87, 0.572587
2068.7, 0.572071
2069.52, 0.571407
2070.35, 0.570595
2071.18, 0.569710
2072.0, 0.568825
2072.83, 0.567940
2073.66, 0.566464
2074.49, 0.564842
2075.32, 0.563071
2076.15, 0.561596
2076.98, 0.560194
2077.82, 0.559235
2078.65, 0.558793
2079.48, 0.558276
2080.32, 0.557981
2081.15, 0.557760
2081.99, 0.557612
2082.83, 0.557022
2083.66, 0.555989
2084.5, 0.555104
2085.34, 0.554219
2086.18, 0.553112
2087.02, 0.551932
2087.86, 0.550752
2088.7, 0.549498
2089.54, 0.548686
2090.39, 0.547875
2091.23, 0.547137
2092.07, 0.546252
2092.92, 0.545957
2093.76, 0.545662
2094.61, 0.545588
2095.45, 0.545662
2096.3, 0.545588
2097.15, 0.545588
2098.0, 0.545736
2098.85, 0.545367
2099.7, 0.544998
2100.55, 0.544482
2101.4, 0.543670
2102.25, 0.542637
2103.1, 0.541457
2103.96, 0.539687
2104.81, 0.537842
2105.67, 0.535482
2106.52, 0.533121
2107.38, 0.530244
2108.24, 0.526925
2109.09, 0.523236
2109.95, 0.519327
2110.81, 0.515491
2111.67, 0.512614
2112.53, 0.511360
2113.39, 0.511655
2114.25, 0.512983
2115.12, 0.515122
2115.98, 0.517556
2116.84, 0.520212
2117.71, 0.522868
2118.58, 0.525081
2119.44, 0.526408
2120.31, 0.527294
2121.18, 0.527736
2122.04, 0.527515
2122.91, 0.526777
2123.78, 0.525892
2124.65, 0.524712
2125.52, 0.523089
2126.4, 0.520950
2127.27, 0.518515
2128.14, 0.516081
2129.02, 0.513647
2129.89, 0.510843
2130.77, 0.507524
2131.64, 0.504278
2132.52, 0.500885
2133.4, 0.497418
2134.27, 0.493729
2135.15, 0.489819
2136.03, 0.485910
2136.91, 0.481926
2137.79, 0.477943
2138.68, 0.474328
2139.56, 0.470861
2140.44, 0.467247
2141.33, 0.463779
2142.21, 0.460534
2143.1, 0.457435
2143.99, 0.454190
2144.87, 0.451017
2145.76, 0.448362
2146.65, 0.446296
2147.54, 0.444157
2148.43, 0.442092
2149.32, 0.439657
2150.21, 0.437665
2151.1, 0.435748
2151.99, 0.433756
2152.89, 0.431617
2153.78, 0.428813
2154.68, 0.425346
2155.57, 0.421732
2156.47, 0.417379
2157.37, 0.412068
2158.27, 0.405650
2159.16, 0.398421
2160.06, 0.390380
2160.96, 0.381823
2161.86, 0.373119
2162.77, 0.364488
2163.67, 0.355857
2164.57, 0.347816
2165.48, 0.340439
2166.38, 0.334095
2167.29, 0.328710
2168.2, 0.324063
2169.1, 0.319489
2170.01, 0.315727
2170.92, 0.312481
2171.83, 0.309604
2172.74, 0.307022
2173.65, 0.304883
2174.56, 0.302744
2175.47, 0.300383
2176.39, 0.298096
2177.3, 0.295883
2178.22, 0.293449
2179.13, 0.291384
2180.05, 0.289687
2180.96, 0.289097
2181.88, 0.289539
2182.8, 0.291752
2183.72, 0.296178
2184.64, 0.302818
2185.56, 0.310711
2186.48, 0.319415
2187.41, 0.328415
2188.33, 0.337784
2189.25, 0.346636
2190.18, 0.354898
2191.1, 0.362422
2192.03, 0.369061
2192.96, 0.374077
2193.89, 0.378208
2194.82, 0.380717
2195.74, 0.381307
2196.68, 0.380200
2197.61, 0.376659
2198.54, 0.370094
2199.47, 0.360873
2200.4, 0.348923
2201.34, 0.334169
2202.28, 0.316465
2203.21, 0.295515
2204.15, 0.272056
2205.08, 0.248746
2206.02, 0.229345
2206.96, 0.219165
2207.9, 0.221968
2208.84, 0.236426
2209.78, 0.256934
2210.73, 0.278843
2211.67, 0.298982
2212.61, 0.316170
2213.56, 0.330628
2214.5, 0.343169
2215.45, 0.354529
2216.4, 0.364709
2217.35, 0.374004
2218.3, 0.383077
2219.24, 0.392298
2220.2, 0.401519
2221.15, 0.410740
2222.1, 0.419961
2223.05, 0.428740
2224.0, 0.436780
2224.96, 0.444083
2225.91, 0.450796
2226.87, 0.456624
2227.83, 0.461861
2228.79, 0.466066
2229.74, 0.469902
2230.7, 0.473222
2231.66, 0.476099
2232.63, 0.478238
2233.59, 0.480156
2234.55, 0.481779
2235.51, 0.483033
2236.48, 0.483770
2237.44, 0.484287
2238.41, 0.484434
2239.38, 0.483992
2240.34, 0.483697
2241.31, 0.483107
2242.28, 0.481779
2243.25, 0.480156
2244.22, 0.478164
2245.19, 0.476025
2246.17, 0.473443
2247.14, 0.470492
2248.12, 0.467837
2249.09, 0.465107
2250.07, 0.462230
2251.04, 0.459722
2252.02, 0.457362
2253.0, 0.455370
2253.98, 0.453009
2254.96, 0.451165
2255.94, 0.449468
2256.92, 0.448362
2257.91, 0.447329
2258.89, 0.446665
2259.88, 0.446665
2260.86, 0.447182
2261.85, 0.448214
2262.83, 0.449616
2263.82, 0.450722
2264.81, 0.451681
2265.8, 0.452567
2266.79, 0.453304
2267.78, 0.453304
2268.78, 0.453157
2269.77, 0.452935
2270.76, 0.452419
2271.76, 0.451608
2272.75, 0.450796
2273.75, 0.449837
2274.75, 0.448583
2275.75, 0.447108
2276.75, 0.445632
2277.75, 0.444010
2278.75, 0.442018
2279.75, 0.439805
2280.75, 0.437518
2281.76, 0.434862
2282.76, 0.432059
2283.77, 0.428813
2284.77, 0.425641
2285.78, 0.422617
2286.79, 0.419445
2287.8, 0.415904
2288.81, 0.412068
2289.82, 0.408380
2290.83, 0.404986
2291.84, 0.401298
2292.86, 0.397831
2293.87, 0.394585
2294.89, 0.391339
2295.91, 0.388388
2296.92, 0.385807
2297.94, 0.383446
2298.96, 0.381602
2299.98, 0.379979
2301.0, 0.378799
2302.02, 0.377913
2303.04, 0.377397
2304.07, 0.376881
2305.09, 0.376807
2306.12, 0.376733
2307.15, 0.376807
2308.17, 0.376733
2309.2, 0.376954
2310.23, 0.377618
2311.26, 0.378282
2312.29, 0.379094
2313.32, 0.380053
2314.35, 0.381085
2315.39, 0.382118
2316.42, 0.383372
2317.46, 0.384774
2318.5, 0.385659
2319.53, 0.386175
2320.57, 0.386175
2321.61, 0.386102
2322.65, 0.385585
2323.69, 0.385290
2324.73, 0.384700
2325.78, 0.384036
2326.82, 0.383372
2327.86, 0.383151
2328.91, 0.383225
2329.96, 0.383520
2331.01, 0.383962
2332.05, 0.384626
2333.1, 0.384995
2334.15, 0.384921
2335.21, 0.384848
2336.26, 0.384405
2337.31, 0.383077
2338.36, 0.381159
2339.42, 0.378946
2340.48, 0.376438
2341.53, 0.373340
2342.59, 0.369947
2343.65, 0.366406
2344.71, 0.363160
2345.77, 0.359767
2346.83, 0.356595
2347.9, 0.353570
2348.96, 0.350914
2350.02, 0.348628
2351.09, 0.346710
2352.16, 0.344792
2353.23, 0.343464
2354.29, 0.342800
2355.36, 0.342652
2356.43, 0.343021
2357.51, 0.344497
2358.58, 0.346488
2359.65, 0.348554
2360.73, 0.350472
2361.8, 0.352168
2362.88, 0.353054
2363.96, 0.353570
2365.03, 0.353275
2366.11, 0.352168
2367.19, 0.350103
2368.27, 0.347521
2369.36, 0.344201
2370.44, 0.340366
2371.53, 0.336456
2372.61, 0.332325
2373.7, 0.328563
2374.78, 0.325169
2375.87, 0.322219
2376.96, 0.319489
2378.05, 0.316907
2379.14, 0.314547
2380.24, 0.312334
2381.33, 0.310342
2382.42, 0.308867
2383.52, 0.308719
2384.61, 0.309752
2385.71, 0.311448
2386.81, 0.313514
2387.91, 0.315653
2389.01, 0.317793
2390.11, 0.319784
2391.22, 0.321407
2392.32, 0.323178
2393.42, 0.325391
2394.53, 0.328046
2395.64, 0.331145
2396.74, 0.334390
2397.85, 0.337857
2398.96, 0.341029
2400.07, 0.343611
2401.18, 0.345677
2402.3, 0.347226
2403.41, 0.348554
2404.52, 0.349439
2405.64, 0.350177
2406.76, 0.350693
2407.88, 0.350988
2408.99, 0.351136
2410.11, 0.351136
2411.23, 0.351136
2412.36, 0.350988
2413.48, 0.350767
2414.6, 0.350693
2415.73, 0.350546
2416.85, 0.350546
2417.98, 0.350472
2419.11, 0.350324
2420.24, 0.349882
2421.37, 0.349439
2422.5, 0.348923
2423.64, 0.348111
2424.77, 0.347005
2425.9, 0.345751
2427.04, 0.344201
2428.18, 0.342357
2429.31, 0.340439
2430.45, 0.338300
2431.59, 0.335571
2432.73, 0.332694
2433.88, 0.329448
2435.02, 0.326350
2436.16, 0.323104
2437.31, 0.320301
2438.45, 0.318383
2439.6, 0.317424
2440.75, 0.316612
2441.9, 0.316243
2443.05, 0.316022
2444.2, 0.316022
2445.35, 0.316096
2446.51, 0.316243
2447.67, 0.316538
2448.82, 0.316981
2449.98, 0.317350
2451.14, 0.317645
2452.3, 0.317719
2453.46, 0.317866
2454.62, 0.317645
2455.78, 0.317055
2456.94, 0.316612
2458.11, 0.316317
2459.28, 0.316096
2460.44, 0.315727
2461.61, 0.315284
2462.78, 0.314694
2463.95, 0.313809
2465.12, 0.312998
2466.3, 0.312260
2467.47, 0.311301
2468.65, 0.310194
2469.82, 0.309235
2471.0, 0.307760
2472.18, 0.306358
2473.36, 0.304883
2474.54, 0.303186
2475.72, 0.301195
2476.9, 0.299055
2478.08, 0.296842
2479.27, 0.294334
2480.46, 0.291531
2481.64, 0.288433
2482.83, 0.285335
2484.02, 0.282236
2485.21, 0.279359
2486.4, 0.277515
2487.6, 0.277146
2488.79, 0.278327
2489.99, 0.279950
2491.18, 0.281572
2492.38, 0.282826
2493.58, 0.283785
2494.78, 0.284523
2495.98, 0.284892
2497.18, 0.284671
2498.39, 0.284302
2499.59, 0.283564
2500.8, 0.282605
2502.01, 0.281425
2503.21, 0.280245
2504.42, 0.278917
2505.63, 0.277441
2506.84, 0.275597
2508.06, 0.273753
2509.27, 0.272130
2510.49, 0.270655
2511.7, 0.268737
2512.92, 0.266819
2514.14, 0.264901
2515.36, 0.263204
2516.58, 0.261434
2517.8, 0.259590
2519.03, 0.257598
2520.25, 0.256049
2521.48, 0.254426
2522.7, 0.253098
2523.93, 0.251918
2525.16, 0.250664
2526.39, 0.249115
2527.62, 0.247934
2528.86, 0.246901
2530.09, 0.246385
2531.33, 0.245942
2532.56, 0.245647
2533.8, 0.245205
2535.04, 0.244688
2536.28, 0.243729
2537.52, 0.242697
2538.76, 0.242180
2540.01, 0.242254
2541.25, 0.243066
2542.5, 0.244320
2543.75, 0.245647
2544.99, 0.246828
2546.24, 0.247713
2547.49, 0.248156
2548.75, 0.247713
2550.0, 0.246901
2551.26, 0.245574
2552.51, 0.243582
2553.77, 0.240336
2555.03, 0.236353
2556.29, 0.231705
2557.55, 0.226468
2558.81, 0.220861
2560.08, 0.215550
2561.34, 0.210091
2562.61, 0.204854
2563.88, 0.200059
2565.14, 0.195485
2566.41, 0.191207
2567.68, 0.187961
2568.96, 0.185305
2570.23, 0.182576
2571.51, 0.180068
2572.78, 0.178666
2574.06, 0.176969
2575.34, 0.175199
2576.62, 0.173576
2577.9, 0.171584
2579.18, 0.169445
2580.47, 0.167453
2581.75, 0.165388
2583.04, 0.163544
2584.32, 0.161478
2585.61, 0.159486
2586.9, 0.157863
2588.2, 0.156609
2589.49, 0.155724
2590.78, 0.155282
2592.08, 0.155429
2593.37, 0.156536
2594.67, 0.157937
2595.97, 0.158232
2597.27, 0.158454
2598.57, 0.159191
2599.88, 0.160077
2601.18, 0.161036
2602.49, 0.161773
2603.79, 0.162658
2605.1, 0.163322
2606.41, 0.163396
2607.72, 0.163396
2609.03, 0.163617
2610.35, 0.163765
2611.66, 0.163617
2612.98, 0.163544
2614.3, 0.163101
2615.62, 0.162585
2616.94, 0.162142
2618.26, 0.160962
2619.58, 0.160150
2620.91, 0.158822
2622.23, 0.156905
2623.56, 0.155429
2624.89, 0.154249
2626.22, 0.152921
2627.55, 0.150929
2628.88, 0.149085
2630.21, 0.147610
2631.55, 0.145323
2632.89, 0.143257
2634.22, 0.141413
2635.56, 0.139422
2636.9, 0.137872
2638.25, 0.136618
2639.59, 0.135364
2640.93, 0.134110
2642.28, 0.132856
2643.63, 0.131455
2644.98, 0.129905
2646.33, 0.128283
2647.68, 0.126586
2649.03, 0.125037
2650.39, 0.123266
2651.74, 0.121570
2653.1, 0.119652
2654.46, 0.117586
2655.82, 0.115373
2657.18, 0.112939
2658.54, 0.110578
2659.9, 0.108144
2661.27, 0.105341
2662.64, 0.102538
2664.01, 0.100029
2665.38, 0.0970050
2666.74, 0.0934640
2668.12, 0.0897760
2669.49, 0.0866040
2670.87, 0.0830630
2672.24, 0.0789320
2673.62, 0.0751700
2675.0, 0.0713340
2676.38, 0.0674240
2677.76, 0.0629980
2679.15, 0.0584980
2680.54, 0.0538510
2681.92, 0.0492770
2683.31, 0.0447770
2684.7, 0.0402770
2686.09, 0.0359250
2687.48, 0.0318680
2688.88, 0.0281060
2690.27, 0.0253020
2691.67, 0.0233840
2693.07, 0.0220570
2694.47, 0.0214660
2695.87, 0.0217620
2697.27, 0.0223520
2698.67, 0.0232370
2700.08, 0.0241960
2701.49, 0.0250810
2702.9, 0.0258190
2704.31, 0.0267040
2705.72, 0.0274420
2707.13, 0.0282530
2708.54, 0.0289910
2709.96, 0.0303190
2711.38, 0.0316460
2712.8, 0.0327530
2714.22, 0.0339330
2715.64, 0.0351140
2717.06, 0.0362940
2718.49, 0.0371050
2719.91, 0.0374000
2721.34, 0.0368840
2722.77, 0.0357770
2724.2, 0.0342280
2725.63, 0.0320890
2727.07, 0.0299500
2728.5, 0.0275890
2729.94, 0.0255240
2731.38, 0.0239750
2732.82, 0.0237530
2734.26, 0.0249340
2735.7, 0.0272940
2737.15, 0.0298760
2738.59, 0.0329010
2740.04, 0.0355560
2741.49, 0.0371790
2742.94, 0.0374000
2744.39, 0.0365150
2745.84, 0.0343760
2747.3, 0.0316460
2748.76, 0.0288430
2750.21, 0.0264090
2751.67, 0.0241220
2753.14, 0.0222040
2754.6, 0.0204340
2756.06, 0.0194750
2757.53, 0.0200650
2759.0, 0.0244910
2760.46, 0.0292120
2761.94, 0.0293600
2763.41, 0.0277370
2764.88, 0.0275890
2766.36, 0.0286220
2767.83, 0.0305400
2769.31, 0.0332690
2770.79, 0.0365890
2772.27, 0.0402770
2773.76, 0.0441870
2775.24, 0.0480230
2776.73, 0.0515640
2778.22, 0.0551780
2779.71, 0.0596050
2781.2, 0.0635880
2782.69, 0.0673500
2784.18, 0.0706700
2785.68, 0.0739160
2787.18, 0.0768660
2788.68, 0.0794480
2790.18, 0.0818820
2791.68, 0.0843910
2793.19, 0.0866040
2794.69, 0.0885950
2796.2, 0.0903660
2797.71, 0.0921360
2799.22, 0.0937590
2800.73, 0.0953820
2802.24, 0.0970050
2803.76, 0.0981850
2805.28, 0.0989230
2806.8, 0.0995870
2808.32, 0.100103
2809.84, 0.100472
2811.36, 0.100988
2812.89, 0.102316
2814.42, 0.103865
2815.94, 0.105414
2817.48, 0.106964
2819.01, 0.108586
2820.54, 0.110062
2822.08, 0.111537
2823.61, 0.113013
2825.15, 0.114562
2826.69, 0.116037
2828.23, 0.117512
2829.78, 0.118766
2831.32, 0.120094
2832.87, 0.121496
2834.42, 0.123045
2835.97, 0.124152
2837.52, 0.125258
2839.08, 0.126512
2840.63, 0.127987
2842.19, 0.129168
2843.75, 0.130127
2845.31, 0.131086
2846.87, 0.132045
2848.44, 0.132782
2850.0, 0.133668
2851.57, 0.134405
2853.14, 0.135364
2854.71, 0.136397
2856.28, 0.137504
2857.86, 0.138758
2859.43, 0.140233
2861.01, 0.141635
2862.59, 0.142815
2864.17, 0.143479
2865.76, 0.144216
2867.34, 0.144880
2868.93, 0.145618
2870.52, 0.146208
2872.11, 0.146872
2873.7, 0.147388
2875.29, 0.148052
2876.89, 0.149011
2878.49, 0.149675
2880.08, 0.150118
2881.69, 0.150782
2883.29, 0.151446
2884.89, 0.152036
2886.5, 0.152626
2888.11, 0.153290
2889.72, 0.153733
2891.33, 0.154396
2892.94, 0.155208
2894.56, 0.156683
2896.17, 0.158527
2897.79, 0.161109
2899.42, 0.164281
2901.04, 0.167822
2902.66, 0.170994
2904.29, 0.174240
2905.92, 0.176969
2907.55, 0.178887
2909.18, 0.180289
2910.81, 0.182871
2912.45, 0.186633
2914.08, 0.191133
2915.72, 0.195338
2917.36, 0.198731
2919.01, 0.201755
2920.65, 0.205223
2922.3, 0.208837
2923.94, 0.212599
2925.59, 0.216435
2927.25, 0.220197
2928.9, 0.223369
2930.56, 0.226320
2932.21, 0.228681
2933.87, 0.230377
2935.53, 0.231558
2937.2, 0.232369
2938.86, 0.232886
2940.53, 0.233402
2942.2, 0.233476
2943.87, 0.233697
2945.54, 0.234140
2947.22, 0.234656
2948.89, 0.235025
2950.57, 0.235615
2952.25, 0.236648
2953.93, 0.237828
2955.62, 0.238861
2957.3, 0.240041
2958.99, 0.241074
2960.68, 0.242180
2962.37, 0.243656
2964.07, 0.245574
2965.76, 0.247565
2967.46, 0.249631
2969.16, 0.251401
2970.86, 0.253319
2972.56, 0.254942
2974.27, 0.256491
2975.98, 0.258114
2977.69, 0.260401
2979.4, 0.262835
2981.11, 0.265417
2982.83, 0.267999
2984.54, 0.270212
2986.26, 0.272204
2987.98, 0.274343
2989.71, 0.276704
2991.43, 0.278991
2993.16, 0.281277
2994.89, 0.283712
2996.62, 0.285851
2998.35, 0.287843
3000.09, 0.289539
3001.83, 0.290720
3003.57, 0.291384
3005.31, 0.292121
3007.05, 0.292711
3008.79, 0.293080
3010.54, 0.293228
3012.29, 0.293006
3014.04, 0.292195
3015.8, 0.291457
3017.55, 0.291015
3019.31, 0.291384
3021.07, 0.292269
3022.83, 0.294113
3024.59, 0.296326
3026.36, 0.298539
3028.13, 0.299941
3029.9, 0.300752
3031.67, 0.300900
3033.44, 0.301195
3035.22, 0.301785
3037.0, 0.303039
3038.78, 0.304736
3040.56, 0.306358
3042.34, 0.307760
3044.13, 0.309235
3045.92, 0.310563
3047.71, 0.311891
3049.5, 0.313219
3051.3, 0.314620
3053.09, 0.316096
3054.89, 0.317350
3056.69, 0.318383
3058.5, 0.319489
3060.3, 0.320669
3062.11, 0.321850
3063.92, 0.322883
3065.73, 0.323694
3067.55, 0.324284
3069.36, 0.325169
3071.18, 0.325538
3073.0, 0.325686
3074.82, 0.325759
3076.65, 0.325833
3078.48, 0.325464
3080.31, 0.325317
3082.14, 0.325464
3083.97, 0.325612
3085.8, 0.325464
3087.64, 0.325464
3089.48, 0.325686
3091.33, 0.326350
3093.17, 0.326866
3095.02, 0.327604
3096.87, 0.328710
3098.72, 0.330481
3100.57, 0.332620
3102.43, 0.335276
3104.28, 0.337784
3106.14, 0.340366
3108.01, 0.342726
3109.87, 0.344792
3111.74, 0.346562
3113.61, 0.348259
3115.48, 0.349808
3117.35, 0.351136
3119.23, 0.352390
3121.1, 0.353718
3122.98, 0.354750
3124.87, 0.355857
3126.75, 0.357111
3128.64, 0.358365
3130.53, 0.359840
3132.42, 0.361611
3134.31, 0.363234
3136.21, 0.364930
3138.11, 0.366553
3140.01, 0.368324
3141.91, 0.370168
3143.82, 0.371938
3145.73, 0.373635
3147.64, 0.375405
3149.55, 0.377250
3151.46, 0.379094
3153.38, 0.380495
3155.3, 0.382044
3157.22, 0.383520
3159.14, 0.384774
3161.07, 0.385733
3163.0, 0.386692
3164.93, 0.387725
3166.86, 0.388905
3168.8, 0.390085
3170.74, 0.391265
3172.68, 0.392520
3174.62, 0.393847
3176.56, 0.394880
3178.51, 0.395839
3180.46, 0.396798
3182.42, 0.397905
3184.37, 0.398937
3186.33, 0.399896
3188.29, 0.400486
3190.25, 0.401003
3192.21, 0.401445
3194.18, 0.401888
3196.15, 0.402478
3198.12, 0.403068
3200.09, 0.403511
3202.07, 0.404175
3204.05, 0.404691
3206.03, 0.405429
3208.02, 0.406093
3210.0, 0.406757
3211.99, 0.407273
3213.98, 0.408158
3215.98, 0.408822
3217.97, 0.409560
3219.97, 0.410445
3221.97, 0.411478
3223.98, 0.411920
3225.98, 0.412437
3227.99, 0.412953
3230.0, 0.413470
3232.02, 0.413912
3234.03, 0.414060
3236.05, 0.414207
3238.07, 0.414355
3240.1, 0.414134
3242.12, 0.414355
3244.15, 0.414576
3246.18, 0.414650
3248.22, 0.414650
3250.25, 0.414871
3252.29, 0.414797
3254.33, 0.415019
3256.38, 0.415240
3258.43, 0.415978
3260.47, 0.416715
3262.53, 0.417527
3264.58, 0.418265
3266.64, 0.419002
3268.7, 0.419887
3270.76, 0.420773
3272.82, 0.421437
3274.89, 0.422543
3276.96, 0.423650
3279.04, 0.424609
3281.11, 0.425568
3283.19, 0.426674
3285.27, 0.427854
3287.35, 0.429108
3289.44, 0.430067
3291.53, 0.431321
3293.62, 0.432723
3295.71, 0.433903
3297.81, 0.434936
3299.91, 0.436116
3302.01, 0.437297
3304.11, 0.438329
3306.22, 0.439141
3308.33, 0.439805
3310.44, 0.440395
3312.56, 0.440985
3314.68, 0.441354
3316.8, 0.441723
3318.92, 0.442313
3321.05, 0.442977
3323.18, 0.443419
3325.31, 0.444157
3327.44, 0.444895
3329.58, 0.445632
3331.72, 0.446591
3333.86, 0.447624
3336.01, 0.448362
3338.16, 0.449173
3340.31, 0.449911
3342.46, 0.450649
3344.61, 0.451386
3346.77, 0.452198
3348.94, 0.452567
3351.1, 0.453009
3353.27, 0.453599
3355.44, 0.454116
3357.61, 0.454411
3359.79, 0.454632
3361.97, 0.454780
3364.15, 0.454780
3366.33, 0.454558
3368.52, 0.454263
3370.71, 0.454116
3372.9, 0.454263
3375.1, 0.454485
3377.3, 0.455001
3379.5, 0.455812
3381.71, 0.456919
3383.91, 0.457878
3386.12, 0.458763
3388.34, 0.459132
3390.55, 0.459427
3392.77, 0.459501
3394.99, 0.459427
3397.22, 0.459058
3399.45, 0.458321
3401.68, 0.457435
3403.91, 0.456698
3406.15, 0.455739
3408.39, 0.454853
3410.63, 0.454042
3412.87, 0.453452
3415.12, 0.453157
3417.37, 0.453599
3419.63, 0.454632
3421.88, 0.456181
3424.14, 0.457878
3426.41, 0.459648
3428.67, 0.461566
3430.94, 0.463484
3433.21, 0.465107
3435.49, 0.466214
3437.77, 0.467099
3440.05, 0.468205
3442.33, 0.469238
3444.62, 0.470123
3446.91, 0.470935
3449.2, 0.471894
3451.5, 0.472779
3453.8, 0.473738
3456.1, 0.474623
3458.41, 0.475509
3460.72, 0.476172
3463.03, 0.476910
3465.34, 0.477648
3467.66, 0.478238
3469.98, 0.478385
3472.31, 0.478754
3474.63, 0.479197
3476.96, 0.479935
3479.3, 0.480598
3481.64, 0.481262
3483.97, 0.481557
3486.32, 0.481705
3488.66, 0.481779
3491.01, 0.481484
3493.36, 0.481041
3495.72, 0.480598
3498.08, 0.480156
3500.44, 0.480156
3502.81, 0.480598
3505.18, 0.481484
3507.55, 0.482738
3509.92, 0.484434
3512.3, 0.485836
3514.68, 0.486869
3517.06, 0.487533
3519.45, 0.487754
3521.84, 0.487680
3524.24, 0.487385
3526.64, 0.486721
3529.04, 0.485984
3531.44, 0.485025
3533.85, 0.484066
3536.26, 0.483033
3538.67, 0.482295
3541.09, 0.481779
3543.51, 0.481705
3545.93, 0.481853
3548.36, 0.482590
3550.79, 0.483697
3553.22, 0.485172
3555.66, 0.486721
3558.1, 0.488418
3560.54, 0.490041
3562.99, 0.492032
3565.44, 0.493877
3567.9, 0.495795
3570.35, 0.497491
3572.81, 0.499188
3575.28, 0.500811
3577.75, 0.502360
3580.22, 0.503319
3582.69, 0.504352
3585.17, 0.505237
3587.65, 0.506270
3590.14, 0.506934
3592.62, 0.507450
3595.11, 0.507893
3597.61, 0.508483
3600.11, 0.508925
3602.61, 0.509220
3605.11, 0.509368
3607.62, 0.509589
3610.14, 0.509663
3612.65, 0.509737
3615.17, 0.509368
3617.69, 0.508999
3620.22, 0.508483
3622.75, 0.507745
3625.28, 0.507007
3627.82, 0.506565
3630.36, 0.506122
3632.9, 0.505753
3635.45, 0.505680
3638.0, 0.505827
3640.56, 0.505901
3643.12, 0.506196
3645.68, 0.506344
3648.24, 0.506270
3650.81, 0.505753
3653.39, 0.504794
3655.96, 0.503393
3658.54, 0.502876
3661.13, 0.503835
3663.71, 0.505532
3666.3, 0.507007
3668.9, 0.507819
3671.5, 0.507893
3674.1, 0.507376
3676.7, 0.506122
3679.31, 0.504057
3681.93, 0.500737
3684.54, 0.495942
3687.17, 0.489451
3689.79, 0.482221
3692.42, 0.475287
3695.05, 0.470640
3697.69, 0.470271
3700.32, 0.474992
3702.97, 0.483033
3705.61, 0.491516
3708.27, 0.498598
3710.92, 0.503688
3713.58, 0.505311
3716.24, 0.502729
3718.91, 0.495647
3721.58, 0.491074
3724.25, 0.493877
3726.93, 0.497122
3729.61, 0.494541
3732.29, 0.491295
3734.98, 0.493287
3737.67, 0.495057
3740.37, 0.493360
3743.07, 0.501475
3745.78, 0.511581
3748.49, 0.515048
3751.2, 0.516007
3753.91, 0.516228
3756.63, 0.516523
3759.36, 0.516745
3762.09, 0.517040
3764.82, 0.517556
3767.55, 0.518220
3770.29, 0.518589
3773.04, 0.519179
3775.78, 0.519917
3778.54, 0.520654
3781.29, 0.521318
3784.05, 0.522056
3786.82, 0.522868
3789.59, 0.523827
3792.36, 0.525007
3795.13, 0.525966
3797.92, 0.526925
3800.7, 0.527958
3803.49, 0.529064
3806.28, 0.530171
3809.08, 0.530982
3811.88, 0.531867
3814.68, 0.532900
3817.49, 0.533416
3820.31, 0.534154
3823.12, 0.534965
3825.94, 0.535408
3828.77, 0.535629
3831.6, 0.536072
3834.43, 0.536441
3837.27, 0.537031
3840.11, 0.537326
3842.96, 0.537474
3845.81, 0.537916
3848.67, 0.538506
3851.53, 0.538875
3854.39, 0.539096
3857.26, 0.539318
3860.13, 0.539834
3863.01, 0.539982
3865.89, 0.540203
3868.77, 0.540424
3871.66, 0.540572
3874.55, 0.540351
3877.45, 0.540129
3880.35, 0.540277
3883.26, 0.540646
3886.17, 0.540572
3889.09, 0.540793
3892.01, 0.541088
3894.93, 0.541236
3897.86, 0.541162
3900.79, 0.541162
3903.73, 0.541088
3906.67, 0.540793
3909.62, 0.540719
3912.57, 0.541088
3915.52, 0.540867
3918.48, 0.540867
3921.45, 0.540867
3924.42, 0.540793
3927.39, 0.540498
3930.37, 0.540498
3933.35, 0.540498
3936.34, 0.540351
3939.33, 0.540424
3942.32, 0.540351
3945.32, 0.539908
3948.33, 0.539465
3951.34, 0.538875
3954.35, 0.539023
3957.37, 0.539392
3960.39, 0.539023
3963.42, 0.538801
3966.45, 0.538949
3969.49, 0.538506
3972.53, 0.538211
3975.58, 0.538064
3978.63, 0.537916
3981.68, 0.537769
3984.75, 0.537547
3987.81, 0.537326
3990.88, 0.536883
3993.95, 0.536810
3997.03, 0.536810
4000.12, 0.536441
4003.21, 0.536146
4006.3, 0.535703
4009.4, 0.535334
4012.5, 0.534892
4015.61, 0.534744
4018.72, 0.534523
4021.84, 0.534228
4024.96, 0.534080
4028.09, 0.533711
4031.22, 0.533195
4034.36, 0.533269
4037.5, 0.533048
4040.65, 0.532679
4043.8, 0.532531
4046.96, 0.532605
4050.12, 0.532531
4053.29, 0.532310
4056.46, 0.532236
4059.64, 0.532384
4062.82, 0.532384
4066.0, 0.532605
4069.19, 0.532605
4072.39, 0.532384
4075.59, 0.532089
4078.8, 0.532162
4082.01, 0.532310
4085.23, 0.532162
4088.45, 0.532089
4091.68, 0.532310
4094.91, 0.532310
4098.15, 0.532457
4101.39, 0.532605
4104.63, 0.532679
4107.89, 0.532531
4111.14, 0.532457
4114.41, 0.532752
4117.67, 0.532900
4120.95, 0.532679
4124.23, 0.532531
4127.51, 0.532531
4130.8, 0.532605
4134.09, 0.532752
4137.39, 0.532974
4140.7, 0.532826
4144.01, 0.532900
4147.32, 0.532679
4150.64, 0.532457
4153.97, 0.532531
4157.3, 0.532900
4160.64, 0.532826
4163.98, 0.532457
4167.33, 0.532236
4170.68, 0.532384
4174.04, 0.532384
4177.4, 0.532310
4180.77, 0.532236
4184.14, 0.532236
4187.52, 0.532162
4190.91, 0.532384
4194.3, 0.532384
4197.69, 0.532384
4201.1, 0.532236
4204.5, 0.532015
4207.92, 0.532015
4211.34, 0.532384
4214.76, 0.532310
4218.19, 0.532162
4221.62, 0.532384
4225.06, 0.532531
4228.51, 0.532236
4231.96, 0.532089
4235.42, 0.532015
4238.88, 0.531867
4242.35, 0.531277
4245.83, 0.530834
4249.31, 0.530392
4252.79, 0.530097
4256.28, 0.529359
4259.78, 0.529212
4263.29, 0.529212
4266.79, 0.528769
4270.31, 0.528253
4273.83, 0.528253
4277.35, 0.527958
4280.89, 0.527515
4284.42, 0.526851
4287.97, 0.526261
4291.52, 0.525302
4295.07, 0.524417
4298.63, 0.523531
4302.2, 0.522941
4305.78, 0.521761
4309.35, 0.520286
4312.94, 0.519179
4316.53, 0.518441
4320.13, 0.517556
4323.73, 0.516671
4327.34, 0.515638
4330.96, 0.514679
4334.58, 0.513499
4338.21, 0.512688
4341.84, 0.511729
4345.48, 0.510991
4349.12, 0.510548
4352.77, 0.510401
4356.43, 0.509884
4360.1, 0.509811
4363.76, 0.509737
4367.44, 0.509589
4371.12, 0.509147
4374.81, 0.508999
4378.51, 0.508778
4382.21, 0.508114
4385.92, 0.507303
4389.63, 0.506491
4393.35, 0.505532
4397.08, 0.504573
4400.81, 0.503540
4404.55, 0.502803
4408.29, 0.502065
4412.04, 0.501770
4415.8, 0.501253
4419.57, 0.501106
4423.34, 0.501401
4427.12, 0.501253
4430.9, 0.500516
4434.69, 0.500295
4438.49, 0.500147
4442.29, 0.499852
4446.1, 0.499336
4449.92, 0.498672
4453.74, 0.497196
4457.57, 0.495647
4461.41, 0.493729
4465.25, 0.491442
4469.1, 0.488713
4472.95, 0.486057
4476.82, 0.482959
4480.69, 0.480451
4484.56, 0.478459
4488.44, 0.476467
4492.33, 0.474476
4496.23, 0.472705
4500.13, 0.471304
4504.04, 0.470640
4507.96, 0.469755
4511.88, 0.468869
4515.81, 0.468427
4519.75, 0.468648
4523.69, 0.468353
4527.65, 0.468869
4531.6, 0.469164
4535.57, 0.469681
4539.54, 0.470050
4543.52, 0.470345
4547.5, 0.469828
4551.5, 0.468869
4555.5, 0.467615
4559.5, 0.466361
4563.52, 0.464738
4567.54, 0.462894
4571.56, 0.460755
4575.6, 0.458689
4579.64, 0.456329
4583.69, 0.453894
4587.75, 0.450870
4591.81, 0.447845
4595.88, 0.444526
4599.96, 0.441206
4604.04, 0.437444
4608.14, 0.433239
4612.24, 0.428371
4616.34, 0.423723
4620.46, 0.418928
4624.58, 0.413396
4628.71, 0.407347
4632.84, 0.402036
4636.99, 0.396872
4641.14, 0.391561
4645.3, 0.386913
4649.47, 0.383372
4653.64, 0.380569
4657.82, 0.378504
4662.01, 0.377545
4666.21, 0.377028
4670.41, 0.376586
4674.62, 0.376807
4678.84, 0.376512
4683.07, 0.376586
4687.3, 0.376733
4691.54, 0.376881
4695.79, 0.377028
4700.05, 0.377840
4704.31, 0.378430
4708.59, 0.379094
4712.87, 0.379610
4717.15, 0.380200
4721.45, 0.379758
4725.76, 0.379536
4730.07, 0.379020
4734.39, 0.379167
4738.72, 0.379094
4743.05, 0.378651
4747.39, 0.377766
4751.75, 0.376659
4756.1, 0.375774
4760.47, 0.374594
4764.85, 0.372528
4769.23, 0.371201
4773.62, 0.369578
4778.02, 0.366922
4782.43, 0.364266
4786.85, 0.361980
4791.27, 0.359398
4795.7, 0.356521
4800.14, 0.352095
4804.59, 0.349070
4809.05, 0.346488
4813.51, 0.344570
4817.99, 0.341915
4822.47, 0.340292
4826.96, 0.338890
4831.46, 0.336972
4835.96, 0.334612
4840.48, 0.332546
4845.0, 0.330628
4849.54, 0.328636
4854.08, 0.325686
4858.63, 0.323915
4863.18, 0.321481
4867.75, 0.318235
4872.33, 0.314473
4876.91, 0.311301
4881.5, 0.308129
4886.1, 0.305473
4890.71, 0.303039
4895.33, 0.300457
4899.96, 0.297875
4904.59, 0.296474
4909.24, 0.294556
4913.89, 0.293302
4918.55, 0.291162
4923.22, 0.289023
4927.9, 0.286736
4932.59, 0.284228
4937.29, 0.281204
4942.0, 0.278253
4946.71, 0.274933
4951.44, 0.272425
4956.17, 0.268884
4960.91, 0.265565
4965.67, 0.262098
4970.43, 0.258483
4975.2, 0.253983
4979.98, 0.248893
4984.76, 0.244098
4989.56, 0.239230
4994.37, 0.234582
4999.18, 0.230377
5004.01, 0.225435
5008.84, 0.221452
5013.69, 0.217689
5018.54, 0.214222
5023.4, 0.209649
5028.28, 0.205223
5033.16, 0.200354
5038.05, 0.194748
5042.95, 0.189362
5047.86, 0.184936
5052.78, 0.180879
5057.71, 0.176748
5062.65, 0.171658
5067.6, 0.167158
5072.56, 0.162953
5077.53, 0.159781
5082.5, 0.156019
5087.49, 0.152405
5092.49, 0.148569
5097.5, 0.145249
5102.51, 0.142151
5107.54, 0.140085
5112.58, 0.137872
5117.62, 0.136249
5122.68, 0.134479
5127.75, 0.133373
5132.82, 0.132118
5137.91, 0.131750
5143.01, 0.131086
5148.12, 0.130053
5153.23, 0.128799
5158.36, 0.128356
5163.5, 0.127766
5168.65, 0.126733
5173.81, 0.125479
5178.98, 0.125258
5184.15, 0.125332
5189.34, 0.125996
5194.54, 0.126512
5199.75, 0.127914
5204.98, 0.128725
5210.21, 0.130053
5215.45, 0.131676
5220.7, 0.133151
5225.96, 0.133889
5231.23, 0.136176
5236.52, 0.138610
5241.81, 0.140897
5247.12, 0.142225
5252.44, 0.144143
5257.76, 0.146061
5263.1, 0.147905
5268.45, 0.149380
5273.81, 0.151741
5279.18, 0.152921
5284.56, 0.154101
5289.95, 0.154618
5295.36, 0.154618
5300.77, 0.154396
