Database of Origin, USGS Spectral Database
Sample Description, See USGS database for additional info
Date Added,2016-08-10 05:19:03.210347

Data ID,USGS_oli15          
Sample ID, olivine_gds71.16638
Mineral Name, olivine
Material Class,Nesosilicate

Wavelength
1488.84, 0.608493
1489.27, 0.608437
1489.7, 0.608827
1490.13, 0.609216
1490.56, 0.609439
1490.98, 0.609773
1491.41, 0.610106
1491.84, 0.610273
1492.27, 0.610385
1492.7, 0.610496
1493.13, 0.610607
1493.56, 0.610830
1493.99, 0.610997
1494.42, 0.611164
1494.85, 0.611609
1495.29, 0.612110
1495.72, 0.612221
1496.15, 0.612277
1496.58, 0.612778
1497.01, 0.613056
1497.44, 0.612778
1497.88, 0.613111
1498.31, 0.613612
1498.74, 0.613946
1499.18, 0.614224
1499.61, 0.614391
1500.04, 0.614558
1500.48, 0.614670
1500.91, 0.615059
1501.35, 0.615449
1501.78, 0.615560
1502.22, 0.615504
1502.65, 0.615671
1503.09, 0.616172
1503.53, 0.616728
1503.96, 0.616728
1504.4, 0.616895
1504.83, 0.616951
1505.27, 0.617174
1505.71, 0.617674
1506.15, 0.618008
1506.58, 0.618286
1507.02, 0.618342
1507.46, 0.618509
1507.9, 0.618787
1508.34, 0.619066
1508.78, 0.619399
1509.21, 0.619455
1509.66, 0.619399
1510.09, 0.619678
1510.53, 0.620178
1510.97, 0.620345
1511.42, 0.620401
1511.86, 0.620735
1512.3, 0.620902
1512.74, 0.621291
1513.18, 0.621681
1513.62, 0.621737
1514.06, 0.621681
1514.51, 0.621848
1514.95, 0.622516
1515.39, 0.622571
1515.83, 0.622627
1516.28, 0.622961
1516.72, 0.623462
1517.16, 0.623629
1517.61, 0.623462
1518.05, 0.623740
1518.5, 0.624129
1518.94, 0.624296
1519.39, 0.624630
1519.83, 0.624797
1520.28, 0.624853
1520.73, 0.624964
1521.17, 0.625409
1521.62, 0.625354
1522.07, 0.625743
1522.51, 0.626244
1522.96, 0.626522
1523.41, 0.626689
1523.85, 0.626689
1524.3, 0.627023
1524.75, 0.627246
1525.2, 0.627357
1525.65, 0.627579
1526.1, 0.627913
1526.55, 0.628080
1527.0, 0.627913
1527.45, 0.628303
1527.9, 0.628804
1528.35, 0.628859
1528.8, 0.629026
1529.25, 0.629416
1529.7, 0.629638
1530.15, 0.629805
1530.6, 0.630084
1531.05, 0.630362
1531.51, 0.630863
1531.96, 0.631030
1532.41, 0.631196
1532.87, 0.631475
1533.32, 0.631530
1533.77, 0.631753
1534.23, 0.632142
1534.68, 0.632365
1535.14, 0.632476
1535.59, 0.632643
1536.05, 0.633200
1536.5, 0.633478
1536.96, 0.633812
1537.41, 0.634424
1537.87, 0.634480
1538.32, 0.634647
1538.78, 0.635036
1539.24, 0.635259
1539.7, 0.635537
1540.15, 0.635759
1540.61, 0.636093
1541.07, 0.636372
1541.53, 0.636761
1541.98, 0.636817
1542.44, 0.636872
1542.9, 0.637206
1543.36, 0.637707
1543.82, 0.637763
1544.28, 0.637985
1544.74, 0.638264
1545.2, 0.638764
1545.66, 0.638931
1546.12, 0.639043
1546.59, 0.639432
1547.05, 0.639989
1547.51, 0.640267
1547.97, 0.640489
1548.43, 0.640378
1548.9, 0.640601
1549.36, 0.640656
1549.82, 0.641101
1550.29, 0.641324
1550.75, 0.641769
1551.21, 0.642103
1551.68, 0.642326
1552.14, 0.642827
1552.61, 0.643105
1553.07, 0.643383
1553.54, 0.643773
1554.0, 0.644051
1554.47, 0.644273
1554.93, 0.644440
1555.4, 0.644385
1555.87, 0.644774
1556.34, 0.645386
1556.8, 0.645609
1557.27, 0.645609
1557.74, 0.645498
1558.21, 0.645720
1558.68, 0.646165
1559.14, 0.646555
1559.61, 0.647111
1560.08, 0.647445
1560.55, 0.647445
1561.02, 0.647556
1561.49, 0.648002
1561.96, 0.648224
1562.43, 0.648391
1562.9, 0.648892
1563.38, 0.649170
1563.85, 0.649448
1564.32, 0.649894
1564.79, 0.650061
1565.26, 0.650005
1565.74, 0.650172
1566.21, 0.650394
1566.68, 0.650506
1567.16, 0.651173
1567.63, 0.651507
1568.1, 0.651507
1568.58, 0.651452
1569.05, 0.651619
1569.53, 0.652064
1570.0, 0.652565
1570.48, 0.652899
1570.96, 0.653121
1571.43, 0.652843
1571.91, 0.653177
1572.39, 0.653622
1572.86, 0.654067
1573.34, 0.653900
1573.82, 0.654234
1574.3, 0.654568
1574.77, 0.654846
1575.25, 0.654846
1575.73, 0.655069
1576.21, 0.655347
1576.69, 0.655403
1577.17, 0.655514
1577.65, 0.656126
1578.13, 0.656293
1578.61, 0.656237
1579.09, 0.656349
1579.57, 0.656794
1580.05, 0.657016
1580.54, 0.656849
1581.02, 0.656794
1581.5, 0.657072
1581.98, 0.657517
1582.47, 0.657795
1582.95, 0.658074
1583.43, 0.658463
1583.92, 0.658630
1584.4, 0.658797
1584.88, 0.658964
1585.37, 0.659131
1585.85, 0.659187
1586.34, 0.659298
1586.82, 0.659576
1587.31, 0.659743
1587.8, 0.659465
1588.28, 0.659632
1588.77, 0.660021
1589.26, 0.660188
1589.74, 0.660633
1590.23, 0.660912
1590.72, 0.661357
1591.21, 0.661357
1591.7, 0.661245
1592.19, 0.661468
1592.67, 0.661802
1593.16, 0.661913
1593.65, 0.662247
1594.14, 0.662581
1594.63, 0.662748
1595.12, 0.662971
1595.61, 0.663249
1596.11, 0.663304
1596.6, 0.663583
1597.09, 0.663805
1597.58, 0.664028
1598.08, 0.664362
1598.57, 0.664751
1599.06, 0.664863
1599.55, 0.665029
1600.05, 0.665475
1600.54, 0.665419
1601.04, 0.665308
1601.53, 0.665975
1602.03, 0.666476
1602.52, 0.666643
1603.02, 0.666754
1603.51, 0.666810
1604.01, 0.666977
1604.5, 0.667311
1605.0, 0.667645
1605.5, 0.667645
1606.0, 0.667756
1606.49, 0.668201
1606.99, 0.668313
1607.49, 0.668535
1607.99, 0.668758
1608.49, 0.668758
1608.99, 0.669203
1609.49, 0.669759
1609.99, 0.669982
1610.49, 0.670093
1610.99, 0.670316
1611.49, 0.670705
1611.99, 0.670705
1612.49, 0.670705
1612.99, 0.671095
1613.49, 0.671095
1614.0, 0.671373
1614.5, 0.671818
1615.0, 0.671985
1615.51, 0.672208
1616.01, 0.672208
1616.51, 0.672375
1617.02, 0.672709
1617.52, 0.672931
1618.03, 0.672931
1618.53, 0.672987
1619.04, 0.673265
1619.54, 0.673766
1620.05, 0.674267
1620.55, 0.674322
1621.06, 0.674322
1621.57, 0.674601
1622.08, 0.674712
1622.58, 0.675157
1623.09, 0.675380
1623.6, 0.675491
1624.11, 0.675658
1624.62, 0.675936
1625.13, 0.676270
1625.64, 0.676214
1626.15, 0.676214
1626.66, 0.676270
1627.17, 0.676548
1627.68, 0.676771
1628.19, 0.676993
1628.7, 0.677105
1629.21, 0.677439
1629.72, 0.677828
1630.24, 0.677717
1630.75, 0.677884
1631.26, 0.678106
1631.78, 0.678218
1632.29, 0.678607
1632.8, 0.678830
1633.32, 0.678607
1633.83, 0.678663
1634.35, 0.678885
1634.86, 0.679219
1635.38, 0.679386
1635.9, 0.679609
1636.41, 0.679553
1636.93, 0.679609
1637.45, 0.680054
1637.96, 0.680277
1638.48, 0.680332
1639.0, 0.680388
1639.52, 0.680443
1640.04, 0.680777
1640.56, 0.680889
1641.08, 0.681167
1641.59, 0.681222
1642.11, 0.681278
1642.63, 0.681501
1643.16, 0.682057
1643.68, 0.681779
1644.2, 0.681668
1644.72, 0.682002
1645.24, 0.682113
1645.76, 0.682280
1646.29, 0.682558
1646.81, 0.682502
1647.33, 0.682614
1647.86, 0.682948
1648.38, 0.683170
1648.9, 0.683059
1649.43, 0.682836
1649.95, 0.683115
1650.48, 0.683393
1651.0, 0.683393
1651.53, 0.683448
1652.06, 0.683949
1652.58, 0.683894
1653.11, 0.683727
1653.64, 0.684005
1654.17, 0.684116
1654.69, 0.684283
1655.22, 0.684394
1655.75, 0.684227
1656.28, 0.684339
1656.81, 0.684784
1657.34, 0.684895
1657.87, 0.684895
1658.4, 0.685173
1658.93, 0.685285
1659.46, 0.685396
1659.99, 0.685452
1660.52, 0.685563
1661.05, 0.685619
1661.59, 0.685785
1662.12, 0.685730
1662.65, 0.685841
1663.19, 0.686231
1663.72, 0.686453
1664.26, 0.686676
1664.79, 0.686620
1665.32, 0.686620
1665.86, 0.686787
1666.39, 0.687121
1666.93, 0.687232
1667.47, 0.687232
1668.0, 0.687455
1668.54, 0.687622
1669.08, 0.687844
1669.61, 0.688234
1670.15, 0.688234
1670.69, 0.688290
1671.23, 0.688679
1671.77, 0.688735
1672.31, 0.688846
1672.85, 0.688957
1673.39, 0.689236
1673.93, 0.689124
1674.47, 0.689124
1675.01, 0.689347
1675.55, 0.689514
1676.09, 0.689681
1676.64, 0.689681
1677.18, 0.689848
1677.72, 0.690237
1678.26, 0.690627
1678.81, 0.690571
1679.35, 0.690627
1679.89, 0.690961
1680.44, 0.691128
1680.98, 0.690961
1681.53, 0.690961
1682.07, 0.691350
1682.62, 0.691461
1683.17, 0.691684
1683.71, 0.691740
1684.26, 0.691684
1684.81, 0.691851
1685.36, 0.692129
1685.9, 0.692352
1686.45, 0.692296
1687.0, 0.692240
1687.55, 0.692686
1688.1, 0.692853
1688.65, 0.692853
1689.2, 0.693075
1689.75, 0.693353
1690.3, 0.693409
1690.85, 0.693465
1691.41, 0.693520
1691.96, 0.693632
1692.51, 0.693799
1693.06, 0.694021
1693.61, 0.693910
1694.17, 0.694188
1694.72, 0.694411
1695.28, 0.694522
1695.83, 0.694578
1696.39, 0.694745
1696.94, 0.694967
1697.5, 0.694967
1698.05, 0.695245
1698.61, 0.695190
1699.17, 0.695190
1699.72, 0.695023
1700.28, 0.694967
1700.84, 0.695245
1701.4, 0.695134
1701.95, 0.695412
1702.51, 0.695691
1703.07, 0.695746
1703.63, 0.695635
1704.19, 0.695858
1704.75, 0.696080
1705.31, 0.696024
1705.88, 0.695913
1706.44, 0.695969
1707.0, 0.695969
1707.56, 0.695969
1708.12, 0.696024
1708.69, 0.696303
1709.25, 0.696247
1709.81, 0.696080
1710.38, 0.696414
1710.94, 0.696692
1711.51, 0.696581
1712.07, 0.696414
1712.64, 0.696470
1713.2, 0.696692
1713.77, 0.696804
1714.34, 0.696915
1714.9, 0.697082
1715.47, 0.697026
1716.04, 0.696804
1716.61, 0.696915
1717.18, 0.696915
1717.74, 0.696915
1718.31, 0.697026
1718.88, 0.697193
1719.45, 0.697416
1720.02, 0.697416
1720.59, 0.697527
1721.17, 0.697360
1721.74, 0.697471
1722.31, 0.697416
1722.88, 0.697471
1723.45, 0.697638
1724.03, 0.697805
1724.6, 0.697805
1725.18, 0.697861
1725.75, 0.697972
1726.33, 0.698139
1726.9, 0.698028
1727.48, 0.698139
1728.05, 0.698083
1728.63, 0.698028
1729.2, 0.698195
1729.78, 0.698028
1730.36, 0.697861
1730.94, 0.698083
1731.51, 0.698250
1732.09, 0.698306
1732.67, 0.698807
1733.25, 0.698974
1733.83, 0.698640
1734.41, 0.698473
1734.99, 0.698807
1735.57, 0.698751
1736.15, 0.698751
1736.73, 0.698918
1737.32, 0.699196
1737.9, 0.699196
1738.48, 0.699085
1739.07, 0.699308
1739.65, 0.699530
1740.23, 0.699753
1740.82, 0.699641
1741.4, 0.699753
1741.99, 0.699753
1742.57, 0.699753
1743.16, 0.700142
1743.74, 0.700198
1744.33, 0.700142
1744.92, 0.700420
1745.51, 0.700643
1746.09, 0.700921
1746.68, 0.700921
1747.27, 0.700754
1747.86, 0.700699
1748.45, 0.700754
1749.04, 0.700921
1749.63, 0.700977
1750.22, 0.700921
1750.81, 0.701033
1751.4, 0.701255
1751.99, 0.701422
1752.59, 0.701422
1753.18, 0.701589
1753.77, 0.701756
1754.37, 0.701923
1754.96, 0.701756
1755.56, 0.701923
1756.15, 0.701867
1756.74, 0.702034
1757.34, 0.702201
1757.94, 0.701979
1758.53, 0.702312
1759.13, 0.702368
1759.73, 0.702368
1760.32, 0.702535
1760.92, 0.702479
1761.52, 0.702535
1762.12, 0.702646
1762.72, 0.702702
1763.32, 0.703036
1763.92, 0.703314
1764.52, 0.703147
1765.12, 0.703036
1765.72, 0.703036
1766.32, 0.703259
1766.92, 0.703314
1767.53, 0.703592
1768.13, 0.703481
1768.73, 0.703592
1769.34, 0.703704
1769.94, 0.703537
1770.55, 0.703592
1771.15, 0.703759
1771.76, 0.703982
1772.36, 0.703926
1772.97, 0.703871
1773.57, 0.703815
1774.18, 0.703815
1774.79, 0.703871
1775.4, 0.704038
1776.0, 0.704204
1776.61, 0.704149
1777.22, 0.704149
1777.83, 0.704204
1778.44, 0.704260
1779.05, 0.704204
1779.66, 0.704093
1780.27, 0.703982
1780.88, 0.704038
1781.5, 0.704260
1782.11, 0.704038
1782.72, 0.704204
1783.33, 0.704316
1783.95, 0.704204
1784.56, 0.704149
1785.18, 0.704260
1785.79, 0.704316
1786.41, 0.704260
1787.02, 0.704149
1787.64, 0.704038
1788.26, 0.704204
1788.87, 0.704371
1789.49, 0.704260
1790.11, 0.704149
1790.73, 0.704093
1791.35, 0.704260
1791.96, 0.704260
1792.58, 0.704149
1793.21, 0.704149
1793.83, 0.704149
1794.45, 0.703982
1795.07, 0.703982
1795.69, 0.704093
1796.31, 0.704093
1796.93, 0.704316
1797.56, 0.704316
1798.18, 0.704204
1798.8, 0.704204
1799.43, 0.703982
1800.05, 0.703815
1800.68, 0.703759
1801.3, 0.703926
1801.93, 0.703815
1802.56, 0.703815
1803.18, 0.703926
1803.81, 0.703926
1804.44, 0.704093
1805.07, 0.703926
1805.7, 0.703592
1806.33, 0.703926
1806.95, 0.703982
1807.58, 0.703926
1808.22, 0.704038
1808.85, 0.704038
1809.48, 0.703982
1810.11, 0.703704
1810.74, 0.703815
1811.38, 0.703871
1812.01, 0.704038
1812.64, 0.703982
1813.28, 0.703926
1813.91, 0.704038
1814.55, 0.703982
1815.18, 0.703759
1815.82, 0.703982
1816.45, 0.703982
1817.09, 0.703926
1817.73, 0.703982
1818.36, 0.704093
1819.0, 0.704316
1819.64, 0.703704
1820.28, 0.702980
1820.92, 0.703425
1821.56, 0.703592
1822.2, 0.704038
1822.84, 0.704427
1823.48, 0.704817
1824.12, 0.704872
1824.76, 0.704872
1825.41, 0.703926
1826.05, 0.702925
1826.69, 0.703871
1827.34, 0.704761
1827.98, 0.704538
1828.63, 0.704483
1829.27, 0.704761
1829.92, 0.704538
1830.56, 0.703871
1831.21, 0.704093
1831.86, 0.704817
1832.5, 0.704928
1833.15, 0.705206
1833.8, 0.705317
1834.45, 0.704650
1835.1, 0.704316
1835.75, 0.703871
1836.4, 0.703926
1837.05, 0.704260
1837.7, 0.704149
1838.35, 0.705317
1839.01, 0.704984
1839.66, 0.703926
1840.31, 0.704928
1840.96, 0.704872
1841.62, 0.703704
1842.27, 0.704483
1842.93, 0.705651
1843.58, 0.705874
1844.24, 0.705985
1844.9, 0.706152
1845.55, 0.705985
1846.21, 0.704761
1846.87, 0.703259
1847.53, 0.703704
1848.18, 0.704204
1848.84, 0.705540
1849.5, 0.706096
1850.16, 0.706208
1850.82, 0.706208
1851.48, 0.706709
1852.14, 0.706486
1852.81, 0.705484
1853.47, 0.704260
1854.13, 0.704984
1854.8, 0.706375
1855.46, 0.706375
1856.12, 0.705373
1856.79, 0.705262
1857.45, 0.706208
1858.12, 0.706653
1858.79, 0.705874
1859.45, 0.704260
1860.12, 0.704761
1860.79, 0.705763
1861.46, 0.706319
1862.12, 0.706319
1862.79, 0.706430
1863.46, 0.706096
1864.13, 0.705651
1864.8, 0.705929
1865.48, 0.706319
1866.15, 0.706041
1866.82, 0.705039
1867.49, 0.703592
1868.16, 0.704316
1868.84, 0.705262
1869.51, 0.705150
1870.19, 0.703815
1870.86, 0.702758
1871.54, 0.704260
1872.21, 0.703926
1872.89, 0.702257
1873.56, 0.703314
1874.24, 0.704594
1874.92, 0.704538
1875.6, 0.704594
1876.28, 0.704204
1876.96, 0.703648
1877.64, 0.704594
1878.32, 0.704984
1879.0, 0.705039
1879.68, 0.704817
1880.36, 0.704650
1881.04, 0.704538
1881.73, 0.704817
1882.41, 0.704872
1883.09, 0.704204
1883.78, 0.703425
1884.46, 0.703982
1885.15, 0.704149
1885.83, 0.703926
1886.52, 0.703759
1887.21, 0.703982
1887.89, 0.704093
1888.58, 0.704093
1889.27, 0.703259
1889.96, 0.702535
1890.65, 0.703259
1891.34, 0.703592
1892.03, 0.703370
1892.72, 0.703203
1893.41, 0.702925
1894.1, 0.703092
1894.79, 0.702869
1895.49, 0.702646
1896.18, 0.702646
1896.87, 0.702702
1897.57, 0.702591
1898.26, 0.702368
1898.96, 0.700866
1899.65, 0.700198
1900.35, 0.701255
1901.05, 0.702201
1901.74, 0.702034
1902.44, 0.700699
1903.14, 0.700921
1903.84, 0.701867
1904.54, 0.700754
1905.24, 0.699641
1905.94, 0.700031
1906.64, 0.700420
1907.34, 0.701422
1908.04, 0.701923
1908.75, 0.701812
1909.45, 0.701478
1910.15, 0.701144
1910.86, 0.701033
1911.56, 0.701366
1912.27, 0.701533
1912.97, 0.700643
1913.68, 0.700309
1914.39, 0.701200
1915.09, 0.701422
1915.8, 0.701033
1916.51, 0.701533
1917.22, 0.702034
1917.93, 0.702201
1918.64, 0.701533
1919.35, 0.700699
1920.06, 0.699920
1920.77, 0.700198
1921.48, 0.701478
1922.19, 0.702034
1922.91, 0.702090
1923.62, 0.701589
1924.33, 0.701812
1925.05, 0.702424
1925.76, 0.702257
1926.48, 0.702034
1927.19, 0.701867
1927.91, 0.701700
1928.63, 0.701867
1929.35, 0.702312
1930.07, 0.702201
1930.78, 0.702368
1931.5, 0.702424
1932.22, 0.702424
1932.94, 0.702535
1933.66, 0.702201
1934.39, 0.702479
1935.11, 0.702702
1935.83, 0.702424
1936.55, 0.702424
1937.28, 0.702758
1938.0, 0.702813
1938.73, 0.702646
1939.45, 0.702535
1940.18, 0.702591
1940.9, 0.702758
1941.63, 0.702813
1942.36, 0.702813
1943.09, 0.702813
1943.81, 0.702646
1944.54, 0.702646
1945.27, 0.702869
1946.0, 0.702813
1946.73, 0.702702
1947.47, 0.702646
1948.2, 0.702758
1948.93, 0.702702
1949.66, 0.702646
1950.4, 0.702591
1951.13, 0.702758
1951.86, 0.702591
1952.6, 0.702368
1953.34, 0.702368
1954.07, 0.702479
1954.81, 0.702368
1955.55, 0.702257
1956.29, 0.702201
1957.02, 0.702090
1957.76, 0.702034
1958.5, 0.702201
1959.24, 0.702090
1959.98, 0.702034
1960.72, 0.701923
1961.47, 0.701979
1962.21, 0.701923
1962.95, 0.701923
1963.7, 0.701700
1964.44, 0.701533
1965.18, 0.701422
1965.93, 0.701200
1966.67, 0.701088
1967.42, 0.701144
1968.17, 0.701200
1968.92, 0.701033
1969.66, 0.700977
1970.41, 0.700866
1971.16, 0.700699
1971.91, 0.700810
1972.66, 0.700587
1973.41, 0.700587
1974.16, 0.700643
1974.92, 0.700476
1975.67, 0.700420
1976.42, 0.700476
1977.18, 0.700254
1977.93, 0.700142
1978.69, 0.700031
1979.44, 0.699975
1980.2, 0.699920
1980.95, 0.699864
1981.71, 0.700031
1982.47, 0.699864
1983.23, 0.699808
1983.99, 0.699808
1984.74, 0.699697
1985.51, 0.699808
1986.27, 0.699975
1987.03, 0.699808
1987.79, 0.699753
1988.55, 0.699920
1989.32, 0.699808
1990.08, 0.699697
1990.84, 0.699641
1991.61, 0.699530
1992.37, 0.699530
1993.14, 0.699475
1993.9, 0.699363
1994.67, 0.699308
1995.44, 0.699363
1996.21, 0.699530
1996.98, 0.699530
1997.75, 0.699475
1998.52, 0.699308
1999.29, 0.699475
2000.06, 0.699475
2000.83, 0.699530
2001.6, 0.699641
2002.38, 0.699641
2003.15, 0.699475
2003.93, 0.699586
2004.7, 0.699641
2005.48, 0.699641
2006.25, 0.699753
2007.03, 0.699975
2007.81, 0.699975
2008.58, 0.700031
2009.36, 0.700031
2010.14, 0.700254
2010.92, 0.700309
2011.7, 0.700087
2012.48, 0.700142
2013.26, 0.700365
2014.05, 0.700587
2014.83, 0.700532
2015.61, 0.700754
2016.4, 0.700866
2017.18, 0.700921
2017.97, 0.700810
2018.75, 0.700810
2019.54, 0.700866
2020.32, 0.700921
2021.11, 0.701033
2021.9, 0.701200
2022.69, 0.701255
2023.48, 0.701311
2024.27, 0.701422
2025.06, 0.701422
2025.85, 0.701645
2026.64, 0.701589
2027.44, 0.701533
2028.23, 0.701533
2029.02, 0.701589
2029.82, 0.701478
2030.61, 0.701533
2031.41, 0.701756
2032.2, 0.701812
2033.0, 0.701867
2033.8, 0.701979
2034.6, 0.702090
2035.4, 0.702257
2036.2, 0.702090
2037.0, 0.702090
2037.8, 0.702146
2038.6, 0.702201
2039.4, 0.702368
2040.2, 0.702424
2041.01, 0.702368
2041.81, 0.702312
2042.61, 0.702312
2043.42, 0.702424
2044.22, 0.702424
2045.03, 0.702368
2045.84, 0.702201
2046.65, 0.702257
2047.46, 0.702312
2048.26, 0.702257
2049.07, 0.702090
2049.88, 0.702146
2050.69, 0.702201
2051.51, 0.702146
2052.32, 0.702146
2053.13, 0.702201
2053.94, 0.702146
2054.76, 0.702090
2055.57, 0.701979
2056.39, 0.701812
2057.2, 0.701812
2058.02, 0.701867
2058.84, 0.701867
2059.66, 0.701756
2060.48, 0.701478
2061.29, 0.701366
2062.11, 0.701311
2062.94, 0.701589
2063.76, 0.701589
2064.58, 0.701478
2065.4, 0.701422
2066.22, 0.701144
2067.05, 0.700866
2067.87, 0.700699
2068.7, 0.700810
2069.52, 0.700866
2070.35, 0.700643
2071.18, 0.700532
2072.0, 0.700365
2072.83, 0.700254
2073.66, 0.700254
2074.49, 0.700198
2075.32, 0.700031
2076.15, 0.699864
2076.98, 0.699641
2077.82, 0.699697
2078.65, 0.699530
2079.48, 0.699363
2080.32, 0.699419
2081.15, 0.699419
2081.99, 0.699196
2082.83, 0.699141
2083.66, 0.698974
2084.5, 0.698696
2085.34, 0.698640
2086.18, 0.698640
2087.02, 0.698362
2087.86, 0.698250
2088.7, 0.698139
2089.54, 0.698083
2090.39, 0.698028
2091.23, 0.697861
2092.07, 0.697861
2092.92, 0.697861
2093.76, 0.697805
2094.61, 0.697749
2095.45, 0.697527
2096.3, 0.697471
2097.15, 0.697471
2098.0, 0.697416
2098.85, 0.697304
2099.7, 0.697416
2100.55, 0.697416
2101.4, 0.697416
2102.25, 0.697360
2103.1, 0.697249
2103.96, 0.697082
2104.81, 0.697082
2105.67, 0.697026
2106.52, 0.697026
2107.38, 0.697137
2108.24, 0.697360
2109.09, 0.697304
2109.95, 0.697193
2110.81, 0.697249
2111.67, 0.697360
2112.53, 0.697193
2113.39, 0.697360
2114.25, 0.697304
2115.12, 0.697471
2115.98, 0.697638
2116.84, 0.697694
2117.71, 0.697527
2118.58, 0.697471
2119.44, 0.697694
2120.31, 0.697861
2121.18, 0.697861
2122.04, 0.697749
2122.91, 0.697694
2123.78, 0.697694
2124.65, 0.697805
2125.52, 0.697916
2126.4, 0.697972
2127.27, 0.698139
2128.14, 0.698083
2129.02, 0.698139
2129.89, 0.698083
2130.77, 0.698083
2131.64, 0.698083
2132.52, 0.698195
2133.4, 0.698250
2134.27, 0.698195
2135.15, 0.698306
2136.03, 0.698584
2136.91, 0.698751
2137.79, 0.698862
2138.68, 0.698862
2139.56, 0.698862
2140.44, 0.698640
2141.33, 0.698696
2142.21, 0.698862
2143.1, 0.699029
2143.99, 0.699141
2144.87, 0.699196
2145.76, 0.699033
2146.65, 0.699142
2147.54, 0.699578
2148.43, 0.699251
2149.32, 0.698978
2150.21, 0.699142
2151.1, 0.698978
2151.99, 0.698706
2152.89, 0.698597
2153.78, 0.698924
2154.68, 0.698815
2155.57, 0.698652
2156.47, 0.698652
2157.37, 0.698488
2158.27, 0.698216
2159.16, 0.698270
2160.06, 0.698597
2160.96, 0.698488
2161.86, 0.698216
2162.77, 0.698706
2163.67, 0.698379
2164.57, 0.697998
2165.48, 0.698325
2166.38, 0.698543
2167.29, 0.698270
2168.2, 0.698052
2169.1, 0.697780
2170.01, 0.697780
2170.92, 0.698052
2171.83, 0.698216
2172.74, 0.698107
2173.65, 0.697616
2174.56, 0.697235
2175.47, 0.697616
2176.39, 0.697998
2177.3, 0.698052
2178.22, 0.697453
2179.13, 0.696963
2180.05, 0.697181
2180.96, 0.697072
2181.88, 0.697235
2182.8, 0.697235
2183.72, 0.697453
2184.64, 0.697671
2185.56, 0.697453
2186.48, 0.697289
2187.41, 0.697289
2188.33, 0.697616
2189.25, 0.697562
2190.18, 0.697671
2191.1, 0.697998
2192.03, 0.697725
2192.96, 0.696963
2193.89, 0.696854
2194.82, 0.696418
2195.74, 0.696745
2196.68, 0.696963
2197.61, 0.697072
2198.54, 0.696581
2199.47, 0.696309
2200.4, 0.696636
2201.34, 0.696908
2202.28, 0.696854
2203.21, 0.696527
2204.15, 0.696527
2205.08, 0.696363
2206.02, 0.695982
2206.96, 0.696091
2207.9, 0.696418
2208.84, 0.696363
2209.78, 0.695982
2210.73, 0.695873
2211.67, 0.695928
2212.61, 0.695982
2213.56, 0.696309
2214.5, 0.696363
2215.45, 0.695873
2216.4, 0.695928
2217.35, 0.695546
2218.3, 0.694892
2219.24, 0.694511
2220.2, 0.694838
2221.15, 0.695056
2222.1, 0.694892
2223.05, 0.695001
2224.0, 0.694947
2224.96, 0.694620
2225.91, 0.693966
2226.87, 0.693748
2227.83, 0.693912
2228.79, 0.693748
2229.74, 0.693639
2230.7, 0.693803
2231.66, 0.693694
2232.63, 0.693149
2233.59, 0.692713
2234.55, 0.692713
2235.51, 0.692986
2236.48, 0.692550
2237.44, 0.692005
2238.41, 0.691841
2239.38, 0.691624
2240.34, 0.691188
2241.31, 0.690806
2242.28, 0.690806
2243.25, 0.690915
2244.22, 0.690861
2245.19, 0.690861
2246.17, 0.690425
2247.14, 0.690588
2248.12, 0.690316
2249.09, 0.689826
2250.07, 0.689335
2251.04, 0.689608
2252.02, 0.689281
2253.0, 0.689117
2253.98, 0.688900
2254.96, 0.689063
2255.94, 0.689117
2256.92, 0.688627
2257.91, 0.688682
2258.89, 0.688518
2259.88, 0.688518
2260.86, 0.688191
2261.85, 0.688082
2262.83, 0.687864
2263.82, 0.687592
2264.81, 0.687156
2265.8, 0.686829
2266.79, 0.686339
2267.78, 0.686012
2268.78, 0.685576
2269.77, 0.685304
2270.76, 0.685576
2271.76, 0.685794
2272.75, 0.685794
2273.75, 0.685304
2274.75, 0.684759
2275.75, 0.684923
2276.75, 0.684977
2277.75, 0.684487
2278.75, 0.684541
2279.75, 0.684432
2280.75, 0.684323
2281.76, 0.684214
2282.76, 0.683670
2283.77, 0.683288
2284.77, 0.683234
2285.78, 0.683179
2286.79, 0.683179
2287.8, 0.683070
2288.81, 0.682798
2289.82, 0.682362
2290.83, 0.682416
2291.84, 0.682307
2292.86, 0.682144
2293.87, 0.681490
2294.89, 0.681000
2295.91, 0.680837
2296.92, 0.681054
2297.94, 0.681218
2298.96, 0.680782
2299.98, 0.680455
2301.0, 0.680401
2302.02, 0.680455
2303.04, 0.679965
2304.07, 0.679638
2305.09, 0.679801
2306.12, 0.679529
2307.15, 0.679366
2308.17, 0.678766
2309.2, 0.678167
2310.23, 0.677731
2311.26, 0.677786
2312.29, 0.677622
2313.32, 0.677132
2314.35, 0.676478
2315.39, 0.675933
2316.42, 0.675552
2317.46, 0.675498
2318.5, 0.674953
2319.53, 0.675552
2320.57, 0.675225
2321.61, 0.674626
2322.65, 0.674517
2323.69, 0.674680
2324.73, 0.674680
2325.78, 0.674571
2326.82, 0.674789
2327.86, 0.675334
2328.91, 0.675171
2329.96, 0.675389
2331.01, 0.675389
2332.05, 0.675443
2333.1, 0.675606
2334.15, 0.675715
2335.21, 0.675770
2336.26, 0.675715
2337.31, 0.675498
2338.36, 0.675443
2339.42, 0.675552
2340.48, 0.675606
2341.53, 0.676206
2342.59, 0.676751
2343.65, 0.676968
2344.71, 0.677568
2345.77, 0.677677
2346.83, 0.677786
2347.9, 0.677949
2348.96, 0.678712
2350.02, 0.679475
2351.09, 0.679801
2352.16, 0.679856
2353.23, 0.679910
2354.29, 0.679910
2355.36, 0.680183
2356.43, 0.680346
2357.51, 0.680074
2358.58, 0.679638
2359.65, 0.680019
2360.73, 0.680455
2361.8, 0.680292
2362.88, 0.680128
2363.96, 0.680183
2365.03, 0.679856
2366.11, 0.679801
2367.19, 0.680074
2368.27, 0.679910
2369.36, 0.679475
2370.44, 0.678930
2371.53, 0.679202
2372.61, 0.679202
2373.7, 0.678603
2374.78, 0.678113
2375.87, 0.678058
2376.96, 0.678167
2378.05, 0.677677
2379.14, 0.677295
2380.24, 0.677241
2381.33, 0.677132
2382.42, 0.677077
2383.52, 0.677023
2384.61, 0.676914
2385.71, 0.676696
2386.81, 0.676587
2387.91, 0.676805
2389.01, 0.676587
2390.11, 0.676424
2391.22, 0.676533
2392.32, 0.676424
2393.42, 0.676642
2394.53, 0.676424
2395.64, 0.675988
2396.74, 0.675715
2397.85, 0.675824
2398.96, 0.675824
2400.07, 0.675879
2401.18, 0.676042
2402.3, 0.676042
2403.41, 0.675933
2404.52, 0.675770
2405.64, 0.675389
2406.76, 0.675225
2407.88, 0.675280
2408.99, 0.674898
2410.11, 0.674789
2411.23, 0.674844
2412.36, 0.674462
2413.48, 0.674626
2414.6, 0.674735
2415.73, 0.674299
2416.85, 0.674408
2417.98, 0.674299
2419.11, 0.674190
2420.24, 0.673591
2421.37, 0.673427
2422.5, 0.673427
2423.64, 0.673373
2424.77, 0.673427
2425.9, 0.673591
2427.04, 0.673318
2428.18, 0.673046
2429.31, 0.672882
2430.45, 0.672773
2431.59, 0.672665
2432.73, 0.672501
2433.88, 0.672174
2435.02, 0.672065
2436.16, 0.672065
2437.31, 0.672174
2438.45, 0.671956
2439.6, 0.671520
2440.75, 0.671466
2441.9, 0.671466
2443.05, 0.671684
2444.2, 0.671575
2445.35, 0.671139
2446.51, 0.671139
2447.67, 0.671194
2448.82, 0.671085
2449.98, 0.670921
2451.14, 0.670812
2452.3, 0.671248
2453.46, 0.671248
2454.62, 0.671139
2455.78, 0.671139
2456.94, 0.671303
2458.11, 0.671466
2459.28, 0.671466
2460.44, 0.671520
2461.61, 0.671575
2462.78, 0.671684
2463.95, 0.671684
2465.12, 0.671411
2466.3, 0.671303
2467.47, 0.671139
2468.65, 0.670976
2469.82, 0.670812
2471.0, 0.670594
2472.18, 0.670431
2473.36, 0.670485
2474.54, 0.670322
2475.72, 0.670213
2476.9, 0.670213
2478.08, 0.669777
2479.27, 0.669505
2480.46, 0.669614
2481.64, 0.669341
2482.83, 0.669069
2484.02, 0.668579
2485.21, 0.668688
2486.4, 0.668960
2487.6, 0.668688
2488.79, 0.668470
2489.99, 0.668415
2491.18, 0.668143
2492.38, 0.667652
2493.58, 0.667325
2494.78, 0.667598
2495.98, 0.667543
2497.18, 0.667325
2498.39, 0.666835
2499.59, 0.666508
2500.8, 0.666181
2502.01, 0.666018
2503.21, 0.666181
2504.42, 0.665746
2505.63, 0.665582
2506.84, 0.665637
2508.06, 0.665473
2509.27, 0.665528
2510.49, 0.665364
2511.7, 0.665310
2512.92, 0.665201
2514.14, 0.664874
2515.36, 0.664765
2516.58, 0.664819
2517.8, 0.665037
2519.03, 0.665201
2520.25, 0.665092
2521.48, 0.665146
2522.7, 0.665201
2523.93, 0.665201
2525.16, 0.665310
2526.39, 0.665419
2527.62, 0.665419
2528.86, 0.665528
2530.09, 0.664819
2531.33, 0.664002
2532.56, 0.663948
2533.8, 0.664710
2535.04, 0.664166
2536.28, 0.664111
2537.52, 0.665310
2538.76, 0.665419
2540.01, 0.665255
2541.25, 0.664329
2542.5, 0.662531
2543.75, 0.663076
2544.99, 0.664220
2546.24, 0.663948
2547.49, 0.662695
2548.75, 0.663185
2550.0, 0.662804
2551.26, 0.661605
2552.51, 0.660842
2553.77, 0.662531
2555.03, 0.664220
2556.29, 0.664710
2557.55, 0.664384
2558.81, 0.662477
2560.08, 0.657683
2561.34, 0.654305
2562.61, 0.654577
2563.88, 0.655885
2565.14, 0.659807
2566.41, 0.662749
2567.68, 0.661333
2568.96, 0.657737
2570.23, 0.659154
2571.51, 0.660515
2572.78, 0.655885
2574.06, 0.657465
2575.34, 0.659154
2576.62, 0.657574
2577.9, 0.660298
2579.18, 0.661932
2580.47, 0.659317
2581.75, 0.658282
2583.04, 0.653270
2584.32, 0.654087
2585.61, 0.657791
2586.9, 0.655939
2588.2, 0.657410
2589.49, 0.660243
2590.78, 0.662477
2592.08, 0.659317
2593.37, 0.646078
2594.67, 0.636708
2595.97, 0.648040
2597.27, 0.659317
2598.57, 0.663348
2599.88, 0.662259
2601.18, 0.659698
2602.49, 0.657628
2603.79, 0.653760
2605.1, 0.649892
2606.41, 0.653324
2607.72, 0.656702
2609.03, 0.657519
2610.35, 0.659698
2611.66, 0.661006
2612.98, 0.660352
2614.3, 0.660189
2615.62, 0.653814
2616.94, 0.651090
2618.26, 0.655558
2619.58, 0.651853
2620.91, 0.654032
2622.23, 0.661442
2623.56, 0.662804
2624.89, 0.659262
2626.22, 0.654032
2627.55, 0.657138
2628.88, 0.654305
2630.21, 0.648911
2631.55, 0.654959
2632.89, 0.657574
2634.22, 0.658064
2635.56, 0.660897
2636.9, 0.661660
2638.25, 0.661769
2639.59, 0.661060
2640.93, 0.659807
2642.28, 0.659262
2643.63, 0.659154
2644.98, 0.656375
2646.33, 0.656538
2647.68, 0.658173
2649.03, 0.658282
2650.39, 0.656266
2651.74, 0.651908
2653.1, 0.651635
2654.46, 0.652452
2655.82, 0.652561
2657.18, 0.654087
2658.54, 0.650546
2659.9, 0.648530
2661.27, 0.648857
2662.64, 0.647985
2664.01, 0.639050
2665.38, 0.631478
2666.74, 0.631805
2668.12, 0.636054
2669.49, 0.626738
2670.87, 0.626084
2672.24, 0.635836
2673.62, 0.635346
2675.0, 0.627337
2676.38, 0.618511
2677.76, 0.615025
2679.15, 0.611429
2680.54, 0.610339
2681.92, 0.603311
2683.31, 0.593015
2684.7, 0.583644
2686.09, 0.573838
2687.48, 0.564631
2688.88, 0.555260
2690.27, 0.544528
2691.67, 0.530363
2693.07, 0.511513
2694.47, 0.495223
2695.87, 0.479642
2697.27, 0.459375
2698.67, 0.432299
2700.08, 0.403642
2701.49, 0.381741
2702.9, 0.367413
2704.31, 0.354665
2705.72, 0.343224
2707.13, 0.332655
2708.54, 0.322794
2709.96, 0.314894
2711.38, 0.312661
2712.8, 0.315003
2714.22, 0.316420
2715.64, 0.319089
2717.06, 0.322794
2718.49, 0.326063
2719.91, 0.327806
2721.34, 0.336795
2722.77, 0.343605
2724.2, 0.346602
2725.63, 0.353902
2727.07, 0.360767
2728.5, 0.364744
2729.94, 0.367141
2731.38, 0.368884
2732.82, 0.368612
2734.26, 0.366705
2735.7, 0.368067
2737.15, 0.368339
2738.59, 0.364090
2740.04, 0.362455
2741.49, 0.366378
2742.94, 0.371772
2744.39, 0.375040
2745.84, 0.377819
2747.3, 0.380870
2748.76, 0.383866
2750.21, 0.386536
2751.67, 0.388878
2753.14, 0.389641
2754.6, 0.386590
2756.06, 0.389750
2757.53, 0.396396
2759.0, 0.398903
2760.46, 0.398630
2761.94, 0.396396
2763.41, 0.397050
2764.88, 0.399393
2766.36, 0.399284
2767.83, 0.398848
2769.31, 0.398903
2770.79, 0.399175
2772.27, 0.401463
2773.76, 0.403097
2775.24, 0.403370
2776.73, 0.403097
2778.22, 0.403152
2779.71, 0.402880
2781.2, 0.402662
2782.69, 0.403479
2784.18, 0.403969
2785.68, 0.402062
2787.18, 0.401191
2788.68, 0.403043
2790.18, 0.404623
2791.68, 0.404950
2793.19, 0.404786
2794.69, 0.404460
2796.2, 0.404187
2797.71, 0.403915
2799.22, 0.403697
2800.73, 0.402553
2802.24, 0.400537
2803.76, 0.401082
2805.28, 0.403206
2806.8, 0.404242
2808.32, 0.404786
2809.84, 0.405331
2811.36, 0.405985
2812.89, 0.406039
2814.42, 0.405876
2815.94, 0.406530
2817.48, 0.406748
2819.01, 0.406203
2820.54, 0.406693
2822.08, 0.407783
2823.61, 0.408545
2825.15, 0.408927
2826.69, 0.409199
2828.23, 0.409472
2829.78, 0.410016
2831.32, 0.409962
2832.87, 0.409526
2834.42, 0.409254
2835.97, 0.409417
2837.52, 0.409744
2839.08, 0.410180
2840.63, 0.410670
2842.19, 0.410943
2843.75, 0.411052
2845.31, 0.411106
2846.87, 0.411106
2848.44, 0.410834
2850.0, 0.410997
2851.57, 0.411106
2853.14, 0.410561
2854.71, 0.410725
2856.28, 0.411324
2857.86, 0.411542
2859.43, 0.411487
2861.01, 0.411705
2862.59, 0.411923
2864.17, 0.411923
2865.76, 0.411814
2867.34, 0.411760
2868.93, 0.411923
2870.52, 0.411814
2872.11, 0.411760
2873.7, 0.412141
2875.29, 0.412523
2876.89, 0.412686
2878.49, 0.412795
2880.08, 0.413013
2881.69, 0.413231
2883.29, 0.413285
2884.89, 0.413449
2886.5, 0.413449
2888.11, 0.413612
2889.72, 0.414048
2891.33, 0.414266
2892.94, 0.414429
2894.56, 0.414702
2896.17, 0.414920
2897.79, 0.414920
2899.42, 0.414593
2901.04, 0.414702
2902.66, 0.415083
2904.29, 0.415301
2905.92, 0.415628
2907.55, 0.415955
2909.18, 0.416391
2910.81, 0.416554
2912.45, 0.416663
2914.08, 0.416990
2915.72, 0.417099
2917.36, 0.417426
2919.01, 0.417644
2920.65, 0.417644
2922.3, 0.417753
2923.94, 0.418025
2925.59, 0.418515
2927.25, 0.418842
2928.9, 0.419224
2930.56, 0.419442
2932.21, 0.419768
2933.87, 0.419986
2935.53, 0.420259
2937.2, 0.420368
2938.86, 0.420749
2940.53, 0.421130
2942.2, 0.421294
2943.87, 0.421512
2945.54, 0.421839
2947.22, 0.422165
2948.89, 0.422601
2950.57, 0.423092
2952.25, 0.423528
2953.93, 0.423800
2955.62, 0.424018
2957.3, 0.424290
2958.99, 0.424672
2960.68, 0.425107
2962.37, 0.425652
2964.07, 0.426197
2965.76, 0.426633
2967.46, 0.426905
2969.16, 0.427505
2970.86, 0.427722
2972.56, 0.427886
2974.27, 0.428104
2975.98, 0.428594
2977.69, 0.429139
2979.4, 0.429575
2981.11, 0.430229
2982.83, 0.430610
2984.54, 0.430937
2986.26, 0.431318
2987.98, 0.431917
2989.71, 0.432571
2991.43, 0.432953
2993.16, 0.433279
2994.89, 0.433824
2996.62, 0.434315
2998.35, 0.434805
3000.09, 0.435186
3001.83, 0.435677
3003.57, 0.436221
3005.31, 0.436657
3007.05, 0.437147
3008.79, 0.437692
3010.54, 0.438074
3012.29, 0.438564
3014.04, 0.439163
3015.8, 0.439708
3017.55, 0.440035
3019.31, 0.440580
3021.07, 0.441179
3022.83, 0.441778
3024.59, 0.442160
3026.36, 0.442596
3028.13, 0.443086
3029.9, 0.443358
3031.67, 0.443903
3033.44, 0.444393
3035.22, 0.444720
3037.0, 0.445156
3038.78, 0.445592
3040.56, 0.446082
3042.34, 0.446409
3044.13, 0.446790
3045.92, 0.447117
3047.71, 0.447499
3049.5, 0.447935
3051.3, 0.448316
3053.09, 0.448643
3054.89, 0.449188
3056.69, 0.449787
3058.5, 0.450441
3060.3, 0.450768
3062.11, 0.450931
3063.92, 0.451476
3065.73, 0.451966
3067.55, 0.452347
3069.36, 0.452565
3071.18, 0.453001
3073.0, 0.453328
3074.82, 0.453709
3076.65, 0.454254
3078.48, 0.454581
3080.31, 0.454854
3082.14, 0.455398
3083.97, 0.455889
3085.8, 0.456216
3087.64, 0.456542
3089.48, 0.456815
3091.33, 0.457196
3093.17, 0.457578
3095.02, 0.458013
3096.87, 0.458177
3098.72, 0.458558
3100.57, 0.459103
3102.43, 0.459593
3104.28, 0.459811
3106.14, 0.460193
3108.01, 0.460574
3109.87, 0.460955
3111.74, 0.461500
3113.61, 0.461936
3115.48, 0.462317
3117.35, 0.462699
3119.23, 0.463189
3121.1, 0.463679
3122.98, 0.463897
3124.87, 0.464388
3126.75, 0.464878
3128.64, 0.465477
3130.53, 0.465967
3132.42, 0.466240
3134.31, 0.466676
3136.21, 0.467329
3138.11, 0.467711
3140.01, 0.468201
3141.91, 0.468582
3143.82, 0.468964
3145.73, 0.469345
3147.64, 0.469944
3149.55, 0.470489
3151.46, 0.471089
3153.38, 0.471633
3155.3, 0.472015
3157.22, 0.472342
3159.14, 0.472723
3161.07, 0.473159
3163.0, 0.473595
3164.93, 0.474030
3166.86, 0.474575
3168.8, 0.475175
3170.74, 0.475665
3172.68, 0.475992
3174.62, 0.476482
3176.56, 0.476972
3178.51, 0.477245
3180.46, 0.477517
3182.42, 0.477953
3184.37, 0.478552
3186.33, 0.478988
3188.29, 0.479424
3190.25, 0.479642
3192.21, 0.479969
3194.18, 0.480568
3196.15, 0.480949
3198.12, 0.481222
3200.09, 0.481658
3202.07, 0.482148
3204.05, 0.482475
3206.03, 0.482802
3208.02, 0.483238
3210.0, 0.483564
3211.99, 0.484055
3213.98, 0.484436
3215.98, 0.484709
3217.97, 0.484926
3219.97, 0.485253
3221.97, 0.485362
3223.98, 0.485689
3225.98, 0.486234
3227.99, 0.486670
3230.0, 0.486833
3232.02, 0.487051
3234.03, 0.487487
3236.05, 0.487759
3238.07, 0.488032
3240.1, 0.488522
3242.12, 0.488904
3244.15, 0.489012
3246.18, 0.489230
3248.22, 0.489666
3250.25, 0.490048
3252.29, 0.490429
3254.33, 0.490701
3256.38, 0.491192
3258.43, 0.491410
3260.47, 0.491736
3262.53, 0.491900
3264.58, 0.492336
3266.64, 0.492717
3268.7, 0.492990
3270.76, 0.493425
3272.82, 0.493861
3274.89, 0.494134
3276.96, 0.494406
3279.04, 0.494787
3281.11, 0.495223
3283.19, 0.495605
3285.27, 0.495822
3287.35, 0.496204
3289.44, 0.496640
3291.53, 0.496749
3293.62, 0.496912
3295.71, 0.497348
3297.81, 0.497729
3299.91, 0.497893
3302.01, 0.498220
3304.11, 0.498546
3306.22, 0.498655
3308.33, 0.498819
3310.44, 0.499037
3312.56, 0.499200
3314.68, 0.499418
3316.8, 0.499582
3318.92, 0.499691
3321.05, 0.499854
3323.18, 0.500126
3325.31, 0.500399
3327.44, 0.500508
3329.58, 0.500617
3331.72, 0.500726
3333.86, 0.500944
3336.01, 0.501270
3338.16, 0.501325
3340.31, 0.501379
3342.46, 0.501434
3344.61, 0.501434
3346.77, 0.501161
3348.94, 0.500998
3351.1, 0.500944
3353.27, 0.500617
3355.44, 0.500235
3357.61, 0.499963
3359.79, 0.499636
3361.97, 0.499037
3364.15, 0.498111
3366.33, 0.497130
3368.52, 0.496204
3370.71, 0.495387
3372.9, 0.494678
3375.1, 0.494134
3377.3, 0.493752
3379.5, 0.493861
3381.71, 0.494351
3383.91, 0.494842
3386.12, 0.495278
3388.34, 0.495496
3390.55, 0.495496
3392.77, 0.495169
3394.99, 0.494297
3397.22, 0.493425
3399.45, 0.492172
3401.68, 0.490647
3403.91, 0.488958
3406.15, 0.487106
3408.39, 0.485253
3410.63, 0.483510
3412.87, 0.482202
3415.12, 0.481603
3417.37, 0.481658
3419.63, 0.482747
3421.88, 0.484763
3424.14, 0.487324
3426.41, 0.490157
3428.67, 0.493044
3430.94, 0.495550
3433.21, 0.497511
3435.49, 0.499255
3437.77, 0.500671
3440.05, 0.501924
3442.33, 0.503068
3444.62, 0.504267
3446.91, 0.505302
3449.2, 0.506283
3451.5, 0.507263
3453.8, 0.508244
3456.1, 0.509116
3458.41, 0.509824
3460.72, 0.510478
3463.03, 0.511022
3465.34, 0.511349
3467.66, 0.511458
3469.98, 0.511513
3472.31, 0.511513
3474.63, 0.511513
3476.96, 0.511622
3479.3, 0.511785
3481.64, 0.511731
3483.97, 0.511567
3486.32, 0.511295
3488.66, 0.510968
3491.01, 0.510369
3493.36, 0.509333
3495.72, 0.507917
3498.08, 0.506882
3500.44, 0.506555
3502.81, 0.507100
3505.18, 0.508407
3507.55, 0.510532
3509.92, 0.513093
3512.3, 0.515544
3514.68, 0.517669
3517.06, 0.519412
3519.45, 0.520992
3521.84, 0.522354
3524.24, 0.523662
3526.64, 0.524860
3529.04, 0.525841
3531.44, 0.526604
3533.85, 0.527475
3536.26, 0.528238
3538.67, 0.528837
3541.09, 0.529328
3543.51, 0.529927
3545.93, 0.530417
3548.36, 0.530853
3550.79, 0.531398
3553.22, 0.531888
3555.66, 0.532324
3558.1, 0.532760
3560.54, 0.533141
3562.99, 0.533468
3565.44, 0.533795
3567.9, 0.534176
3570.35, 0.534449
3572.81, 0.534885
3575.28, 0.535320
3577.75, 0.535593
3580.22, 0.535811
3582.69, 0.536029
3585.17, 0.536410
3587.65, 0.536682
3590.14, 0.536846
3592.62, 0.537173
3595.11, 0.537336
3597.61, 0.537609
3600.11, 0.537772
3602.61, 0.538044
3605.11, 0.538317
3607.62, 0.538589
3610.14, 0.538807
3612.65, 0.539080
3615.17, 0.539352
3617.69, 0.539515
3620.22, 0.539733
3622.75, 0.539897
3625.28, 0.540169
3627.82, 0.540387
3630.36, 0.540551
3632.9, 0.540768
3635.45, 0.541041
3638.0, 0.541259
3640.56, 0.541477
3643.12, 0.541586
3645.68, 0.541804
3648.24, 0.542022
3650.81, 0.542239
3653.39, 0.542348
3655.96, 0.542403
3658.54, 0.542621
3661.13, 0.542948
3663.71, 0.543166
3666.3, 0.543275
3668.9, 0.543438
3671.5, 0.543656
3674.1, 0.543819
3676.7, 0.543928
3679.31, 0.544092
3681.93, 0.544255
3684.54, 0.544419
3687.17, 0.544691
3689.79, 0.544800
3692.42, 0.544963
3695.05, 0.545072
3697.69, 0.545236
3700.32, 0.545345
3702.97, 0.545454
3705.61, 0.545563
3708.27, 0.545726
3710.92, 0.545944
3713.58, 0.546108
3716.24, 0.546162
3718.91, 0.546325
3721.58, 0.546489
3724.25, 0.546543
3726.93, 0.546761
3729.61, 0.547143
3732.29, 0.547252
3734.98, 0.547306
3737.67, 0.547469
3740.37, 0.547578
3743.07, 0.547687
3745.78, 0.547960
3748.49, 0.548232
3751.2, 0.548287
3753.91, 0.548232
3756.63, 0.548396
3759.36, 0.548668
3762.09, 0.548723
3764.82, 0.548832
3767.55, 0.548832
3770.29, 0.548940
3773.04, 0.548940
3775.78, 0.549049
3778.54, 0.549213
3781.29, 0.549213
3784.05, 0.549158
3786.82, 0.549267
3789.59, 0.549431
3792.36, 0.549485
3795.13, 0.549540
3797.92, 0.549540
3800.7, 0.549431
3803.49, 0.549485
3806.28, 0.549431
3809.08, 0.549431
3811.88, 0.549485
3814.68, 0.549431
3817.49, 0.549485
3820.31, 0.549540
3823.12, 0.549594
3825.94, 0.549485
3828.77, 0.549485
3831.6, 0.549594
3834.43, 0.549703
3837.27, 0.549758
3840.11, 0.549812
3842.96, 0.549867
3845.81, 0.549976
3848.67, 0.550139
3851.53, 0.550085
3854.39, 0.550193
3857.26, 0.550139
3860.13, 0.550193
3863.01, 0.550357
3865.89, 0.550411
3868.77, 0.550520
3871.66, 0.550629
3874.55, 0.550629
3877.45, 0.550738
3880.35, 0.550684
3883.26, 0.550847
3886.17, 0.551011
3889.09, 0.551011
3892.01, 0.551120
3894.93, 0.551229
3897.86, 0.551283
3900.79, 0.551283
3903.73, 0.551338
3906.67, 0.551283
3909.62, 0.551283
3912.57, 0.551283
3915.52, 0.551338
3918.48, 0.551338
3921.45, 0.551338
3924.42, 0.551283
3927.39, 0.551174
3930.37, 0.551174
3933.35, 0.551065
3936.34, 0.551065
3939.33, 0.550902
3942.32, 0.550684
3945.32, 0.550575
3948.33, 0.550302
3951.34, 0.550139
3954.35, 0.549921
3957.37, 0.549594
3960.39, 0.549431
3963.42, 0.549213
3966.45, 0.548940
3969.49, 0.548723
3972.53, 0.548505
3975.58, 0.548232
3978.63, 0.547851
3981.68, 0.547524
3984.75, 0.547361
3987.81, 0.547252
3990.88, 0.547143
3993.95, 0.546979
3997.03, 0.546870
4000.12, 0.546761
4003.21, 0.546707
4006.3, 0.546761
4009.4, 0.546761
4012.5, 0.546707
4015.61, 0.546761
4018.72, 0.546870
4021.84, 0.547197
4024.96, 0.547524
4028.09, 0.547524
4031.22, 0.547633
4034.36, 0.547905
4037.5, 0.548232
4040.65, 0.548450
4043.8, 0.548668
4046.96, 0.548668
4050.12, 0.548777
4053.29, 0.548940
4056.46, 0.548995
4059.64, 0.549049
4062.82, 0.548940
4066.0, 0.548832
4069.19, 0.548614
4072.39, 0.548559
4075.59, 0.548450
4078.8, 0.548396
4082.01, 0.548287
4085.23, 0.548178
4088.45, 0.547905
4091.68, 0.547851
4094.91, 0.547633
4098.15, 0.547415
4101.39, 0.547306
4104.63, 0.547143
4107.89, 0.546979
4111.14, 0.546761
4114.41, 0.546598
4117.67, 0.546434
4120.95, 0.546162
4124.23, 0.545999
4127.51, 0.545835
4130.8, 0.545617
4134.09, 0.545345
4137.39, 0.545072
4140.7, 0.544909
4144.01, 0.544691
4147.32, 0.544582
4150.64, 0.544419
4153.97, 0.544092
4157.3, 0.543874
4160.64, 0.543710
4163.98, 0.543547
4167.33, 0.543329
4170.68, 0.543002
4174.04, 0.542839
4177.4, 0.542730
4180.77, 0.542512
4184.14, 0.542239
4187.52, 0.541967
4190.91, 0.541640
4194.3, 0.541313
4197.69, 0.540986
4201.1, 0.540551
4204.5, 0.540006
4207.92, 0.539352
4211.34, 0.538644
4214.76, 0.537881
4218.19, 0.537173
4221.62, 0.536519
4225.06, 0.535865
4228.51, 0.535266
4231.96, 0.534885
4235.42, 0.534612
4238.88, 0.534558
4242.35, 0.534558
4245.83, 0.534612
4249.31, 0.535103
4252.79, 0.535538
4256.28, 0.535484
4259.78, 0.534885
4263.29, 0.533958
4266.79, 0.533196
4270.31, 0.532596
4273.83, 0.532106
4277.35, 0.531834
4280.89, 0.531725
4284.42, 0.531452
4287.97, 0.531125
4291.52, 0.531017
4295.07, 0.530908
4298.63, 0.530690
4302.2, 0.530526
4305.78, 0.530417
4309.35, 0.530308
4312.94, 0.530145
4316.53, 0.530090
4320.13, 0.529872
4323.73, 0.529709
4327.34, 0.529546
4330.96, 0.529219
4334.58, 0.528946
4338.21, 0.528674
4341.84, 0.528293
4345.48, 0.527966
4349.12, 0.527748
4352.77, 0.527312
4356.43, 0.526985
4360.1, 0.526713
4363.76, 0.526386
4367.44, 0.526113
4371.12, 0.525786
4374.81, 0.525351
4378.51, 0.524969
4382.21, 0.524588
4385.92, 0.524370
4389.63, 0.523989
4393.35, 0.523498
4397.08, 0.523117
4400.81, 0.522790
4404.55, 0.522518
4408.29, 0.522245
4412.04, 0.521864
4415.8, 0.521483
4419.57, 0.520992
4423.34, 0.520611
4427.12, 0.520284
4430.9, 0.520012
4434.69, 0.519685
4438.49, 0.519358
4442.29, 0.518867
4446.1, 0.518432
4449.92, 0.518105
4453.74, 0.517669
4457.57, 0.517342
4461.41, 0.516852
4465.25, 0.516416
4469.1, 0.516089
4472.95, 0.515708
4476.82, 0.515435
4480.69, 0.515054
4484.56, 0.514509
4488.44, 0.514128
4492.33, 0.513746
4496.23, 0.513256
4500.13, 0.512766
4504.04, 0.512384
4507.96, 0.511949
4511.88, 0.511513
4515.81, 0.511077
4519.75, 0.510587
4523.69, 0.510042
4527.65, 0.509551
4531.6, 0.509061
4535.57, 0.508625
4539.54, 0.508135
4543.52, 0.507590
4547.5, 0.507100
4551.5, 0.506664
4555.5, 0.506119
4559.5, 0.505574
4563.52, 0.504921
4567.54, 0.504376
4571.56, 0.503940
4575.6, 0.503504
4579.64, 0.502959
4583.69, 0.502469
4587.75, 0.501979
4591.81, 0.501488
4595.88, 0.500944
4599.96, 0.500399
4604.04, 0.499963
4608.14, 0.499636
4612.24, 0.499146
4616.34, 0.498601
4620.46, 0.498220
4624.58, 0.497784
4628.71, 0.497293
4632.84, 0.496749
4636.99, 0.496367
4641.14, 0.496149
4645.3, 0.495659
4649.47, 0.495114
4653.64, 0.494733
4657.82, 0.494243
4662.01, 0.493752
4666.21, 0.493316
4670.41, 0.492881
4674.62, 0.492445
4678.84, 0.491900
4683.07, 0.491410
4687.3, 0.490919
4691.54, 0.490374
4695.79, 0.489830
4700.05, 0.489339
4704.31, 0.488795
4708.59, 0.488195
4712.87, 0.487596
4717.15, 0.487051
4721.45, 0.486452
4725.76, 0.485853
4730.07, 0.485253
4734.39, 0.484491
4738.72, 0.483782
4743.05, 0.483074
4747.39, 0.482311
4751.75, 0.481549
4756.1, 0.480786
4760.47, 0.480187
4764.85, 0.479370
4769.23, 0.478498
4773.62, 0.477681
4778.02, 0.476754
4782.43, 0.475774
4786.85, 0.474848
4791.27, 0.473758
4795.7, 0.472614
4800.14, 0.471524
4804.59, 0.470271
4809.05, 0.468909
4813.51, 0.467547
4817.99, 0.466185
4822.47, 0.464660
4826.96, 0.462808
4831.46, 0.460737
4835.96, 0.458395
4840.48, 0.455725
4845.0, 0.452783
4849.54, 0.449351
4854.08, 0.445211
4858.63, 0.440471
4863.18, 0.435023
4867.75, 0.428976
4872.33, 0.422547
4876.91, 0.415737
4881.5, 0.408654
4886.1, 0.401572
4890.71, 0.394871
4895.33, 0.388551
4899.96, 0.382831
4904.59, 0.377655
4909.24, 0.372698
4913.89, 0.367958
4918.55, 0.363273
4923.22, 0.358696
4927.9, 0.354447
4932.59, 0.350688
4937.29, 0.347964
4942.0, 0.346602
4946.71, 0.346275
4951.44, 0.347147
4956.17, 0.348672
4960.91, 0.350851
4965.67, 0.353085
4970.43, 0.355155
4975.2, 0.357062
4979.98, 0.359023
4984.76, 0.360930
4989.56, 0.362619
4994.37, 0.364144
4999.18, 0.365452
5004.01, 0.366650
5008.84, 0.367849
5013.69, 0.368557
5018.54, 0.369102
5023.4, 0.370137
5028.28, 0.370900
5033.16, 0.371336
5038.05, 0.371608
5042.95, 0.371772
5047.86, 0.371717
5052.78, 0.371554
5057.71, 0.371172
5062.65, 0.370736
5067.6, 0.370028
5072.56, 0.369048
5077.53, 0.367740
5082.5, 0.366324
5087.49, 0.365234
5092.49, 0.364035
5097.5, 0.362619
5102.51, 0.361039
5107.54, 0.359405
5112.58, 0.357716
5117.62, 0.356136
5122.68, 0.354501
5127.75, 0.352649
5132.82, 0.350579
5137.91, 0.348400
5143.01, 0.345894
5148.12, 0.343442
5153.23, 0.341862
5158.36, 0.340010
5163.5, 0.337885
5168.65, 0.335542
5173.81, 0.333200
5178.98, 0.330803
5184.15, 0.328133
5189.34, 0.325355
5194.54, 0.322195
5199.75, 0.319362
5204.98, 0.317292
5210.21, 0.314840
5215.45, 0.313532
5220.7, 0.313859
5225.96, 0.313805
5231.23, 0.313750
5236.52, 0.313805
5241.81, 0.314513
5247.12, 0.315112
5252.44, 0.315603
5257.76, 0.315875
5263.1, 0.316202
5268.45, 0.316365
5273.81, 0.316202
5279.18, 0.316093
5284.56, 0.315712
5289.95, 0.314513
5295.36, 0.314241
5300.77, 0.314186
5306.2, 0.313478
5311.63, 0.312824
5317.08, 0.312225
5322.54, 0.311462
5328.01, 0.310645
5333.49, 0.309337
5338.98, 0.307540
5344.49, 0.304325
5350.0, 0.300784
5355.53, 0.299150
5361.07, 0.297788
5366.62, 0.295717
5372.18, 0.293484
5377.75, 0.291522
5383.34, 0.289616
5388.93, 0.287382
5394.54, 0.284821
5400.16, 0.282097
5405.79, 0.279319
5411.44, 0.276323
5417.09, 0.272346
5422.76, 0.269077
5428.43, 0.269131
5434.12, 0.268423
5439.83, 0.266952
5445.54, 0.265917
5451.26, 0.265481
5457.0, 0.264664
5462.75, 0.263520
5468.52, 0.264282
5474.29, 0.264991
5480.08, 0.265209
5485.88, 0.266789
5491.69, 0.267497
5497.51, 0.267660
5503.35, 0.267606
5509.2, 0.267660
5515.06, 0.266843
5520.93, 0.265808
5526.82, 0.265154
5532.71, 0.264391
5538.63, 0.262757
5544.55, 0.260033
5550.49, 0.256219
5556.44, 0.252406
5562.4, 0.247938
5568.37, 0.242055
5574.36, 0.233883
5580.36, 0.226419
5586.37, 0.221298
5592.4, 0.215959
5598.44, 0.210129
5604.49, 0.205880
5610.56, 0.202992
5616.63, 0.201195
5622.73, 0.200650
5628.83, 0.200595
5634.95, 0.199996
5641.08, 0.199996
5647.23, 0.203810
5653.39, 0.208005
5659.56, 0.212853
5665.74, 0.218083
5671.94, 0.221788
5678.15, 0.226909
5684.38, 0.232521
5690.62, 0.236988
5696.87, 0.242382
5703.14, 0.246195
5709.42, 0.248538
5715.72, 0.253278
5722.03, 0.258290
5728.35, 0.262648
5734.69, 0.265644
5741.03, 0.267715
5747.4, 0.268804
5753.78, 0.271310
5760.17, 0.268859
5766.58, 0.265590
5773.0, 0.268804
5779.44, 0.270221
5785.88, 0.269839
5792.35, 0.268804
5798.83, 0.266952
5805.32, 0.265590
5811.83, 0.262648
5818.35, 0.257309
5824.89, 0.255784
5831.45, 0.257527
5838.01, 0.258235
5844.59, 0.257472
5851.19, 0.255457
5857.8, 0.252733
5864.43, 0.250717
5871.07, 0.249464
5877.73, 0.243580
5884.4, 0.243580
5891.09, 0.245051
5897.79, 0.244670
5904.5, 0.248538
5911.23, 0.249192
5917.98, 0.247993
5924.75, 0.245977
5931.53, 0.240039
5938.32, 0.236498
5945.13, 0.238949
5951.96, 0.238622
5958.8, 0.236225
5965.65, 0.231322
5972.53, 0.229088
5979.42, 0.227835
5986.32, 0.224458
5993.24, 0.224131
6000.18, 0.226582
6007.13, 0.227835
6014.1, 0.230450
6021.08, 0.237315
6028.09, 0.245160
6035.1, 0.252188
6042.14, 0.253931
6049.19, 0.258017
6056.25, 0.273544
6063.34, 0.282751
6070.44, 0.285748
6077.55, 0.292612
6084.69, 0.300403
6091.84, 0.304489
6099.0, 0.306504
6106.19, 0.304925
6113.39, 0.303399
6120.61, 0.309119
6127.84, 0.313478
6135.09, 0.313805
6142.36, 0.313641
6149.65, 0.314023
6156.95, 0.312879
6164.27, 0.313968
6171.61, 0.315439
6178.97, 0.311898
6186.34, 0.309501
6193.73, 0.313260
6201.14, 0.314295
6208.57, 0.313097
6216.01, 0.311952
6223.47, 0.311353
6230.95, 0.310482
6238.45, 0.309392
6245.97, 0.308466
6253.5, 0.307703
6261.06, 0.306831
6268.63, 0.306232
6276.21, 0.306123
6283.82, 0.306341
6291.45, 0.306668
6299.1, 0.307376
6306.76, 0.308030
6314.44, 0.308902
6322.14, 0.309664
6329.86, 0.309991
6337.6, 0.306668
6345.35, 0.305034
6353.13, 0.309610
6360.92, 0.310373
6368.74, 0.307703
6376.57, 0.309228
6384.43, 0.310808
6392.3, 0.311135
6400.19, 0.309446
6408.1, 0.301220
6416.03, 0.299313
6423.98, 0.307158
6431.95, 0.310590
6439.94, 0.313206
6447.95, 0.314459
6455.98, 0.315330
6464.03, 0.315330
6472.1, 0.312988
6480.19, 0.310046
6488.31, 0.305469
6496.44, 0.306396
6504.59, 0.313805
6512.76, 0.315221
6520.95, 0.313587
6529.16, 0.316147
6537.4, 0.316801
6545.65, 0.315276
6553.92, 0.314132
6562.22, 0.313042
6570.54, 0.309610
6578.88, 0.311626
6587.23, 0.313206
6595.61, 0.313641
6604.02, 0.314894
6612.44, 0.314132
6620.89, 0.312116
6629.35, 0.305687
6637.84, 0.301329
6646.35, 0.306559
6654.88, 0.309828
6663.44, 0.307594
6672.01, 0.303780
6680.61, 0.300784
6689.23, 0.301383
6697.88, 0.300948
6706.54, 0.296807
6715.23, 0.294301
6723.94, 0.293702
6732.67, 0.293102
6741.42, 0.291468
6750.2, 0.288907
6759.0, 0.286728
6767.82, 0.283350
6776.67, 0.279700
6785.54, 0.275669
6794.44, 0.275015
6803.35, 0.277358
6812.29, 0.277085
6821.26, 0.274743
6830.24, 0.274525
6839.25, 0.275832
6848.29, 0.273599
6857.35, 0.268042
6866.43, 0.266952
6875.54, 0.271147
6884.67, 0.271419
6893.82, 0.269839
6903.0, 0.267224
6912.2, 0.265699
6921.43, 0.264282
6930.69, 0.262321
6939.96, 0.259979
6949.27, 0.256219
6958.59, 0.251098
6967.95, 0.250554
6977.33, 0.249845
6986.73, 0.246903
6996.16, 0.244070
7005.61, 0.241891
7015.09, 0.239004
7024.6, 0.236280
7034.13, 0.233447
7043.69, 0.229797
7053.27, 0.229960
7062.88, 0.231431
7072.52, 0.231594
7082.18, 0.231268
7091.87, 0.230832
7101.58, 0.230178
7111.32, 0.228870
7121.09, 0.227999
7130.88, 0.227291
7140.71, 0.225057
7150.56, 0.223096
7160.43, 0.221625
7170.33, 0.219827
7180.27, 0.219772
7190.23, 0.219119
7200.21, 0.217266
7210.23, 0.216068
7220.27, 0.216667
7230.34, 0.216612
7240.44, 0.216395
7250.56, 0.215959
7260.72, 0.215468
7270.9, 0.214324
7281.12, 0.213616
7291.36, 0.213071
7301.63, 0.211764
7311.93, 0.210184
7322.25, 0.208440
7332.61, 0.205771
7343.0, 0.203864
7353.41, 0.202666
7363.86, 0.201358
7374.33, 0.199833
7384.83, 0.198471
7395.37, 0.197054
7405.93, 0.195692
7416.53, 0.194330
7427.15, 0.193132
7437.81, 0.191879
7448.5, 0.190517
7459.22, 0.188882
7469.96, 0.187902
7480.74, 0.187193
7491.55, 0.186431
7502.39, 0.185450
7513.27, 0.184578
7524.17, 0.183816
7535.11, 0.183107
7546.08, 0.182508
7557.08, 0.182290
7568.11, 0.182236
7579.17, 0.182345
7590.27, 0.182726
7601.4, 0.183216
7612.56, 0.183489
7623.76, 0.183979
7634.98, 0.184251
7646.24, 0.184469
7657.54, 0.184415
7668.87, 0.184251
7680.23, 0.183870
7691.62, 0.183434
7703.05, 0.182835
7714.51, 0.182236
7726.01, 0.181473
7737.54, 0.180438
7749.11, 0.179130
7760.71, 0.177986
7772.35, 0.177060
7784.02, 0.176188
7795.72, 0.175371
7807.46, 0.174717
7819.23, 0.174282
7831.04, 0.174009
7842.89, 0.173737
7854.77, 0.173192
7866.69, 0.172484
7878.65, 0.171721
7890.64, 0.170849
7902.67, 0.169869
7914.74, 0.168725
7926.84, 0.167635
7938.98, 0.166491
7951.16, 0.165129
7963.37, 0.163386
7975.62, 0.161533
7987.91, 0.159626
8000.24, 0.157611
8012.6, 0.155268
8025.01, 0.152816
8037.45, 0.150365
8049.93, 0.148295
8062.45, 0.146061
8075.01, 0.143718
8087.61, 0.141321
8100.24, 0.138924
8112.91, 0.136254
8125.63, 0.133530
8138.39, 0.130643
8151.18, 0.127701
8164.02, 0.124650
8176.9, 0.121981
8189.81, 0.119475
8202.77, 0.117241
8215.77, 0.115171
8228.82, 0.113427
8241.9, 0.111575
8255.02, 0.109777
8268.19, 0.108034
8281.39, 0.106236
8294.65, 0.104275
8307.94, 0.102422
8321.28, 0.100570
8334.66, 0.0985540
8348.08, 0.0965390
8361.54, 0.0945230
8375.05, 0.0924530
8388.6, 0.0903280
8402.2, 0.0881490
8415.84, 0.0860780
8429.52, 0.0841170
8443.25, 0.0822650
8457.02, 0.0804670
8470.84, 0.0789420
8484.7, 0.0772530
8498.61, 0.0756730
8512.57, 0.0740380
8526.57, 0.0722400
8540.62, 0.0702790
8554.71, 0.0683720
8568.85, 0.0663570
8583.04, 0.0643410
8597.27, 0.0623250
8611.55, 0.0604180
8625.88, 0.0586200
8640.26, 0.0569860
8654.68, 0.0552970
8669.16, 0.0535540
8683.68, 0.0516470
8698.25, 0.0501220
8712.87, 0.0484330
8727.53, 0.0468530
8742.25, 0.0452180
8757.02, 0.0436380
8771.83, 0.0419500
8786.7, 0.0406420
8801.62, 0.0392260
8816.59, 0.0379730
8831.61, 0.0369370
8846.68, 0.0361750
8861.8, 0.0354120
8876.97, 0.0345400
8892.2, 0.0339960
8907.48, 0.0337780
8922.81, 0.0337780
8938.2, 0.0339410
8953.63, 0.0343220
8969.13, 0.0349760
8984.67, 0.0356300
9000.27, 0.0366110
9015.92, 0.0376460
9031.63, 0.0391170
9047.39, 0.0406420
9063.21, 0.0424940
9079.08, 0.0444010
9095.01, 0.0469620
9111.0, 0.0500670
9127.04, 0.0538260
9143.13, 0.0576940
9159.28, 0.0623800
9175.49, 0.0676100
9191.76, 0.0733300
9208.09, 0.0795950
9224.47, 0.0865140
9240.92, 0.0939240
9257.42, 0.101769
9273.98, 0.109723
9290.6, 0.117350
9307.28, 0.124160
9324.02, 0.129935
9340.82, 0.133966
9357.68, 0.136690
9374.6, 0.137834
9391.58, 0.138379
9408.62, 0.138543
9425.73, 0.138543
9442.9, 0.138379
9460.13, 0.138270
9477.42, 0.137780
9494.78, 0.137399
9512.2, 0.137072
9529.69, 0.136363
9547.24, 0.135328
9564.86, 0.134239
9582.54, 0.132822
9600.28, 0.131242
9618.1, 0.129717
9635.97, 0.128082
9653.92, 0.126121
9671.93, 0.124269
9690.01, 0.122253
9708.16, 0.120401
9726.37, 0.118603
9744.65, 0.116805
9763.0, 0.114898
9781.43, 0.113100
9799.92, 0.111521
9818.48, 0.110104
9837.1, 0.108906
9855.8, 0.107870
9874.58, 0.106944
9893.42, 0.106127
9912.34, 0.105310
9931.33, 0.104656
9950.39, 0.103893
9969.52, 0.103512
9988.74, 0.103458
10008.0, 0.103839
10027.4, 0.104329
10046.8, 0.105364
10066.3, 0.107217
10085.9, 0.110376
10105.6, 0.114571
10125.3, 0.118548
10145.1, 0.120401
10165.0, 0.119693
10185.0, 0.116533
10205.0, 0.112665
10225.2, 0.109777
10245.4, 0.108252
10265.7, 0.107925
10286.0, 0.109014
10306.5, 0.110812
10327.0, 0.113155
10347.6, 0.115879
10368.3, 0.118222
10389.1, 0.119475
10409.9, 0.122253
10430.9, 0.131024
10451.9, 0.143882
10473.0, 0.154887
10494.2, 0.162405
10515.5, 0.166818
10536.9, 0.169106
10558.4, 0.170250
10579.9, 0.170849
10601.5, 0.170631
10623.3, 0.170413
10645.1, 0.169869
10667.0, 0.168888
10689.0, 0.167744
10711.1, 0.166763
10733.2, 0.165892
10755.5, 0.165020
10777.9, 0.163821
10800.3, 0.162732
10822.9, 0.161642
10845.5, 0.160335
10868.2, 0.159027
10891.1, 0.157774
10914.0, 0.156521
10937.0, 0.155649
10960.2, 0.154560
10983.4, 0.153470
11006.7, 0.152544
11030.1, 0.151563
11053.6, 0.150474
11077.3, 0.149384
11101.0, 0.148295
11124.8, 0.147314
11148.7, 0.146551
11172.7, 0.146170
11196.9, 0.145407
11221.1, 0.144318
11245.4, 0.143337
11269.9, 0.142138
11294.4, 0.140722
11319.1, 0.139087
11343.9, 0.137017
11368.8, 0.134402
11393.7, 0.131188
11418.8, 0.127156
11444.0, 0.121436
11469.4, 0.114354
11494.8, 0.106236
11520.3, 0.0986090
11546.0, 0.0916900
11571.8, 0.0860240
11597.7, 0.0813390
11623.7, 0.0775800
11649.8, 0.0744200
11676.0, 0.0715320
11702.4, 0.0689170
11728.9, 0.0662480
11755.5, 0.0631970
11782.2, 0.0602550
11809.0, 0.0578030
11836.0, 0.0568230
11863.0, 0.0578030
11890.3, 0.0597650
11917.6, 0.0614530
11945.0, 0.0628700
11972.6, 0.0635780
12000.4, 0.0641770
12028.2, 0.0648860
12056.2, 0.0657570
12084.3, 0.0665200
12112.5, 0.0679370
12140.9, 0.0694080
12169.4, 0.0709330
12198.0, 0.0727850
12226.8, 0.0743650
12255.7, 0.0755090
12284.7, 0.0770890
12313.9, 0.0787240
12343.2, 0.0805760
12372.7, 0.0824830
12402.3, 0.0845530
12432.0, 0.0865140
12461.9, 0.0883120
12491.9, 0.0901100
12522.1, 0.0919080
12552.4, 0.0933240
12582.9, 0.0947410
12613.5, 0.0957760
12644.3, 0.0967020
12675.2, 0.0973010
12706.3, 0.0983360
12737.5, 0.0989360
12768.9, 0.0995890
12800.4, 0.0999710
12832.1, 0.100516
12863.9, 0.100897
12895.9, 0.100842
12928.1, 0.100842
12960.4, 0.100842
12992.9, 0.100461
13025.5, 0.0998620
13058.3, 0.0992080
13091.3, 0.0986090
13124.4, 0.0980100
13157.8, 0.0974650
13191.2, 0.0966480
13224.9, 0.0959390
13258.7, 0.0949040
13292.7, 0.0939240
13326.9, 0.0930520
13361.2, 0.0920170
13395.7, 0.0907090
13430.4, 0.0897830
13465.3, 0.0889110
13500.4, 0.0878760
13535.7, 0.0866230
13571.1, 0.0854790
13606.7, 0.0841170
13642.5, 0.0825920
13678.5, 0.0810120
13714.7, 0.0793770
13751.1, 0.0780150
13787.6, 0.0765990
13824.4, 0.0747470
13861.4, 0.0736020
13898.5, 0.0724580
13935.9, 0.0707700
13973.5, 0.0687540
14011.2, 0.0670100
14049.2, 0.0653220
14087.4, 0.0637960
14125.8, 0.0625980
14164.3, 0.0611810
14203.2, 0.0590020
14242.2, 0.0569860
14281.4, 0.0550790
14320.9, 0.0534990
14360.5, 0.0518650
14400.4, 0.0501220
14440.5, 0.0481600
14480.9, 0.0465800
14521.4, 0.0450550
14562.2, 0.0434210
14603.3, 0.0418950
14644.5, 0.0409690
14686.0, 0.0399880
14727.7, 0.0390080
14769.7, 0.0384080
14811.9, 0.0376460
14854.3, 0.0364470
14897.0, 0.0354120
14939.9, 0.0343220
14983.1, 0.0337780
15026.5, 0.0333960
15070.2, 0.0335600
15114.2, 0.0339410
15158.3, 0.0342130
15202.8, 0.0346490
15247.5, 0.0359570
15292.5, 0.0378640
15337.7, 0.0400430
15383.2, 0.0424940
15429.0, 0.0456000
15475.1, 0.0489780
15521.4, 0.0523550
15568.0, 0.0554060
15614.9, 0.0583480
15662.1, 0.0605270
15709.6, 0.0621620
15757.3, 0.0633060
15805.4, 0.0645590
15853.7, 0.0653220
15902.3, 0.0657030
15951.2, 0.0652130
16000.5, 0.0647220
16050.0, 0.0643950
16099.8, 0.0634150
16150.0, 0.0619440
16200.5, 0.0607450
16251.3, 0.0588380
16302.4, 0.0572040
16353.8, 0.0551340
16405.5, 0.0525190
16457.6, 0.0504480
16510.0, 0.0487050
16562.8, 0.0466350
16615.9, 0.0451640
16669.3, 0.0429300
16723.1, 0.0411320
16777.2, 0.0394980
16831.7, 0.0378640
16886.5, 0.0370460
16941.7, 0.0372100
16997.2, 0.0372640
17053.1, 0.0377550
17109.4, 0.0381900
17166.1, 0.0393890
17223.1, 0.0410780
17280.5, 0.0431480
17338.3, 0.0452730
17396.5, 0.0484330
17455.1, 0.0515380
17514.0, 0.0550790
17573.4, 0.0584030
17633.2, 0.0615080
17693.4, 0.0649950
17754.0, 0.0681000
17815.0, 0.0702790
17876.4, 0.0730030
17938.3, 0.0760000
18000.5, 0.0781790
18063.3, 0.0799220
18126.4, 0.0824830
18190.0, 0.0852610
18254.1, 0.0880400
18318.6, 0.0895650
18383.5, 0.0907640
18449.0, 0.0915810
18514.9, 0.0938690
18581.2, 0.0975190
18648.0, 0.102531
18715.4, 0.108633
18783.2, 0.114571
18851.5, 0.119529
18920.3, 0.123125
18989.6, 0.124596
19059.4, 0.123179
19129.7, 0.119148
19200.6, 0.115498
19272.0, 0.112011
19343.9, 0.110104
19416.3, 0.108361
19489.3, 0.105473
19562.8, 0.102096
19637.0, 0.100407
19711.6, 0.0995350
19786.8, 0.101169
19862.6, 0.0996980
19939.0, 0.0955030
20016.0, 0.0885300
20093.6, 0.0816110
20171.8, 0.0739290
20250.6, 0.0673920
20330.0, 0.0607450
20410.0, 0.0549160
20490.7, 0.0497950
20572.0, 0.0457090
20654.0, 0.0429850
20736.6, 0.0432030
20819.9, 0.0442920
20903.8, 0.0467980
20988.5, 0.0498490
21073.8, 0.0552430
21159.8, 0.0581300
21246.5, 0.0600910
21334.0, 0.0608540
21422.1, 0.0606360
21511.0, 0.0572040
21600.7, 0.0551880
21691.0, 0.0555150
21782.1, 0.0587840
21874.0, 0.0623250
21966.7, 0.0673920
22060.2, 0.0721320
22154.5, 0.0803580
22249.6, 0.0898920
22345.5, 0.0977920
22442.2, 0.101878
22539.8, 0.106345
22638.2, 0.108034
22737.5, 0.109941
22837.7, 0.110213
22938.7, 0.115988
23040.7, 0.124432
23143.5, 0.133422
23247.3, 0.142465
23352.1, 0.150147
23457.7, 0.154233
23564.4, 0.158482
23672.0, 0.160607
23780.5, 0.164475
23890.1, 0.166436
24000.7, 0.169978
24112.3, 0.167472
24225.0, 0.163549
24338.7, 0.157284
24453.5, 0.146606
24569.4, 0.136091
