Database of Origin, USGS Spectral Database
Sample Description, See USGS database for additional info
Date Added,2016-08-03 20:50:47.046991

Data ID,USGS_act05          
Sample ID, actinolite_hs315.178
Mineral Name, actinolite
Material Class,Inosilicate

Wavelength
1691.96, 0.638473
1692.51, 0.638618
1693.06, 0.638908
1693.61, 0.639198
1694.17, 0.639488
1694.72, 0.639198
1695.28, 0.638763
1695.83, 0.638908
1696.39, 0.639488
1696.94, 0.638908
1697.5, 0.639053
1698.05, 0.639778
1698.61, 0.639633
1699.17, 0.639633
1699.72, 0.639778
1700.28, 0.639923
1700.84, 0.640068
1701.4, 0.639633
1701.95, 0.639198
1702.51, 0.639198
1703.07, 0.639343
1703.63, 0.639488
1704.19, 0.639923
1704.75, 0.640068
1705.31, 0.640068
1705.88, 0.639633
1706.44, 0.639343
1707.0, 0.639923
1707.56, 0.640213
1708.12, 0.639488
1708.69, 0.639053
1709.25, 0.639923
1709.81, 0.640504
1710.38, 0.640359
1710.94, 0.640213
1711.51, 0.640213
1712.07, 0.640213
1712.64, 0.640213
1713.2, 0.640794
1713.77, 0.640939
1714.34, 0.640359
1714.9, 0.640213
1715.47, 0.640649
1716.04, 0.641084
1716.61, 0.640794
1717.18, 0.640359
1717.74, 0.640213
1718.31, 0.639488
1718.88, 0.639778
1719.45, 0.640794
1720.02, 0.641374
1720.59, 0.641374
1721.17, 0.641374
1721.74, 0.641664
1722.31, 0.641229
1722.88, 0.640939
1723.45, 0.640794
1724.03, 0.640213
1724.6, 0.640504
1725.18, 0.640649
1725.75, 0.640649
1726.33, 0.640794
1726.9, 0.640504
1727.48, 0.640794
1728.05, 0.640504
1728.63, 0.640504
1729.2, 0.640649
1729.78, 0.640939
1730.36, 0.641229
1730.94, 0.640939
1731.51, 0.640939
1732.09, 0.641519
1732.67, 0.641664
1733.25, 0.641519
1733.83, 0.642244
1734.41, 0.642244
1734.99, 0.642099
1735.57, 0.642099
1736.15, 0.642244
1736.73, 0.642534
1737.32, 0.642534
1737.9, 0.642534
1738.48, 0.642099
1739.07, 0.641809
1739.65, 0.641954
1740.23, 0.642389
1740.82, 0.642824
1741.4, 0.642969
1741.99, 0.642679
1742.57, 0.643114
1743.16, 0.642969
1743.74, 0.642969
1744.33, 0.643114
1744.92, 0.642824
1745.51, 0.642534
1746.09, 0.642679
1746.68, 0.642969
1747.27, 0.643259
1747.86, 0.643404
1748.45, 0.643549
1749.04, 0.643549
1749.63, 0.643549
1750.22, 0.643549
1750.81, 0.643404
1751.4, 0.642969
1751.99, 0.643259
1752.59, 0.643694
1753.18, 0.644130
1753.77, 0.644275
1754.37, 0.643694
1754.96, 0.643259
1755.56, 0.643549
1756.15, 0.643694
1756.74, 0.643839
1757.34, 0.643549
1757.94, 0.643694
1758.53, 0.645000
1759.13, 0.645000
1759.73, 0.644420
1760.32, 0.644710
1760.92, 0.645000
1761.52, 0.645580
1762.12, 0.645290
1762.72, 0.644710
1763.32, 0.644420
1763.92, 0.644420
1764.52, 0.644565
1765.12, 0.644855
1765.72, 0.645435
1766.32, 0.645435
1766.92, 0.645145
1767.53, 0.644855
1768.13, 0.645000
1768.73, 0.645725
1769.34, 0.645435
1769.94, 0.645000
1770.55, 0.645000
1771.15, 0.645580
1771.76, 0.645580
1772.36, 0.645145
1772.97, 0.645145
1773.57, 0.645435
1774.18, 0.644855
1774.79, 0.645000
1775.4, 0.645145
1776.0, 0.645145
1776.61, 0.645145
1777.22, 0.644855
1777.83, 0.645000
1778.44, 0.645580
1779.05, 0.645290
1779.66, 0.645145
1780.27, 0.645290
1780.88, 0.645435
1781.5, 0.645145
1782.11, 0.644855
1782.72, 0.645145
1783.33, 0.645000
1783.95, 0.645000
1784.56, 0.644565
1785.18, 0.644420
1785.79, 0.644855
1786.41, 0.645000
1787.02, 0.644565
1787.64, 0.644275
1788.26, 0.644130
1788.87, 0.644275
1789.49, 0.645000
1790.11, 0.645000
1790.73, 0.645000
1791.35, 0.645435
1791.96, 0.645000
1792.58, 0.644565
1793.21, 0.645000
1793.83, 0.645290
1794.45, 0.644855
1795.07, 0.644565
1795.69, 0.644130
1796.31, 0.643984
1796.93, 0.644130
1797.56, 0.643839
1798.18, 0.644275
1798.8, 0.645000
1799.43, 0.644710
1800.05, 0.643694
1800.68, 0.643694
1801.3, 0.643694
1801.93, 0.643404
1802.56, 0.643259
1803.18, 0.643114
1803.81, 0.642824
1804.44, 0.643114
1805.07, 0.643114
1805.7, 0.643404
1806.33, 0.643114
1806.95, 0.642969
1807.58, 0.642969
1808.22, 0.643114
1808.85, 0.643259
1809.48, 0.642969
1810.11, 0.642824
1810.74, 0.642389
1811.38, 0.642099
1812.01, 0.642099
1812.64, 0.642389
1813.28, 0.642534
1813.91, 0.642679
1814.55, 0.643114
1815.18, 0.643404
1815.82, 0.642824
1816.45, 0.642679
1817.09, 0.642534
1817.73, 0.642534
1818.36, 0.642824
1819.0, 0.642824
1819.64, 0.642969
1820.28, 0.642679
1820.92, 0.641809
1821.56, 0.641954
1822.2, 0.641809
1822.84, 0.641374
1823.48, 0.641229
1824.12, 0.641809
1824.76, 0.641954
1825.41, 0.642244
1826.05, 0.642244
1826.69, 0.641374
1827.34, 0.641374
1827.98, 0.641809
1828.63, 0.641809
1829.27, 0.641229
1829.92, 0.641229
1830.56, 0.641809
1831.21, 0.641519
1831.86, 0.640939
1832.5, 0.640504
1833.15, 0.640794
1833.8, 0.640939
1834.45, 0.641374
1835.1, 0.641664
1835.75, 0.641809
1836.4, 0.641084
1837.05, 0.640939
1837.7, 0.640939
1838.35, 0.640504
1839.01, 0.641084
1839.66, 0.641374
1840.31, 0.640794
1840.96, 0.641229
1841.62, 0.641229
1842.27, 0.640213
1842.93, 0.639778
1843.58, 0.640068
1844.24, 0.639923
1844.9, 0.639778
1845.55, 0.640359
1846.21, 0.640649
1846.87, 0.640939
1847.53, 0.640794
1848.18, 0.640649
1848.84, 0.640213
1849.5, 0.640068
1850.16, 0.639778
1850.82, 0.639778
1851.48, 0.639778
1852.14, 0.639488
1852.81, 0.639343
1853.47, 0.639488
1854.13, 0.639198
1854.8, 0.638473
1855.46, 0.638473
1856.12, 0.639343
1856.79, 0.638908
1857.45, 0.638473
1858.12, 0.638763
1858.79, 0.639053
1859.45, 0.639053
1860.12, 0.638473
1860.79, 0.637893
1861.46, 0.638038
1862.12, 0.637893
1862.79, 0.637748
1863.46, 0.638183
1864.13, 0.638038
1864.8, 0.637603
1865.48, 0.637458
1866.15, 0.637603
1866.82, 0.638183
1867.49, 0.638183
1868.16, 0.637313
1868.84, 0.637458
1869.51, 0.637603
1870.19, 0.637748
1870.86, 0.637313
1871.54, 0.636442
1872.21, 0.637022
1872.89, 0.637603
1873.56, 0.637168
1874.24, 0.636587
1874.92, 0.635862
1875.6, 0.635427
1876.28, 0.635717
1876.96, 0.635717
1877.64, 0.635137
1878.32, 0.635282
1879.0, 0.635282
1879.68, 0.634992
1880.36, 0.635137
1881.04, 0.635137
1881.73, 0.634702
1882.41, 0.634412
1883.09, 0.633977
1883.78, 0.633832
1884.46, 0.633687
1885.15, 0.633542
1885.83, 0.633397
1886.52, 0.632816
1887.21, 0.632236
1887.89, 0.632236
1888.58, 0.632381
1889.27, 0.632236
1889.96, 0.632236
1890.65, 0.631511
1891.34, 0.630786
1892.03, 0.630351
1892.72, 0.629916
1893.41, 0.629480
1894.1, 0.629045
1894.79, 0.628465
1895.49, 0.627740
1896.18, 0.627160
1896.87, 0.627450
1897.57, 0.627160
1898.26, 0.625999
1898.96, 0.625274
1899.65, 0.624694
1900.35, 0.624114
1901.05, 0.623389
1901.74, 0.622663
1902.44, 0.622083
1903.14, 0.621503
1903.84, 0.620488
1904.54, 0.619763
1905.24, 0.619473
1905.94, 0.618747
1906.64, 0.618167
1907.34, 0.617442
1908.04, 0.617442
1908.75, 0.617297
1909.45, 0.616137
1910.15, 0.615846
1910.86, 0.615556
1911.56, 0.614976
1912.27, 0.614686
1912.97, 0.615556
1913.68, 0.615701
1914.39, 0.615121
1915.09, 0.614541
1915.8, 0.614251
1916.51, 0.614106
1917.22, 0.614106
1917.93, 0.613961
1918.64, 0.613816
1919.35, 0.614106
1920.06, 0.614686
1920.77, 0.614686
1921.48, 0.614396
1922.19, 0.614541
1922.91, 0.614686
1923.62, 0.615556
1924.33, 0.616137
1925.05, 0.616717
1925.76, 0.617297
1926.48, 0.617587
1927.19, 0.617587
1927.91, 0.617587
1928.63, 0.617877
1929.35, 0.617877
1930.07, 0.618457
1930.78, 0.618747
1931.5, 0.618892
1932.22, 0.619037
1932.94, 0.619037
1933.66, 0.619037
1934.39, 0.619473
1935.11, 0.619908
1935.83, 0.620198
1936.55, 0.620053
1937.28, 0.619908
1938.0, 0.619908
1938.73, 0.619763
1939.45, 0.620053
1940.18, 0.620053
1940.9, 0.620343
1941.63, 0.620053
1942.36, 0.619763
1943.09, 0.620053
1943.81, 0.620053
1944.54, 0.619327
1945.27, 0.619037
1946.0, 0.619473
1946.73, 0.619473
1947.47, 0.619327
1948.2, 0.619473
1948.93, 0.619473
1949.66, 0.619182
1950.4, 0.618747
1951.13, 0.618602
1951.86, 0.618602
1952.6, 0.618457
1953.34, 0.618457
1954.07, 0.617877
1954.81, 0.617297
1955.55, 0.617007
1956.29, 0.617587
1957.02, 0.617587
1957.76, 0.617297
1958.5, 0.617297
1959.24, 0.617152
1959.98, 0.617007
1960.72, 0.616862
1961.47, 0.616282
1962.21, 0.615701
1962.95, 0.615411
1963.7, 0.614686
1964.44, 0.614541
1965.18, 0.614541
1965.93, 0.614541
1966.67, 0.614251
1967.42, 0.613961
1968.17, 0.613526
1968.92, 0.612946
1969.66, 0.612946
1970.41, 0.613091
1971.16, 0.612511
1971.91, 0.611930
1972.66, 0.611930
1973.41, 0.611930
1974.16, 0.611640
1974.92, 0.611060
1975.67, 0.610625
1976.42, 0.610480
1977.18, 0.610480
1977.93, 0.610190
1978.69, 0.610045
1979.44, 0.609755
1980.2, 0.609465
1980.95, 0.609030
1981.71, 0.608304
1982.47, 0.608304
1983.23, 0.608449
1983.99, 0.608304
1984.74, 0.607869
1985.51, 0.607434
1986.27, 0.606999
1987.03, 0.606709
1987.79, 0.606854
1988.55, 0.607144
1989.32, 0.606709
1990.08, 0.606129
1990.84, 0.606274
1991.61, 0.606564
1992.37, 0.606564
1993.14, 0.606129
1993.9, 0.605839
1994.67, 0.605839
1995.44, 0.605984
1996.21, 0.606129
1996.98, 0.605984
1997.75, 0.605839
1998.52, 0.606129
1999.29, 0.606274
2000.06, 0.605984
2000.83, 0.605694
2001.6, 0.605694
2002.38, 0.605403
2003.15, 0.605403
2003.93, 0.605549
2004.7, 0.604968
2005.48, 0.604533
2006.25, 0.604823
2007.03, 0.605113
2007.81, 0.605258
2008.58, 0.604968
2009.36, 0.604823
2010.14, 0.604678
2010.92, 0.604823
2011.7, 0.604968
2012.48, 0.605113
2013.26, 0.605403
2014.05, 0.605549
2014.83, 0.605549
2015.61, 0.605984
2016.4, 0.606419
2017.18, 0.606564
2017.97, 0.606419
2018.75, 0.606854
2019.54, 0.607144
2020.32, 0.606854
2021.11, 0.607289
2021.9, 0.607724
2022.69, 0.608159
2023.48, 0.609030
2024.27, 0.609755
2025.06, 0.609900
2025.85, 0.610045
2026.64, 0.610480
2027.44, 0.610335
2028.23, 0.609900
2029.02, 0.610045
2029.82, 0.610335
2030.61, 0.610480
2031.41, 0.610480
2032.2, 0.610480
2033.0, 0.610625
2033.8, 0.610915
2034.6, 0.610915
2035.4, 0.610770
2036.2, 0.610770
2037.0, 0.610770
2037.8, 0.610915
2038.6, 0.610915
2039.4, 0.610480
2040.2, 0.610190
2041.01, 0.610190
2041.81, 0.610045
2042.61, 0.609900
2043.42, 0.610045
2044.22, 0.610190
2045.03, 0.609755
2045.84, 0.609320
2046.65, 0.609320
2047.46, 0.608449
2048.26, 0.607869
2049.07, 0.607724
2049.88, 0.607289
2050.69, 0.607144
2051.51, 0.606854
2052.32, 0.606419
2053.13, 0.606564
2053.94, 0.606564
2054.76, 0.606419
2055.57, 0.606274
2056.39, 0.605984
2057.2, 0.605984
2058.02, 0.606129
2058.84, 0.606129
2059.66, 0.605984
2060.48, 0.605984
2061.29, 0.606419
2062.11, 0.606129
2062.94, 0.605549
2063.76, 0.605549
2064.58, 0.605549
2065.4, 0.605403
2066.22, 0.605258
2067.05, 0.604533
2067.87, 0.604098
2068.7, 0.603518
2069.52, 0.602503
2070.35, 0.602068
2071.18, 0.601342
2072.0, 0.600327
2072.83, 0.599602
2073.66, 0.598877
2074.49, 0.597716
2075.32, 0.596266
2076.15, 0.595541
2076.98, 0.595106
2077.82, 0.594815
2078.65, 0.594235
2079.48, 0.593655
2080.32, 0.593655
2081.15, 0.593510
2081.99, 0.593365
2082.83, 0.592785
2083.66, 0.592060
2084.5, 0.591044
2085.34, 0.590464
2086.18, 0.590464
2087.02, 0.590029
2087.86, 0.589884
2088.7, 0.589739
2089.54, 0.589739
2090.39, 0.589884
2091.23, 0.589739
2092.07, 0.589304
2092.92, 0.589014
2093.76, 0.588724
2094.61, 0.588579
2095.45, 0.588434
2096.3, 0.588434
2097.15, 0.588144
2098.0, 0.587708
2098.85, 0.587708
2099.7, 0.587563
2100.55, 0.586838
2101.4, 0.585823
2102.25, 0.585388
2103.1, 0.584663
2103.96, 0.583502
2104.81, 0.581762
2105.67, 0.579151
2106.52, 0.576250
2107.38, 0.573494
2108.24, 0.570739
2109.09, 0.568563
2109.95, 0.567403
2110.81, 0.567548
2111.67, 0.567983
2112.53, 0.568128
2113.39, 0.568853
2114.25, 0.569868
2115.12, 0.570448
2115.98, 0.570303
2116.84, 0.570594
2117.71, 0.571174
2118.58, 0.571319
2119.44, 0.571029
2120.31, 0.571319
2121.18, 0.571754
2122.04, 0.572044
2122.91, 0.572334
2123.78, 0.572479
2124.65, 0.572769
2125.52, 0.572334
2126.4, 0.571464
2127.27, 0.571029
2128.14, 0.570594
2129.02, 0.569433
2129.89, 0.568128
2130.77, 0.567838
2131.64, 0.568418
2132.52, 0.569288
2133.4, 0.570448
2134.27, 0.571609
2135.15, 0.572914
2136.03, 0.574219
2136.91, 0.575090
2137.79, 0.575670
2138.68, 0.575960
2139.56, 0.576105
2140.44, 0.576395
2141.33, 0.576395
2142.21, 0.576395
2143.1, 0.576250
2143.99, 0.575960
2144.87, 0.575380
2145.76, 0.574945
2146.65, 0.575235
2147.54, 0.576105
2148.43, 0.576685
2149.32, 0.577120
2150.21, 0.577556
2151.1, 0.578281
2151.99, 0.578861
2152.89, 0.579151
2153.78, 0.579441
2154.68, 0.579876
2155.57, 0.580166
2156.47, 0.579876
2157.37, 0.579876
2158.27, 0.580021
2159.16, 0.580311
2160.06, 0.580021
2160.96, 0.580166
2161.86, 0.580601
2162.77, 0.580746
2163.67, 0.580891
2164.57, 0.581036
2165.48, 0.580746
2166.38, 0.580891
2167.29, 0.581148
2168.2, 0.580506
2169.1, 0.579864
2170.01, 0.579350
2170.92, 0.578964
2171.83, 0.579350
2172.74, 0.578579
2173.65, 0.577037
2174.56, 0.576266
2175.47, 0.576651
2176.39, 0.576780
2177.3, 0.576523
2178.22, 0.576780
2179.13, 0.576651
2180.05, 0.576009
2180.96, 0.575880
2181.88, 0.576009
2182.8, 0.576651
2183.72, 0.576523
2184.64, 0.576137
2185.56, 0.576523
2186.48, 0.576780
2187.41, 0.576137
2188.33, 0.575623
2189.25, 0.575623
2190.18, 0.575109
2191.1, 0.575109
2192.03, 0.574724
2192.96, 0.574082
2193.89, 0.573696
2194.82, 0.573182
2195.74, 0.572026
2196.68, 0.570998
2197.61, 0.571126
2198.54, 0.571126
2199.47, 0.571126
2200.4, 0.570355
2201.34, 0.569842
2202.28, 0.569713
2203.21, 0.569071
2204.15, 0.568557
2205.08, 0.567529
2206.02, 0.566372
2206.96, 0.565987
2207.9, 0.565858
2208.84, 0.565216
2209.78, 0.564445
2210.73, 0.564060
2211.67, 0.564317
2212.61, 0.564188
2213.56, 0.563546
2214.5, 0.562903
2215.45, 0.561361
2216.4, 0.560590
2217.35, 0.560333
2218.3, 0.559691
2219.24, 0.559049
2220.2, 0.558406
2221.15, 0.556736
2222.1, 0.555194
2223.05, 0.553781
2224.0, 0.551339
2224.96, 0.548898
2225.91, 0.545814
2226.87, 0.542859
2227.83, 0.541189
2228.79, 0.539775
2229.74, 0.538619
2230.7, 0.536435
2231.66, 0.533737
2232.63, 0.531295
2233.59, 0.530396
2234.55, 0.530267
2235.51, 0.528726
2236.48, 0.526541
2237.44, 0.525256
2238.41, 0.524485
2239.38, 0.523201
2240.34, 0.521787
2241.31, 0.520245
2242.28, 0.519217
2243.25, 0.517162
2244.22, 0.515877
2245.19, 0.515363
2246.17, 0.513307
2247.14, 0.511380
2248.12, 0.510352
2249.09, 0.509581
2250.07, 0.508681
2251.04, 0.508039
2252.02, 0.507140
2253.0, 0.506883
2253.98, 0.507011
2254.96, 0.508168
2255.94, 0.508553
2256.92, 0.508296
2257.91, 0.507782
2258.89, 0.506112
2259.88, 0.503927
2260.86, 0.502129
2261.85, 0.499944
2262.83, 0.496989
2263.82, 0.493648
2264.81, 0.489023
2265.8, 0.483883
2266.79, 0.479386
2267.78, 0.475018
2268.78, 0.470649
2269.77, 0.465895
2270.76, 0.461141
2271.76, 0.457929
2272.75, 0.453817
2273.75, 0.448549
2274.75, 0.443924
2275.75, 0.439427
2276.75, 0.433516
2277.75, 0.427863
2278.75, 0.423237
2279.75, 0.417199
2280.75, 0.410003
2281.76, 0.402808
2282.76, 0.395741
2283.77, 0.388417
2284.77, 0.380965
2285.78, 0.373898
2286.79, 0.366061
2287.8, 0.357452
2288.81, 0.349357
2289.82, 0.342033
2290.83, 0.336380
2291.84, 0.334453
2292.86, 0.333939
2293.87, 0.332525
2294.89, 0.330598
2295.91, 0.327900
2296.92, 0.323917
2297.94, 0.320319
2298.96, 0.318906
2299.98, 0.318906
2301.0, 0.318906
2302.02, 0.319291
2303.04, 0.318649
2304.07, 0.315693
2305.09, 0.310297
2306.12, 0.302973
2307.15, 0.296420
2308.17, 0.290638
2309.2, 0.284471
2310.23, 0.278175
2311.26, 0.272522
2312.29, 0.268667
2313.32, 0.266354
2314.35, 0.266868
2315.39, 0.271494
2316.42, 0.278047
2317.46, 0.284600
2318.5, 0.289867
2319.53, 0.293465
2320.57, 0.297063
2321.61, 0.300275
2322.65, 0.304901
2323.69, 0.313381
2324.73, 0.324431
2325.78, 0.336508
2326.82, 0.349614
2327.86, 0.361435
2328.91, 0.371971
2329.96, 0.381479
2331.01, 0.389959
2332.05, 0.397797
2333.1, 0.404093
2334.15, 0.410260
2335.21, 0.416042
2336.26, 0.421439
2337.31, 0.425550
2338.36, 0.428762
2339.42, 0.432232
2340.48, 0.435958
2341.53, 0.438784
2342.59, 0.440455
2343.65, 0.442511
2344.71, 0.444181
2345.77, 0.445337
2346.83, 0.445466
2347.9, 0.445209
2348.96, 0.445209
2350.02, 0.444695
2351.09, 0.443410
2352.16, 0.442125
2353.23, 0.440712
2354.29, 0.440069
2355.36, 0.439812
2356.43, 0.439041
2357.51, 0.438527
2358.58, 0.438913
2359.65, 0.438656
2360.73, 0.437885
2361.8, 0.435958
2362.88, 0.433259
2363.96, 0.430047
2365.03, 0.425679
2366.11, 0.420539
2367.19, 0.415914
2368.27, 0.411417
2369.36, 0.406406
2370.44, 0.401652
2371.53, 0.396641
2372.61, 0.391501
2373.7, 0.386105
2374.78, 0.380066
2375.87, 0.373898
2376.96, 0.368502
2378.05, 0.362077
2379.14, 0.355653
2380.24, 0.349614
2381.33, 0.343832
2382.42, 0.338693
2383.52, 0.334710
2384.61, 0.332782
2385.71, 0.332140
2386.81, 0.333039
2387.91, 0.335738
2389.01, 0.338050
2390.11, 0.339592
2391.22, 0.341905
2392.32, 0.346530
2393.42, 0.352441
2394.53, 0.357195
2395.64, 0.362463
2396.74, 0.369915
2397.85, 0.379166
2398.96, 0.390088
2400.07, 0.400367
2401.18, 0.408847
2402.3, 0.415400
2403.41, 0.420282
2404.52, 0.424137
2405.64, 0.426707
2406.76, 0.428634
2407.88, 0.429790
2408.99, 0.430561
2410.11, 0.430561
2411.23, 0.429405
2412.36, 0.427991
2413.48, 0.425807
2414.6, 0.424137
2415.73, 0.422980
2416.85, 0.421696
2417.98, 0.421053
2419.11, 0.420668
2420.24, 0.420411
2421.37, 0.420925
2422.5, 0.421182
2423.64, 0.420154
2424.77, 0.418226
2425.9, 0.416171
2427.04, 0.416428
2428.18, 0.417455
2429.31, 0.418997
2430.45, 0.420668
2431.59, 0.421567
2432.73, 0.420796
2433.88, 0.418740
2435.02, 0.416171
2436.16, 0.414115
2437.31, 0.412573
2438.45, 0.410132
2439.6, 0.407305
2440.75, 0.405763
2441.9, 0.404221
2443.05, 0.403450
2444.2, 0.403450
2445.35, 0.403707
2446.51, 0.403579
2447.67, 0.404221
2448.82, 0.404992
2449.98, 0.404864
2451.14, 0.403964
2452.3, 0.402808
2453.46, 0.400881
2454.62, 0.398568
2455.78, 0.396641
2456.94, 0.394842
2458.11, 0.393171
2459.28, 0.391244
2460.44, 0.389317
2461.61, 0.387646
2462.78, 0.387004
2463.95, 0.387389
2465.12, 0.387775
2466.3, 0.388674
2467.47, 0.390345
2468.65, 0.392143
2469.82, 0.393942
2471.0, 0.396255
2472.18, 0.399210
2473.36, 0.401780
2474.54, 0.403450
2475.72, 0.405121
2476.9, 0.406663
2478.08, 0.407305
2479.27, 0.407947
2480.46, 0.409361
2481.64, 0.409875
2482.83, 0.410260
2484.02, 0.410517
2485.21, 0.410260
2486.4, 0.409746
2487.6, 0.408718
2488.79, 0.408076
2489.99, 0.407176
2491.18, 0.405763
2492.38, 0.404093
2493.58, 0.402551
2494.78, 0.401395
2495.98, 0.400367
2497.18, 0.399467
2498.39, 0.399596
2499.59, 0.400110
2500.8, 0.400624
2502.01, 0.401909
2503.21, 0.403707
2504.42, 0.404992
2505.63, 0.406020
2506.84, 0.406791
2508.06, 0.407048
2509.27, 0.407048
2510.49, 0.406791
2511.7, 0.405892
2512.92, 0.404350
2514.14, 0.402808
2515.36, 0.401909
2516.58, 0.402422
2517.8, 0.403964
2519.03, 0.405892
2520.25, 0.408204
2521.48, 0.410517
2522.7, 0.411545
2523.93, 0.412059
2525.16, 0.413344
2526.39, 0.414372
2527.62, 0.414115
2528.86, 0.413858
2530.09, 0.413858
2531.33, 0.413215
2532.56, 0.413087
2533.8, 0.413986
2535.04, 0.414243
2536.28, 0.414757
2537.52, 0.416556
2538.76, 0.417712
2540.01, 0.418098
2541.25, 0.417584
2542.5, 0.416813
2543.75, 0.417327
2544.99, 0.418740
2546.24, 0.418869
2547.49, 0.417584
2548.75, 0.417070
2550.0, 0.415528
2551.26, 0.412830
2552.51, 0.409618
2553.77, 0.409104
2555.03, 0.408975
2556.29, 0.407947
2557.55, 0.407433
2558.81, 0.406149
2560.08, 0.402294
2561.34, 0.398568
2562.61, 0.398311
2563.88, 0.399210
2565.14, 0.402551
2566.41, 0.406277
2567.68, 0.406020
2568.96, 0.402166
2570.23, 0.402679
2571.51, 0.406149
2572.78, 0.403065
2574.06, 0.404478
2575.34, 0.408076
2576.62, 0.407690
2577.9, 0.411031
2579.18, 0.415014
2580.47, 0.413986
2581.75, 0.413858
2583.04, 0.409875
2584.32, 0.410260
2585.61, 0.415400
2586.9, 0.414629
2588.2, 0.416942
2589.49, 0.420796
2590.78, 0.424522
2592.08, 0.423880
2593.37, 0.410517
2594.67, 0.397925
2595.97, 0.409232
2597.27, 0.424008
2598.57, 0.430047
2599.88, 0.430561
2601.18, 0.428248
2602.49, 0.426064
2603.79, 0.422467
2605.1, 0.417327
2606.41, 0.421696
2607.72, 0.429533
2609.03, 0.432489
2610.35, 0.435829
2611.66, 0.438527
2612.98, 0.438399
2614.3, 0.438656
2615.62, 0.432617
2616.94, 0.427991
2618.26, 0.432745
2619.58, 0.428762
2620.91, 0.429276
2622.23, 0.438784
2623.56, 0.441611
2624.89, 0.439170
2626.22, 0.432745
2627.55, 0.435315
2628.88, 0.434416
2630.21, 0.427092
2631.55, 0.432874
2632.89, 0.437757
2634.22, 0.437757
2635.56, 0.440583
2636.9, 0.441483
2638.25, 0.441740
2639.59, 0.441226
2640.93, 0.440198
2642.28, 0.439941
2643.63, 0.440840
2644.98, 0.438913
2646.33, 0.439941
2647.68, 0.442896
2649.03, 0.444438
2650.39, 0.443281
2651.74, 0.439427
2653.1, 0.438656
2654.46, 0.440069
2655.82, 0.439684
2657.18, 0.441483
2658.54, 0.438656
2659.9, 0.436729
2661.27, 0.436986
2662.64, 0.436986
2664.01, 0.426578
2665.38, 0.415785
2666.74, 0.414243
2668.12, 0.419511
2669.49, 0.409746
2670.87, 0.403836
2672.24, 0.414115
2673.62, 0.413215
2675.0, 0.401395
2676.38, 0.387389
2677.76, 0.377496
2679.15, 0.364904
2680.54, 0.354497
2681.92, 0.339721
2683.31, 0.321861
2684.7, 0.307213
2686.09, 0.293722
2687.48, 0.281773
2688.88, 0.271365
2690.27, 0.260701
2691.67, 0.249522
2693.07, 0.235646
2694.47, 0.226266
2695.87, 0.220484
2697.27, 0.213931
2698.67, 0.206351
2700.08, 0.198770
2701.49, 0.192217
2702.9, 0.187849
2704.31, 0.183865
2705.72, 0.180910
2707.13, 0.178854
2708.54, 0.177056
2709.96, 0.173329
2711.38, 0.171274
2712.8, 0.171145
2714.22, 0.165620
2715.64, 0.153414
2717.06, 0.134398
2718.49, 0.111142
2719.91, 0.0886560
2721.34, 0.0785060
2722.77, 0.0823600
2724.2, 0.0916110
2725.63, 0.103561
2727.07, 0.114225
2728.5, 0.118722
2729.94, 0.113711
2731.38, 0.106259
2732.82, 0.106516
2734.26, 0.113583
2735.7, 0.124504
2737.15, 0.132342
2738.59, 0.133113
2740.04, 0.134912
2741.49, 0.141722
2742.94, 0.148788
2744.39, 0.152001
2745.84, 0.153542
2747.3, 0.155855
2748.76, 0.157782
2750.21, 0.159967
2751.67, 0.161380
2753.14, 0.162537
2754.6, 0.161252
2756.06, 0.162408
2757.53, 0.166648
2759.0, 0.167162
2760.46, 0.166391
2761.94, 0.167548
2763.41, 0.171916
2764.88, 0.176799
2766.36, 0.178983
2767.83, 0.179754
2769.31, 0.180011
2770.79, 0.180011
2772.27, 0.181810
2773.76, 0.184765
2775.24, 0.188234
2776.73, 0.190675
2778.22, 0.192474
2779.71, 0.193630
2781.2, 0.194016
2782.69, 0.194530
2784.18, 0.195301
2785.68, 0.194016
2787.18, 0.193117
2788.68, 0.194530
2790.18, 0.195943
2791.68, 0.196200
2793.19, 0.196843
2794.69, 0.197999
2796.2, 0.199027
2797.71, 0.199541
2799.22, 0.199669
2800.73, 0.199284
2802.24, 0.197742
2803.76, 0.197614
2805.28, 0.199412
2806.8, 0.200697
2808.32, 0.201468
2809.84, 0.202111
2811.36, 0.202753
2812.89, 0.203267
2814.42, 0.203653
2815.94, 0.204552
2817.48, 0.205580
2819.01, 0.206094
2820.54, 0.206479
2822.08, 0.207122
2823.61, 0.208150
2825.15, 0.209434
2826.69, 0.209820
2828.23, 0.209948
2829.78, 0.210976
2831.32, 0.211619
2832.87, 0.212004
2834.42, 0.212133
2835.97, 0.212390
2837.52, 0.213161
2839.08, 0.213803
2840.63, 0.214188
2842.19, 0.214702
2843.75, 0.214959
2845.31, 0.215088
2846.87, 0.214831
2848.44, 0.214702
2850.0, 0.214831
2851.57, 0.215088
2853.14, 0.215088
2854.71, 0.214574
2856.28, 0.214702
2857.86, 0.214959
2859.43, 0.214959
2861.01, 0.214574
2862.59, 0.214188
2864.17, 0.213931
2865.76, 0.213546
2867.34, 0.213418
2868.93, 0.213546
2870.52, 0.213289
2872.11, 0.213032
2873.7, 0.213289
2875.29, 0.213418
2876.89, 0.213418
2878.49, 0.213418
2880.08, 0.213803
2881.69, 0.214060
2883.29, 0.213931
2884.89, 0.213675
2886.5, 0.213675
2888.11, 0.213803
2889.72, 0.213931
2891.33, 0.213931
2892.94, 0.213803
2894.56, 0.214060
2896.17, 0.214317
2897.79, 0.214317
2899.42, 0.214702
2901.04, 0.215345
2902.66, 0.215730
2904.29, 0.215730
2905.92, 0.215987
2907.55, 0.216244
2909.18, 0.216501
2910.81, 0.216758
2912.45, 0.217015
2914.08, 0.217658
2915.72, 0.218172
2917.36, 0.218814
2919.01, 0.219842
2920.65, 0.220356
2922.3, 0.220484
2923.94, 0.221255
2925.59, 0.222026
2927.25, 0.222412
2928.9, 0.222669
2930.56, 0.223183
2932.21, 0.223697
2933.87, 0.224339
2935.53, 0.224981
2937.2, 0.225495
2938.86, 0.226009
2940.53, 0.226523
2942.2, 0.227294
2943.87, 0.228322
2945.54, 0.228579
2947.22, 0.228836
2948.89, 0.229607
2950.57, 0.230378
2952.25, 0.230635
2953.93, 0.230506
2955.62, 0.230635
2957.3, 0.231534
2958.99, 0.232177
2960.68, 0.232305
2962.37, 0.232434
2964.07, 0.232819
2965.76, 0.233205
2967.46, 0.233847
2969.16, 0.234361
2970.86, 0.235132
2972.56, 0.235903
2974.27, 0.236674
2975.98, 0.237702
2977.69, 0.238730
2979.4, 0.239629
2981.11, 0.240528
2982.83, 0.241556
2984.54, 0.242970
2986.26, 0.244383
2987.98, 0.245796
2989.71, 0.246696
2991.43, 0.247467
2993.16, 0.248880
2994.89, 0.250165
2996.62, 0.251064
2998.35, 0.252221
3000.09, 0.253506
3001.83, 0.254533
3003.57, 0.255561
3005.31, 0.256846
3007.05, 0.258260
3008.79, 0.259673
3010.54, 0.260701
3012.29, 0.261857
3014.04, 0.263271
3015.8, 0.264170
3017.55, 0.264941
3019.31, 0.266226
3021.07, 0.267511
3022.83, 0.268667
3024.59, 0.269567
3026.36, 0.270594
3028.13, 0.271237
3029.9, 0.271622
3031.67, 0.272265
3033.44, 0.273164
3035.22, 0.274064
3037.0, 0.274963
3038.78, 0.275734
3040.56, 0.276890
3042.34, 0.277533
3044.13, 0.277918
3045.92, 0.279075
3047.71, 0.280359
3049.5, 0.281387
3051.3, 0.282287
3053.09, 0.283315
3054.89, 0.284471
3056.69, 0.285242
3058.5, 0.286398
3060.3, 0.287426
3062.11, 0.288197
3063.92, 0.289097
3065.73, 0.290125
3067.55, 0.290767
3069.36, 0.291409
3071.18, 0.292180
3073.0, 0.292694
3074.82, 0.293337
3076.65, 0.294236
3078.48, 0.295007
3080.31, 0.295521
3082.14, 0.296163
3083.97, 0.297448
3085.8, 0.298733
3087.64, 0.299633
3089.48, 0.300275
3091.33, 0.300917
3093.17, 0.301303
3095.02, 0.301688
3096.87, 0.302459
3098.72, 0.303487
3100.57, 0.304644
3102.43, 0.305414
3104.28, 0.305928
3106.14, 0.306571
3108.01, 0.307342
3109.87, 0.308370
3111.74, 0.309526
3113.61, 0.310040
3115.48, 0.310939
3117.35, 0.312481
3119.23, 0.313381
3121.1, 0.314152
3122.98, 0.315308
3124.87, 0.316336
3126.75, 0.317364
3128.64, 0.318649
3130.53, 0.319163
3132.42, 0.319677
3134.31, 0.320576
3136.21, 0.321604
3138.11, 0.322246
3140.01, 0.322889
3141.91, 0.323403
3143.82, 0.323403
3145.73, 0.322889
3147.64, 0.323146
3149.55, 0.322889
3151.46, 0.322503
3153.38, 0.322118
3155.3, 0.321732
3157.22, 0.321347
3159.14, 0.321475
3161.07, 0.321989
3163.0, 0.322118
3164.93, 0.321604
3166.86, 0.320961
3168.8, 0.320704
3170.74, 0.320961
3172.68, 0.321861
3174.62, 0.323403
3176.56, 0.325459
3178.51, 0.327257
3180.46, 0.328928
3182.42, 0.330727
3184.37, 0.332654
3186.33, 0.334324
3188.29, 0.336251
3190.25, 0.338821
3192.21, 0.340749
3194.18, 0.342676
3196.15, 0.344346
3198.12, 0.346145
3200.09, 0.348072
3202.07, 0.349614
3204.05, 0.351028
3206.03, 0.352569
3208.02, 0.354240
3210.0, 0.355782
3211.99, 0.357066
3213.98, 0.358351
3215.98, 0.359379
3217.97, 0.360279
3219.97, 0.361178
3221.97, 0.362077
3223.98, 0.362848
3225.98, 0.363748
3227.99, 0.364776
3230.0, 0.365675
3232.02, 0.366831
3234.03, 0.367988
3236.05, 0.368759
3238.07, 0.369787
3240.1, 0.370686
3242.12, 0.371585
3244.15, 0.372356
3246.18, 0.372742
3248.22, 0.373641
3250.25, 0.374798
3252.29, 0.375569
3254.33, 0.376211
3256.38, 0.376853
3258.43, 0.377496
3260.47, 0.378010
3262.53, 0.378652
3264.58, 0.379166
3266.64, 0.379809
3268.7, 0.380066
3270.76, 0.379937
3272.82, 0.379937
3274.89, 0.379680
3276.96, 0.378781
3279.04, 0.377367
3281.11, 0.375697
3283.19, 0.373898
3285.27, 0.371714
3287.35, 0.369144
3289.44, 0.367217
3291.53, 0.365418
3293.62, 0.363362
3295.71, 0.360921
3297.81, 0.358223
3299.91, 0.355268
3302.01, 0.351670
3304.11, 0.347944
3306.22, 0.344732
3308.33, 0.342676
3310.44, 0.342033
3312.56, 0.342290
3314.68, 0.342804
3316.8, 0.343832
3318.92, 0.345503
3321.05, 0.347687
3323.18, 0.350385
3325.31, 0.353212
3327.44, 0.355910
3329.58, 0.357966
3331.72, 0.358351
3333.86, 0.357709
3336.01, 0.356039
3338.16, 0.353983
3340.31, 0.352441
3342.46, 0.351284
3344.61, 0.349871
3346.77, 0.348458
3348.94, 0.347173
3351.1, 0.346273
3353.27, 0.346659
3355.44, 0.348201
3357.61, 0.350385
3359.79, 0.353212
3361.97, 0.356295
3364.15, 0.359379
3366.33, 0.361820
3368.52, 0.363491
3370.71, 0.364776
3372.9, 0.366574
3375.1, 0.368630
3377.3, 0.370815
3379.5, 0.373127
3381.71, 0.375312
3383.91, 0.377624
3386.12, 0.379937
3388.34, 0.382121
3390.55, 0.384177
3392.77, 0.385976
3394.99, 0.387646
3397.22, 0.389188
3399.45, 0.390473
3401.68, 0.391116
3403.91, 0.391886
3406.15, 0.392786
3408.39, 0.393685
3410.63, 0.394842
3412.87, 0.395998
3415.12, 0.397540
3417.37, 0.399339
3419.63, 0.401009
3421.88, 0.402936
3424.14, 0.405249
3426.41, 0.407433
3428.67, 0.409489
3430.94, 0.411288
3433.21, 0.412958
3435.49, 0.414500
3437.77, 0.415914
3440.05, 0.416942
3442.33, 0.417841
3444.62, 0.418869
3446.91, 0.419897
3449.2, 0.420925
3451.5, 0.422081
3453.8, 0.423366
3456.1, 0.424394
3458.41, 0.425550
3460.72, 0.426835
3463.03, 0.427863
3465.34, 0.428634
3467.66, 0.429019
3469.98, 0.429276
3472.31, 0.429533
3474.63, 0.429662
3476.96, 0.429919
3479.3, 0.430176
3481.64, 0.430304
3483.97, 0.430176
3486.32, 0.430433
3488.66, 0.430561
3491.01, 0.430818
3493.36, 0.430690
3495.72, 0.430561
3498.08, 0.430561
3500.44, 0.430818
3502.81, 0.431204
3505.18, 0.431718
3507.55, 0.432874
3509.92, 0.434544
3512.3, 0.436215
3514.68, 0.437757
3517.06, 0.439427
3519.45, 0.441097
3521.84, 0.442896
3524.24, 0.444823
3526.64, 0.446622
3529.04, 0.448164
3531.44, 0.449834
3533.85, 0.451505
3536.26, 0.452918
3538.67, 0.454331
3541.09, 0.455616
3543.51, 0.456901
3545.93, 0.457929
3548.36, 0.459085
3550.79, 0.460242
3553.22, 0.461527
3555.66, 0.462555
3558.1, 0.463325
3560.54, 0.464096
3562.99, 0.465124
3565.44, 0.466024
3567.9, 0.466666
3570.35, 0.467437
3572.81, 0.468079
3575.28, 0.468465
3577.75, 0.468850
3580.22, 0.469493
3582.69, 0.470007
3585.17, 0.470649
3587.65, 0.470906
3590.14, 0.471292
3592.62, 0.471549
3595.11, 0.471934
3597.61, 0.472191
3600.11, 0.472448
3602.61, 0.472705
3605.11, 0.472705
3607.62, 0.472705
3610.14, 0.472962
3612.65, 0.473219
3615.17, 0.473347
3617.69, 0.473347
3620.22, 0.473604
3622.75, 0.473990
3625.28, 0.474118
3627.82, 0.473990
3630.36, 0.473990
3632.9, 0.473990
3635.45, 0.474118
3638.0, 0.473990
3640.56, 0.473861
3643.12, 0.473733
3645.68, 0.473861
3648.24, 0.473990
3650.81, 0.474118
3653.39, 0.474247
3655.96, 0.474504
3658.54, 0.474889
3661.13, 0.475146
3663.71, 0.475146
3666.3, 0.475532
3668.9, 0.476174
3671.5, 0.476431
3674.1, 0.476303
3676.7, 0.476303
3679.31, 0.476560
3681.93, 0.476817
3684.54, 0.476431
3687.17, 0.472320
3689.79, 0.465767
3692.42, 0.466923
3695.05, 0.473219
3697.69, 0.476560
3700.32, 0.477459
3702.97, 0.477588
3705.61, 0.477973
3708.27, 0.478487
3710.92, 0.479001
3713.58, 0.479129
3716.24, 0.478872
3718.91, 0.479129
3721.58, 0.479515
3724.25, 0.480029
3726.93, 0.480671
3729.61, 0.480928
3732.29, 0.481185
3734.98, 0.481442
3737.67, 0.481442
3740.37, 0.481442
3743.07, 0.481699
3745.78, 0.481828
3748.49, 0.481956
3751.2, 0.481956
3753.91, 0.482085
3756.63, 0.482085
3759.36, 0.482213
3762.09, 0.482213
3764.82, 0.482470
3767.55, 0.482599
3770.29, 0.482342
3773.04, 0.482085
3775.78, 0.482085
3778.54, 0.482342
3781.29, 0.482213
3784.05, 0.482213
3786.82, 0.482213
3789.59, 0.482085
3792.36, 0.482085
3795.13, 0.482213
3797.92, 0.482085
3800.7, 0.481956
3803.49, 0.481828
3806.28, 0.481699
3809.08, 0.481699
3811.88, 0.481699
3814.68, 0.481699
3817.49, 0.481571
3820.31, 0.481571
3823.12, 0.481442
3825.94, 0.481314
3828.77, 0.481185
3831.6, 0.481185
3834.43, 0.481057
3837.27, 0.480800
3840.11, 0.480671
3842.96, 0.480543
3845.81, 0.480414
3848.67, 0.480414
3851.53, 0.480157
3854.39, 0.479900
3857.26, 0.479386
3860.13, 0.479129
3863.01, 0.479001
3865.89, 0.478615
3868.77, 0.478615
3871.66, 0.478230
3874.55, 0.477716
3877.45, 0.477459
3880.35, 0.477074
3883.26, 0.476817
3886.17, 0.476431
3889.09, 0.475789
3892.01, 0.475275
3894.93, 0.474889
3897.86, 0.474375
3900.79, 0.473861
3903.73, 0.473476
3906.67, 0.473090
3909.62, 0.472705
3912.57, 0.472320
3915.52, 0.471934
3918.48, 0.471420
3921.45, 0.470906
3924.42, 0.470521
3927.39, 0.470264
3930.37, 0.469878
3933.35, 0.469493
3936.34, 0.468979
3939.33, 0.468722
3942.32, 0.468208
3945.32, 0.467566
3948.33, 0.466923
3951.34, 0.466281
3954.35, 0.465638
3957.37, 0.465124
3960.39, 0.464739
3963.42, 0.464096
3966.45, 0.463454
3969.49, 0.462940
3972.53, 0.462812
3975.58, 0.462683
3978.63, 0.462426
3981.68, 0.462041
3984.75, 0.461655
3987.81, 0.461784
3990.88, 0.462041
3993.95, 0.462169
3997.03, 0.462298
4000.12, 0.462426
4003.21, 0.462555
4006.3, 0.462683
4009.4, 0.462683
4012.5, 0.462555
4015.61, 0.462426
4018.72, 0.462041
4021.84, 0.461912
4024.96, 0.461784
4028.09, 0.461398
4031.22, 0.460884
4034.36, 0.460627
4037.5, 0.460370
4040.65, 0.460242
4043.8, 0.460113
4046.96, 0.459856
4050.12, 0.459342
4053.29, 0.458700
4056.46, 0.458186
4059.64, 0.457929
4062.82, 0.457544
4066.0, 0.457030
4069.19, 0.456644
4072.39, 0.456387
4075.59, 0.455873
4078.8, 0.455488
4082.01, 0.455102
4085.23, 0.454845
4088.45, 0.454331
4091.68, 0.453946
4094.91, 0.453817
4098.15, 0.453303
4101.39, 0.452661
4104.63, 0.452147
4107.89, 0.451762
4111.14, 0.451376
4114.41, 0.450862
4117.67, 0.450348
4120.95, 0.449963
4124.23, 0.449577
4127.51, 0.449320
4130.8, 0.448935
4134.09, 0.448292
4137.39, 0.447778
4140.7, 0.447522
4144.01, 0.447136
4147.32, 0.446622
4150.64, 0.446237
4153.97, 0.445851
4157.3, 0.445594
4160.64, 0.445466
4163.98, 0.445080
4167.33, 0.444438
4170.68, 0.444052
4174.04, 0.443795
4177.4, 0.443410
4180.77, 0.443153
4184.14, 0.442896
4187.52, 0.442511
4190.91, 0.442254
4194.3, 0.441740
4197.69, 0.440712
4201.1, 0.439941
4204.5, 0.439041
4207.92, 0.437499
4211.34, 0.435701
4214.76, 0.433516
4218.19, 0.431332
4221.62, 0.429276
4225.06, 0.427349
4228.51, 0.425807
4231.96, 0.424779
4235.42, 0.424265
4238.88, 0.424265
4242.35, 0.424908
4245.83, 0.426064
4249.31, 0.427863
4252.79, 0.430176
4256.28, 0.431332
4259.78, 0.429919
4263.29, 0.427477
4266.79, 0.425293
4270.31, 0.423751
4273.83, 0.422595
4277.35, 0.421824
4280.89, 0.421439
4284.42, 0.421182
4287.97, 0.421053
4291.52, 0.420925
4295.07, 0.420925
4298.63, 0.421439
4302.2, 0.421696
4305.78, 0.421953
4309.35, 0.422210
4312.94, 0.422338
4316.53, 0.422723
4320.13, 0.422980
4323.73, 0.422980
4327.34, 0.422980
4330.96, 0.422852
4334.58, 0.422595
4338.21, 0.422338
4341.84, 0.421953
4345.48, 0.421567
4349.12, 0.421182
4352.77, 0.420668
4356.43, 0.420154
4360.1, 0.419383
4363.76, 0.418869
4367.44, 0.418483
4371.12, 0.417841
4374.81, 0.417327
4378.51, 0.416428
4382.21, 0.415528
4385.92, 0.414500
4389.63, 0.413344
4393.35, 0.412316
4397.08, 0.411288
4400.81, 0.410260
4404.55, 0.408975
4408.29, 0.407819
4412.04, 0.406663
4415.8, 0.405378
4419.57, 0.404093
4423.34, 0.402551
4427.12, 0.401009
4430.9, 0.399596
4434.69, 0.397925
4438.49, 0.396384
4442.29, 0.394713
4446.1, 0.393171
4449.92, 0.391758
4453.74, 0.390345
4457.57, 0.389188
4461.41, 0.387775
4465.25, 0.386233
4469.1, 0.384820
4472.95, 0.383278
4476.82, 0.381736
4480.69, 0.380066
4484.56, 0.378395
4488.44, 0.376340
4492.33, 0.374541
4496.23, 0.372742
4500.13, 0.371200
4504.04, 0.369273
4507.96, 0.367088
4511.88, 0.365161
4515.81, 0.363105
4519.75, 0.361050
4523.69, 0.358737
4527.65, 0.356424
4531.6, 0.354625
4535.57, 0.352698
4539.54, 0.350257
4543.52, 0.347558
4547.5, 0.344860
4551.5, 0.341776
4555.5, 0.338436
4559.5, 0.335095
4563.52, 0.331883
4567.54, 0.329056
4571.56, 0.326358
4575.6, 0.323660
4579.64, 0.320833
4583.69, 0.318006
4587.75, 0.315180
4591.81, 0.312481
4595.88, 0.309783
4599.96, 0.306699
4604.04, 0.303616
4608.14, 0.300018
4612.24, 0.296420
4616.34, 0.292694
4620.46, 0.288711
4624.58, 0.284728
4628.71, 0.280873
4632.84, 0.277276
4636.99, 0.273678
4641.14, 0.270337
4645.3, 0.267382
4649.47, 0.264684
4653.64, 0.262243
4657.82, 0.259801
4662.01, 0.257103
4666.21, 0.254148
4670.41, 0.251450
4674.62, 0.248880
4678.84, 0.246182
4683.07, 0.243098
4687.3, 0.240528
4691.54, 0.237959
4695.79, 0.235774
4700.05, 0.233847
4704.31, 0.232305
4708.59, 0.231020
4712.87, 0.229864
4717.15, 0.228964
4721.45, 0.227808
4725.76, 0.226652
4730.07, 0.225238
4734.39, 0.223697
4738.72, 0.221898
4743.05, 0.219713
4747.39, 0.217401
4751.75, 0.214959
4756.1, 0.211747
4760.47, 0.208663
4764.85, 0.205837
4769.23, 0.202753
4773.62, 0.199926
4778.02, 0.197485
4782.43, 0.195172
4786.85, 0.192988
4791.27, 0.191061
4795.7, 0.189262
4800.14, 0.187720
4804.59, 0.186564
4809.05, 0.186050
4813.51, 0.185536
4817.99, 0.185022
4822.47, 0.184508
4826.96, 0.183865
4831.46, 0.183351
4835.96, 0.182966
4840.48, 0.182452
4845.0, 0.182067
4849.54, 0.181553
4854.08, 0.180910
4858.63, 0.179882
4863.18, 0.178854
4867.75, 0.177955
4872.33, 0.176927
4876.91, 0.175899
4881.5, 0.174871
4886.1, 0.173586
4890.71, 0.172302
4895.33, 0.171017
4899.96, 0.169603
4904.59, 0.167805
4909.24, 0.166134
4913.89, 0.164464
4918.55, 0.162537
4923.22, 0.160866
4927.9, 0.159196
4932.59, 0.157782
4937.29, 0.156755
4942.0, 0.155727
4946.71, 0.155084
4951.44, 0.154442
4956.17, 0.154056
4960.91, 0.153799
4965.67, 0.153414
4970.43, 0.152643
4975.2, 0.151872
4979.98, 0.151358
4984.76, 0.150716
4989.56, 0.149559
4994.37, 0.148531
4999.18, 0.147760
5004.01, 0.146733
5008.84, 0.145705
5013.69, 0.144548
5018.54, 0.143006
5023.4, 0.142107
5028.28, 0.141336
5033.16, 0.140308
5038.05, 0.139152
5042.95, 0.137995
5047.86, 0.136711
5052.78, 0.135426
5057.71, 0.133884
5062.65, 0.132214
5067.6, 0.130415
5072.56, 0.128744
5077.53, 0.126946
5082.5, 0.124890
5087.49, 0.123219
5092.49, 0.121549
5097.5, 0.120007
5102.51, 0.118337
5107.54, 0.116795
5112.58, 0.115639
5117.62, 0.114739
5122.68, 0.113840
5127.75, 0.113197
5132.82, 0.112683
5137.91, 0.112555
5143.01, 0.112426
5148.12, 0.112426
5153.23, 0.113197
5158.36, 0.113840
5163.5, 0.114225
5168.65, 0.114611
5173.81, 0.115125
5178.98, 0.115253
5184.15, 0.115125
5189.34, 0.114868
5194.54, 0.114097
5199.75, 0.113454
5204.98, 0.112812
5210.21, 0.111656
5215.45, 0.110499
5220.7, 0.110114
5225.96, 0.109343
5231.23, 0.108443
5236.52, 0.107801
5241.81, 0.107415
5247.12, 0.107030
5252.44, 0.106773
5257.76, 0.106773
5263.1, 0.106645
5268.45, 0.106388
5273.81, 0.106002
5279.18, 0.105617
5284.56, 0.105360
5289.95, 0.104460
5295.36, 0.103561
5300.77, 0.102790
5306.2, 0.101762
5311.63, 0.100477
5317.08, 0.0994490
5322.54, 0.0985500
5328.01, 0.0977790
5333.49, 0.0970080
5338.98, 0.0964940
5344.49, 0.0955950
5350.0, 0.0948240
5355.53, 0.0950810
5361.07, 0.0954660
5366.62, 0.0953380
5372.18, 0.0952090
5377.75, 0.0949520
5383.34, 0.0946950
5388.93, 0.0946950
5394.54, 0.0945670
5400.16, 0.0940530
5405.79, 0.0935390
5411.44, 0.0926390
5417.09, 0.0907120
5422.76, 0.0887850
5428.43, 0.0885280
5434.12, 0.0881420
5439.83, 0.0868570
5445.54, 0.0855730
5451.26, 0.0845450
5457.0, 0.0835170
5462.75, 0.0823600
5468.52, 0.0823600
5474.29, 0.0824890
5480.08, 0.0821030
5485.88, 0.0824890
5491.69, 0.0828740
5497.51, 0.0830030
5503.35, 0.0830030
5509.2, 0.0831310
5515.06, 0.0827460
5520.93, 0.0823600
5526.82, 0.0822320
5532.71, 0.0822320
5538.63, 0.0818460
5544.55, 0.0814610
5550.49, 0.0809470
5556.44, 0.0808190
5562.4, 0.0808190
5568.37, 0.0805620
5574.36, 0.0795340
5580.36, 0.0791480
5586.37, 0.0800480
5592.4, 0.0805620
5598.44, 0.0801760
5604.49, 0.0799190
5610.56, 0.0797910
5616.63, 0.0791480
5622.73, 0.0791480
5628.83, 0.0790200
5634.95, 0.0777350
5641.08, 0.0760650
5647.23, 0.0765780
5653.39, 0.0768350
5659.56, 0.0769640
5665.74, 0.0772210
5671.94, 0.0765780
5678.15, 0.0764500
5684.38, 0.0769640
5690.62, 0.0770920
5696.87, 0.0777350
5703.14, 0.0776060
5709.42, 0.0767070
5715.72, 0.0770920
5722.03, 0.0776060
5728.35, 0.0777350
5734.69, 0.0774780
5741.03, 0.0769640
5747.4, 0.0761930
5753.78, 0.0764500
5760.17, 0.0743940
5766.58, 0.0719530
5773.0, 0.0733660
5779.44, 0.0743940
5785.88, 0.0742660
5792.35, 0.0737520
5798.83, 0.0731090
5805.32, 0.0723380
5811.83, 0.0709250
5818.35, 0.0680980
5824.89, 0.0669420
5831.45, 0.0674560
5838.01, 0.0678410
5844.59, 0.0677130
5851.19, 0.0669420
5857.8, 0.0661710
5864.43, 0.0655290
5871.07, 0.0651430
5877.73, 0.0624450
5884.4, 0.0621880
5891.09, 0.0624450
5897.79, 0.0618020
5904.5, 0.0637300
5911.23, 0.0639870
5917.98, 0.0633440
5924.75, 0.0627020
5931.53, 0.0601320
5938.32, 0.0589760
5945.13, 0.0609030
5951.96, 0.0615450
5958.8, 0.0614170
5965.65, 0.0603890
5972.53, 0.0603890
5979.42, 0.0611600
5986.32, 0.0607750
5993.24, 0.0611600
6000.18, 0.0621880
6007.13, 0.0621880
6014.1, 0.0616740
6021.08, 0.0620590
6028.09, 0.0620590
6035.1, 0.0610320
6042.14, 0.0575620
6049.19, 0.0546070
6056.25, 0.0567910
6063.34, 0.0579480
6070.44, 0.0565340
6077.55, 0.0564060
6084.69, 0.0574340
6091.84, 0.0578190
6099.0, 0.0575620
6106.19, 0.0564060
6113.39, 0.0552500
6120.61, 0.0564060
6127.84, 0.0576910
6135.09, 0.0578190
6142.36, 0.0578190
6149.65, 0.0580760
6156.95, 0.0575620
6164.27, 0.0578190
6171.61, 0.0585900
6178.97, 0.0576910
6186.34, 0.0570480
6193.73, 0.0585900
6201.14, 0.0593610
6208.57, 0.0596180
6216.01, 0.0598750
6223.47, 0.0602610
6230.95, 0.0607750
6238.45, 0.0612880
6245.97, 0.0616740
6253.5, 0.0621880
6261.06, 0.0623160
6268.63, 0.0625730
6276.21, 0.0629590
6283.82, 0.0636010
6291.45, 0.0642440
6299.1, 0.0648860
6306.76, 0.0655290
6314.44, 0.0662990
6322.14, 0.0668130
6329.86, 0.0673270
6337.6, 0.0664280
6345.35, 0.0661710
6353.13, 0.0686120
6360.92, 0.0697690
6368.74, 0.0689980
6376.57, 0.0698970
6384.43, 0.0710540
6392.3, 0.0714390
6400.19, 0.0709250
6408.1, 0.0678410
6416.03, 0.0671990
6423.98, 0.0704110
6431.95, 0.0716960
6439.94, 0.0729810
6447.95, 0.0737520
6455.98, 0.0741370
6464.03, 0.0740090
6472.1, 0.0729810
6480.19, 0.0719530
6488.31, 0.0700260
6496.44, 0.0700260
6504.59, 0.0732380
6512.76, 0.0743940
6520.95, 0.0737520
6529.16, 0.0747800
6537.4, 0.0749080
6545.65, 0.0740090
6553.92, 0.0732380
6562.22, 0.0724670
6570.54, 0.0706680
6578.88, 0.0709250
6587.23, 0.0714390
6595.61, 0.0711820
6604.02, 0.0711820
6612.44, 0.0704110
6620.89, 0.0692550
6629.35, 0.0664280
6637.84, 0.0646290
6646.35, 0.0662990
6654.88, 0.0675840
6663.44, 0.0669420
6672.01, 0.0656570
6680.61, 0.0645010
6689.23, 0.0647580
6697.88, 0.0647580
6706.54, 0.0636010
6715.23, 0.0628300
6723.94, 0.0625730
6732.67, 0.0625730
6741.42, 0.0621880
6750.2, 0.0616740
6759.0, 0.0611600
6767.82, 0.0601320
6776.67, 0.0588470
6785.54, 0.0574340
6794.44, 0.0571770
6803.35, 0.0578190
6812.29, 0.0573050
6821.26, 0.0558920
6830.24, 0.0552500
6839.25, 0.0553780
6848.29, 0.0544790
6857.35, 0.0524230
6866.43, 0.0516520
6875.54, 0.0531940
6884.67, 0.0535790
6893.82, 0.0531940
6903.0, 0.0524230
6912.2, 0.0521660
6921.43, 0.0517800
6930.69, 0.0512660
6939.96, 0.0506240
6949.27, 0.0495960
6958.59, 0.0480540
6967.95, 0.0481830
6977.33, 0.0483110
6986.73, 0.0476690
6996.16, 0.0468980
7005.61, 0.0466410
7015.09, 0.0462550
7024.6, 0.0457420
7034.13, 0.0447140
7043.69, 0.0434290
7053.27, 0.0434290
7062.88, 0.0436860
7072.52, 0.0433000
7082.18, 0.0425290
7091.87, 0.0420150
7101.58, 0.0415010
7111.32, 0.0406020
7121.09, 0.0399600
7130.88, 0.0395740
7140.71, 0.0388030
7150.56, 0.0381610
7160.43, 0.0376470
7170.33, 0.0368760
7180.27, 0.0367470
7190.23, 0.0364900
7200.21, 0.0359760
7210.23, 0.0355910
7220.27, 0.0355910
7230.34, 0.0352060
7240.44, 0.0346920
7250.56, 0.0340490
7260.72, 0.0335350
7270.9, 0.0331500
7281.12, 0.0326360
7291.36, 0.0323790
7301.63, 0.0321220
7311.93, 0.0313510
7322.25, 0.0307080
7332.61, 0.0301950
7343.0, 0.0299380
7353.41, 0.0296810
7363.86, 0.0292950
7374.33, 0.0289100
7384.83, 0.0283960
7395.37, 0.0280100
7405.93, 0.0278820
7416.53, 0.0278820
7427.15, 0.0273680
7437.81, 0.0268540
7448.5, 0.0263400
7459.22, 0.0262110
7469.96, 0.0260830
7480.74, 0.0260830
7491.55, 0.0256970
7502.39, 0.0253120
7513.27, 0.0250550
7524.17, 0.0247980
7535.11, 0.0242840
7546.08, 0.0240270
7557.08, 0.0237700
7568.11, 0.0233850
7579.17, 0.0231280
7590.27, 0.0226140
7601.4, 0.0223570
7612.56, 0.0222280
7623.76, 0.0218430
7634.98, 0.0214570
7646.24, 0.0209430
7657.54, 0.0206860
7668.87, 0.0203010
7680.23, 0.0199160
7691.62, 0.0195300
7703.05, 0.0191450
7714.51, 0.0188880
7726.01, 0.0186310
7737.54, 0.0183740
7749.11, 0.0181170
7760.71, 0.0177310
7772.35, 0.0172170
7784.02, 0.0169600
7795.72, 0.0168320
7807.46, 0.0167030
7819.23, 0.0167030
7831.04, 0.0164460
7842.89, 0.0160610
7854.77, 0.0159320
7866.69, 0.0156750
7878.65, 0.0152900
7890.64, 0.0149050
7902.67, 0.0146480
7914.74, 0.0141340
7926.84, 0.0137480
7938.98, 0.0134910
7951.16, 0.0133630
7963.37, 0.0132340
7975.62, 0.0128490
7987.91, 0.0124630
8000.24, 0.0122060
8012.6, 0.0119490
8025.01, 0.0118210
8037.45, 0.0116920
8049.93, 0.0116920
8062.45, 0.0114350
8075.01, 0.0113070
8087.61, 0.0111780
8100.24, 0.0113070
8112.91, 0.0113070
8125.63, 0.0111780
8138.39, 0.0111780
8151.18, 0.0111780
8164.02, 0.0111780
8176.9, 0.0111780
8189.81, 0.0114350
8202.77, 0.0116920
8215.77, 0.0119490
8228.82, 0.0122060
8241.9, 0.0124630
8255.02, 0.0127200
8268.19, 0.0133630
8281.39, 0.0141340
8294.65, 0.0150330
8307.94, 0.0158040
8321.28, 0.0169600
8334.66, 0.0186310
8348.08, 0.0200440
8361.54, 0.0219710
8375.05, 0.0241560
8388.6, 0.0265970
8402.2, 0.0292950
8415.84, 0.0326360
8429.52, 0.0364900
8443.25, 0.0412440
8457.02, 0.0466410
8470.84, 0.0524230
8484.7, 0.0592330
8498.61, 0.0670700
8512.57, 0.0755510
8526.57, 0.0849300
8540.62, 0.0953380
8554.71, 0.106645
8568.85, 0.118851
8583.04, 0.131443
8597.27, 0.144291
8611.55, 0.157012
8625.88, 0.169089
8640.26, 0.179240
8654.68, 0.187335
8669.16, 0.193245
8683.68, 0.197357
8698.25, 0.200440
8712.87, 0.202368
8727.53, 0.203781
8742.25, 0.204423
8757.02, 0.204295
8771.83, 0.203139
8786.7, 0.201340
8801.62, 0.199155
8816.59, 0.195686
8831.61, 0.191318
8846.68, 0.186178
8861.8, 0.181167
8876.97, 0.179111
8892.2, 0.182195
8907.48, 0.187463
8922.81, 0.191703
8938.2, 0.194787
8953.63, 0.197485
8969.13, 0.200055
8984.67, 0.203267
9000.27, 0.207250
9015.92, 0.211747
9031.63, 0.216630
9047.39, 0.222155
9063.21, 0.228451
9079.08, 0.234875
9095.01, 0.241299
9111.0, 0.247724
9127.04, 0.254277
9143.13, 0.260572
9159.28, 0.266611
9175.49, 0.271751
9191.76, 0.275477
9208.09, 0.278047
9224.47, 0.279589
9240.92, 0.280231
9257.42, 0.280488
9273.98, 0.280231
9290.6, 0.279974
9307.28, 0.279846
9324.02, 0.279589
9340.82, 0.279717
9357.68, 0.279974
9374.6, 0.280745
9391.58, 0.281901
9408.62, 0.283829
9425.73, 0.286270
9442.9, 0.289097
9460.13, 0.292180
9477.42, 0.295135
9494.78, 0.297962
9512.2, 0.300403
9529.69, 0.302588
9547.24, 0.304001
9564.86, 0.306314
9582.54, 0.312224
9600.28, 0.320833
9618.1, 0.327000
9635.97, 0.326101
9653.92, 0.319548
9671.93, 0.311582
9690.01, 0.303873
9708.16, 0.296806
9726.37, 0.292180
9744.65, 0.292180
9763.0, 0.298091
9781.43, 0.308113
9799.92, 0.318392
9818.48, 0.326743
9837.1, 0.332525
9855.8, 0.335738
9874.58, 0.337279
9893.42, 0.338050
9912.34, 0.338436
9931.33, 0.339078
9950.39, 0.339335
9969.52, 0.338693
9988.74, 0.338307
10008.0, 0.337665
10027.4, 0.336894
10046.8, 0.335994
10066.3, 0.334453
10085.9, 0.332011
10105.6, 0.327900
10125.3, 0.322118
10145.1, 0.314923
10165.0, 0.306314
10185.0, 0.297448
10205.0, 0.290125
10225.2, 0.284600
10245.4, 0.279589
10265.7, 0.275220
10286.0, 0.271365
10306.5, 0.267382
10327.0, 0.263142
10347.6, 0.259159
10368.3, 0.255047
10389.1, 0.250936
10409.9, 0.246053
10430.9, 0.240657
10451.9, 0.235003
10473.0, 0.228708
10494.2, 0.220998
10515.5, 0.212133
10536.9, 0.201725
10558.4, 0.189519
10579.9, 0.176799
10601.5, 0.164464
10623.3, 0.153542
10645.1, 0.144163
10667.0, 0.135683
10689.0, 0.127973
10711.1, 0.121806
10733.2, 0.118594
10755.5, 0.118851
10777.9, 0.122834
10800.3, 0.128744
10822.9, 0.135169
10845.5, 0.140308
10868.2, 0.142878
10891.1, 0.142493
10914.0, 0.139280
10937.0, 0.134269
10960.2, 0.128744
10983.4, 0.123990
11006.7, 0.120136
11030.1, 0.116795
11053.6, 0.113840
11077.3, 0.111527
11101.0, 0.109343
11124.8, 0.107030
11148.7, 0.104974
11172.7, 0.103175
11196.9, 0.101377
11221.1, 0.0999630
11245.4, 0.0984210
11269.9, 0.0971360
11294.4, 0.0963660
11319.1, 0.0954660
11343.9, 0.0939240
11368.8, 0.0927680
11393.7, 0.0916110
11418.8, 0.0909690
11444.0, 0.0900700
11469.4, 0.0886560
11494.8, 0.0872430
11520.3, 0.0862150
11546.0, 0.0851870
11571.8, 0.0839020
11597.7, 0.0826170
11623.7, 0.0819750
11649.8, 0.0809470
11676.0, 0.0796620
11702.4, 0.0785060
11728.9, 0.0777350
11755.5, 0.0768350
11782.2, 0.0756790
11809.0, 0.0743940
11836.0, 0.0734950
11863.0, 0.0728520
11890.3, 0.0720810
11917.6, 0.0710540
11945.0, 0.0695120
11972.6, 0.0684840
12000.4, 0.0675840
12028.2, 0.0665560
12056.2, 0.0656570
12084.3, 0.0643720
12112.5, 0.0632160
12140.9, 0.0623160
12169.4, 0.0614170
12198.0, 0.0601320
12226.8, 0.0592330
12255.7, 0.0583330
12284.7, 0.0570480
12313.9, 0.0560200
12343.2, 0.0553780
12372.7, 0.0548640
12402.3, 0.0538360
12432.0, 0.0524230
12461.9, 0.0504960
12491.9, 0.0494680
12522.1, 0.0485680
12552.4, 0.0468980
12582.9, 0.0457420
12613.5, 0.0447140
12644.3, 0.0429150
12675.2, 0.0416300
12706.3, 0.0406020
12737.5, 0.0394460
12768.9, 0.0382890
12800.4, 0.0373900
12832.1, 0.0368760
12863.9, 0.0362330
12895.9, 0.0364900
12928.1, 0.0380320
12960.4, 0.0427860
12992.9, 0.0508810
13025.5, 0.0619310
13058.3, 0.0736230
13091.3, 0.0831310
13124.4, 0.0886560
13157.8, 0.0892990
13191.2, 0.0857010
13224.9, 0.0787630
13258.7, 0.0705400
13292.7, 0.0638580
13326.9, 0.0593610
13361.2, 0.0564060
13395.7, 0.0539650
13430.4, 0.0516520
13465.3, 0.0498530
13500.4, 0.0481830
13535.7, 0.0470260
13571.1, 0.0466410
13606.7, 0.0459980
13642.5, 0.0440710
13678.5, 0.0424010
13714.7, 0.0415010
13751.1, 0.0408590
13787.6, 0.0408590
13824.4, 0.0407300
13861.4, 0.0403450
13898.5, 0.0393170
13935.9, 0.0380320
13973.5, 0.0368760
14011.2, 0.0354630
14049.2, 0.0348200
14087.4, 0.0357190
14125.8, 0.0363620
14164.3, 0.0367470
14203.2, 0.0372610
14242.2, 0.0390600
14281.4, 0.0424010
14320.9, 0.0477970
14360.5, 0.0546070
14400.4, 0.0623160
14440.5, 0.0706680
14480.9, 0.0781200
14521.4, 0.0830030
14562.2, 0.0853160
14603.3, 0.0846730
14644.5, 0.0819750
14686.0, 0.0786340
14727.7, 0.0764500
14769.7, 0.0760650
14811.9, 0.0769640
14854.3, 0.0786340
14897.0, 0.0791480
14939.9, 0.0772210
14983.1, 0.0754220
15026.5, 0.0745230
15070.2, 0.0734950
15114.2, 0.0729810
15158.3, 0.0725950
15202.8, 0.0723380
15247.5, 0.0714390
15292.5, 0.0704110
15337.7, 0.0697690
15383.2, 0.0689980
15429.0, 0.0684840
15475.1, 0.0683550
15521.4, 0.0677130
15568.0, 0.0660430
15614.9, 0.0639870
15662.1, 0.0611600
15709.6, 0.0585900
15757.3, 0.0562770
15805.4, 0.0537080
15853.7, 0.0512660
15902.3, 0.0498530
15951.2, 0.0485680
16000.5, 0.0468980
16050.0, 0.0452280
16099.8, 0.0440710
16150.0, 0.0429150
16200.5, 0.0415010
16251.3, 0.0408590
16302.4, 0.0404740
16353.8, 0.0394460
16405.5, 0.0385460
16457.6, 0.0386750
16510.0, 0.0393170
16562.8, 0.0413730
16615.9, 0.0434290
16669.3, 0.0452280
16723.1, 0.0493390
16777.2, 0.0544790
16831.7, 0.0596180
16886.5, 0.0662990
16941.7, 0.0742660
16997.2, 0.0840310
17053.1, 0.0952090
17109.4, 0.106645
17166.1, 0.120521
17223.1, 0.135426
17280.5, 0.150073
17338.3, 0.165620
17396.5, 0.183223
17455.1, 0.201854
17514.0, 0.218814
17573.4, 0.235003
17633.2, 0.250422
17693.4, 0.262757
17754.0, 0.270851
17815.0, 0.273807
17876.4, 0.274064
17938.3, 0.272393
18000.5, 0.268924
18063.3, 0.265455
18126.4, 0.266097
18190.0, 0.271751
18254.1, 0.279589
18318.6, 0.289225
18383.5, 0.300917
18449.0, 0.312610
18514.9, 0.323531
18581.2, 0.333682
18648.0, 0.341905
18715.4, 0.348972
18783.2, 0.354240
18851.5, 0.358351
18920.3, 0.359765
18989.6, 0.358223
19059.4, 0.358608
19129.7, 0.361949
19200.6, 0.365932
19272.0, 0.366574
19343.9, 0.366446
19416.3, 0.365033
19489.3, 0.364519
19562.8, 0.364519
19637.0, 0.362206
19711.6, 0.355268
19786.8, 0.347687
19862.6, 0.346273
19939.0, 0.352312
20016.0, 0.360022
20093.6, 0.363619
20171.8, 0.362206
20250.6, 0.358094
20330.0, 0.356809
20410.0, 0.356424
20490.7, 0.357066
20572.0, 0.362848
20654.0, 0.370172
20736.6, 0.375440
20819.9, 0.377367
20903.8, 0.374284
20988.5, 0.370044
21073.8, 0.365804
21159.8, 0.362848
21246.5, 0.361949
21334.0, 0.358994
21422.1, 0.352955
21511.0, 0.346916
21600.7, 0.342804
21691.0, 0.343575
21782.1, 0.344218
21874.0, 0.346402
21966.7, 0.349486
22060.2, 0.346787
22154.5, 0.338821
22249.6, 0.326743
22345.5, 0.312867
22442.2, 0.300018
22539.8, 0.289482
22638.2, 0.274269
22737.5, 0.260997
22837.7, 0.242404
22938.7, 0.226209
23040.7, 0.213755
23143.5, 0.202705
23247.3, 0.190953
23352.1, 0.179844
23457.7, 0.177097
23564.4, 0.184873
23672.0, 0.190310
23780.5, 0.190953
23890.1, 0.189901
24000.7, 0.183820
24112.3, 0.176103
24225.0, 0.169788
24338.7, 0.160667
24453.5, 0.151722
24569.4, 0.148097
24686.4, 0.149266
24804.5, 0.154996
24923.8, 0.163474
25044.2, 0.164117
25165.8, 0.163649
25288.6, 0.166046
25412.5, 0.174232
25537.7, 0.184990
25664.1, 0.190485
25791.8, 0.184113
25920.8, 0.174699
26051.1, 0.164585
26182.6, 0.158212
26315.5, 0.154411
26449.8, 0.154645
26585.4, 0.160141
26722.5, 0.160901
26860.9, 0.154119
27000.8, 0.148155
27142.1, 0.147161
27285.0, 0.148915
27429.4, 0.159498
27575.3, 0.175459
27722.7, 0.186510
27871.8, 0.189725
28022.4, 0.187328
28174.7, 0.188439
28328.7, 0.191012
28484.4, 0.190544
28641.7, 0.184522
28800.9, 0.177857
28961.8, 0.177974
29124.5, 0.175752
29289.0, 0.167274
29455.4, 0.164117
29623.8, 0.168911
29794.0, 0.169671
29966.3, 0.164000
30140.5, 0.160843
30316.7, 0.156224
30495.1, 0.150377
30675.5, 0.150903
30858.1, 0.146635
31042.8, 0.140672
31229.8, 0.142133
31419.1, 0.151430
31610.7, 0.162421
31804.6, 0.162597
32000.9, 0.158796
32199.7, 0.156399
32400.9, 0.151137
32604.8, 0.144881
32811.1, 0.142192
33020.1, 0.142776
33231.8, 0.142659
33446.2, 0.145758
33663.4, 0.148214
33883.4, 0.147161
34106.3, 0.141315
34332.1, 0.134533
34561.0, 0.133772
34792.9, 0.136053
35028.0, 0.138625
35266.3, 0.137748
35507.8, 0.140496
35752.7, 0.143010
36001.0, 0.143244
36252.8, 0.139795
36508.1, 0.134299
36767.0, 0.131609
37029.7, 0.129621
37296.1, 0.124886
37566.3, 0.120676
37840.5, 0.119916
38118.8, 0.120325
38401.2, 0.112724
38687.8, 0.103019
38978.6, 0.103779
39273.9, 0.111087
39573.7, 0.114069
39878.1, 0.112198
40187.3, 0.109918
40501.2, 0.107579
40820.0, 0.110152
41144.0, 0.119974
41473.2, 0.132545
41807.6, 0.145349
42147.5, 0.150611
42493.0, 0.151196
42844.2, 0.145758
43201.2, 0.135819
43564.3, 0.131258
43933.5, 0.128394
44309.0, 0.129621
44691.0, 0.135293
45079.6, 0.138158
45475.0, 0.137573
45877.5, 0.143127
46287.1, 0.146577
46704.2, 0.139619
47128.7, 0.133071
47561.1, 0.135117
48001.5, 0.139327
48450.1, 0.136930
48907.2, 0.132311
49373.0, 0.129797
49847.7, 0.128920
50331.5, 0.122956
50825.0, 0.117519
51328.2, 0.120500
51841.5, 0.113426
52365.1, 0.0989260
52899.4, 0.103370
53444.8, 0.114888
54001.5, 0.116057
54570.1, 0.120793
55150.6, 0.129212
55743.6, 0.140438
56349.5, 0.153768
56968.7, 0.147220
57601.7, 0.138859
58248.9, 0.140087
58910.9, 0.132603
59588.1, 0.118103
60281.0, 0.114361
60990.2, 0.127984
61716.3, 0.145407
62459.8, 0.163415
63221.6, 0.176512
64002.1, 0.182943
64802.1, 0.178851
65622.1, 0.155815
66463.4, 0.145174
67326.6, 0.179084
68212.4, 0.181832
69121.9, 0.186802
70056.0, 0.190895
71015.7, 0.201594
72002.0, 0.202062
73016.3, 0.193292
74059.4, 0.195514
75132.7, 0.188088
76237.6, 0.173647
77375.5, 0.177915
78547.9, 0.186568
79756.3, 0.189550
81002.5, 0.183645
82288.5, 0.182183
83615.7, 0.183411
84986.5, 0.185633
86402.9, 0.183937
87867.4, 0.186861
89382.4, 0.183528
90950.5, 0.176687
92574.6, 0.175869
94257.2, 0.170080
96002.7, 0.169204
97814.1, 0.182826
99695.1, 0.178617
101650.0, 0.169554
103683.0, 0.184113
105799.0, 0.215334
108003.0, 0.219193
110301.0, 0.212937
112699.0, 0.214223
115204.0, 0.217263
117822.0, 0.226501
120562.0, 0.235271
123433.0, 0.241995
126443.0, 0.216269
129604.0, 0.235680
132926.0, 0.260997
136424.0, 0.256553
140111.0, 0.277894
144003.0, 0.267837
148118.0, 0.251993
152474.0, 0.225683
157095.0, 0.203933
162004.0, 0.224923
167231.0, 0.294849
172805.0, 0.269065
178764.0, 0.216679
185148.0, 0.268773
192005.0, 0.350685
199390.0, 0.371909
207366.0, 0.368517
216006.0, 0.558477
