Database of Origin, USGS Spectral Database
Sample Description, See USGS database for additional info
Date Added,2016-08-10 02:42:57.109417

Data ID,USGS_eug02          
Sample ID, eugsterite_gds140.7712
Mineral Name, eugsterite
Material Class,Sulfate

Wavelength
1499.61, 0.510958
1500.04, 0.510958
1500.48, 0.510768
1500.91, 0.509884
1501.35, 0.509569
1501.78, 0.508369
1502.22, 0.508306
1502.65, 0.508495
1503.09, 0.508053
1503.53, 0.507485
1503.96, 0.507295
1504.4, 0.506664
1504.83, 0.506537
1505.27, 0.506222
1505.71, 0.505085
1506.15, 0.505337
1506.58, 0.506222
1507.02, 0.505464
1507.46, 0.504643
1507.9, 0.504390
1508.34, 0.504011
1508.78, 0.504074
1509.21, 0.504201
1509.66, 0.504138
1510.09, 0.503696
1510.53, 0.503317
1510.97, 0.502748
1511.42, 0.502369
1511.86, 0.502559
1512.3, 0.502875
1512.74, 0.502622
1513.18, 0.502369
1513.62, 0.502369
1514.06, 0.502432
1514.51, 0.502496
1514.95, 0.502306
1515.39, 0.502369
1515.83, 0.501990
1516.28, 0.501548
1516.72, 0.501043
1517.16, 0.501611
1517.61, 0.502748
1518.05, 0.502306
1518.5, 0.501675
1518.94, 0.501801
1519.39, 0.501548
1519.83, 0.501296
1520.28, 0.502432
1520.73, 0.502685
1521.17, 0.502306
1521.62, 0.502496
1522.07, 0.502559
1522.51, 0.501927
1522.96, 0.502306
1523.41, 0.501927
1523.85, 0.502243
1524.3, 0.503001
1524.75, 0.502622
1525.2, 0.502306
1525.65, 0.502875
1526.1, 0.503253
1526.55, 0.502875
1527.0, 0.502559
1527.45, 0.503317
1527.9, 0.503948
1528.35, 0.504264
1528.8, 0.504264
1529.25, 0.503948
1529.7, 0.504516
1530.15, 0.505274
1530.6, 0.504895
1531.05, 0.504832
1531.51, 0.505085
1531.96, 0.505274
1532.41, 0.505780
1532.87, 0.505527
1533.32, 0.505085
1533.77, 0.505337
1534.23, 0.505337
1534.68, 0.505653
1535.14, 0.506727
1535.59, 0.507169
1536.05, 0.506600
1536.5, 0.506916
1536.96, 0.507485
1537.41, 0.507737
1537.87, 0.508495
1538.32, 0.509000
1538.78, 0.509379
1539.24, 0.509758
1539.7, 0.509505
1540.15, 0.509190
1540.61, 0.510200
1541.07, 0.510832
1541.53, 0.510516
1541.98, 0.510705
1542.44, 0.510832
1542.9, 0.511337
1543.36, 0.512031
1543.82, 0.511968
1544.28, 0.511716
1544.74, 0.511779
1545.2, 0.512347
1545.66, 0.512600
1546.12, 0.512979
1546.59, 0.513673
1547.05, 0.513926
1547.51, 0.514116
1547.97, 0.515063
1548.43, 0.515379
1548.9, 0.515252
1549.36, 0.515568
1549.82, 0.516136
1550.29, 0.515631
1550.75, 0.515631
1551.21, 0.516389
1551.68, 0.517084
1552.14, 0.516957
1552.61, 0.517020
1553.07, 0.517715
1553.54, 0.518031
1554.0, 0.518599
1554.47, 0.519357
1554.93, 0.519547
1555.4, 0.519736
1555.87, 0.520304
1556.34, 0.520557
1556.8, 0.520683
1557.27, 0.520873
1557.74, 0.521062
1558.21, 0.521252
1558.68, 0.521378
1559.14, 0.522073
1559.61, 0.523146
1560.08, 0.523525
1560.55, 0.523841
1561.02, 0.523904
1561.49, 0.524030
1561.96, 0.524157
1562.43, 0.524283
1562.9, 0.525230
1563.38, 0.525735
1563.85, 0.526304
1564.32, 0.526241
1564.79, 0.526367
1565.26, 0.527125
1565.74, 0.527251
1566.21, 0.527504
1566.68, 0.527883
1567.16, 0.528009
1567.63, 0.528388
1568.1, 0.528767
1568.58, 0.529209
1569.05, 0.530093
1569.53, 0.530409
1570.0, 0.530661
1570.48, 0.530661
1570.96, 0.530598
1571.43, 0.531103
1571.91, 0.531798
1572.39, 0.532556
1572.86, 0.532682
1573.34, 0.533314
1573.82, 0.533440
1574.3, 0.533819
1574.77, 0.534261
1575.25, 0.534261
1575.73, 0.534640
1576.21, 0.535271
1576.69, 0.535713
1577.17, 0.535776
1577.65, 0.535650
1578.13, 0.535966
1578.61, 0.536471
1579.09, 0.536408
1579.57, 0.537039
1580.05, 0.537797
1580.54, 0.537987
1581.02, 0.538429
1581.5, 0.538871
1581.98, 0.538997
1582.47, 0.539060
1582.95, 0.539313
1583.43, 0.540197
1583.92, 0.540323
1584.4, 0.540386
1584.88, 0.540892
1585.37, 0.541523
1585.85, 0.542028
1586.34, 0.542344
1586.82, 0.542912
1587.31, 0.542912
1587.8, 0.542660
1588.28, 0.543165
1588.77, 0.543355
1589.26, 0.543797
1589.74, 0.544428
1590.23, 0.544933
1590.72, 0.545249
1591.21, 0.545439
1591.7, 0.545881
1592.19, 0.546133
1592.67, 0.546196
1593.16, 0.546323
1593.65, 0.546765
1594.14, 0.547270
1594.63, 0.547396
1595.12, 0.547838
1595.61, 0.548091
1596.11, 0.548280
1596.6, 0.548912
1597.09, 0.549291
1597.58, 0.549670
1598.08, 0.549796
1598.57, 0.550491
1599.06, 0.551248
1599.55, 0.551627
1600.05, 0.551691
1600.54, 0.552006
1601.04, 0.552575
1601.53, 0.552575
1602.03, 0.552701
1602.52, 0.553206
1603.02, 0.553269
1603.51, 0.553711
1604.01, 0.554153
1604.5, 0.554469
1605.0, 0.554659
1605.5, 0.554659
1606.0, 0.554911
1606.49, 0.555290
1606.99, 0.555922
1607.49, 0.556553
1607.99, 0.556616
1608.49, 0.556995
1608.99, 0.557690
1609.49, 0.558132
1609.99, 0.558195
1610.49, 0.558321
1610.99, 0.558700
1611.49, 0.558827
1611.99, 0.558827
1612.49, 0.559395
1612.99, 0.560216
1613.49, 0.560595
1614.0, 0.561037
1614.5, 0.561416
1615.0, 0.561668
1615.51, 0.561668
1616.01, 0.561984
1616.51, 0.562111
1617.02, 0.562489
1617.52, 0.562995
1618.03, 0.563247
1618.53, 0.563752
1619.04, 0.564195
1619.54, 0.564510
1620.05, 0.564637
1620.55, 0.564700
1621.06, 0.564763
1621.57, 0.565015
1622.08, 0.565584
1622.58, 0.565710
1623.09, 0.565836
1623.6, 0.566152
1624.11, 0.566721
1624.62, 0.566910
1625.13, 0.567352
1625.64, 0.567668
1626.15, 0.567857
1626.66, 0.567984
1627.17, 0.568363
1627.68, 0.569184
1628.19, 0.569815
1628.7, 0.570320
1629.21, 0.570194
1629.72, 0.570068
1630.24, 0.570004
1630.75, 0.570320
1631.26, 0.570825
1631.78, 0.571141
1632.29, 0.571331
1632.8, 0.571520
1633.32, 0.571520
1633.83, 0.571836
1634.35, 0.572278
1634.86, 0.572594
1635.38, 0.572783
1635.9, 0.573162
1636.41, 0.573667
1636.93, 0.574046
1637.45, 0.574172
1637.96, 0.574488
1638.48, 0.575120
1639.0, 0.575562
1639.52, 0.575499
1640.04, 0.575751
1640.56, 0.576004
1641.08, 0.576004
1641.59, 0.576004
1642.11, 0.575877
1642.63, 0.576446
1643.16, 0.577141
1643.68, 0.577519
1644.2, 0.577583
1644.72, 0.577772
1645.24, 0.578025
1645.76, 0.578530
1646.29, 0.578909
1646.81, 0.578972
1647.33, 0.579098
1647.86, 0.579288
1648.38, 0.579603
1648.9, 0.579856
1649.43, 0.579919
1649.95, 0.580361
1650.48, 0.580930
1651.0, 0.581182
1651.53, 0.581119
1652.06, 0.581372
1652.58, 0.581687
1653.11, 0.581687
1653.64, 0.582193
1654.17, 0.582698
1654.69, 0.582950
1655.22, 0.582887
1655.75, 0.582824
1656.28, 0.583329
1656.81, 0.583393
1657.34, 0.583582
1657.87, 0.583835
1658.4, 0.583835
1658.93, 0.583898
1659.46, 0.584466
1659.99, 0.584782
1660.52, 0.585224
1661.05, 0.585603
1661.59, 0.585855
1662.12, 0.586234
1662.65, 0.586613
1663.19, 0.586803
1663.72, 0.586613
1664.26, 0.586676
1664.79, 0.587245
1665.32, 0.587624
1665.86, 0.587687
1666.39, 0.587940
1666.93, 0.588192
1667.47, 0.588255
1668.0, 0.588129
1668.54, 0.588508
1669.08, 0.589013
1669.61, 0.589203
1670.15, 0.589645
1670.69, 0.589708
1671.23, 0.589708
1671.77, 0.589897
1672.31, 0.590276
1672.85, 0.590655
1673.39, 0.591223
1673.93, 0.591665
1674.47, 0.591602
1675.01, 0.592044
1675.55, 0.592486
1676.09, 0.592360
1676.64, 0.592171
1677.18, 0.592423
1677.72, 0.592676
1678.26, 0.592992
1678.81, 0.593497
1679.35, 0.593434
1679.89, 0.593434
1680.44, 0.593497
1680.98, 0.593749
1681.53, 0.594128
1682.07, 0.594318
1682.62, 0.594634
1683.17, 0.595012
1683.71, 0.594697
1684.26, 0.594823
1684.81, 0.595328
1685.36, 0.595518
1685.9, 0.595707
1686.45, 0.595896
1687.0, 0.596212
1687.55, 0.596654
1688.1, 0.596844
1688.65, 0.596970
1689.2, 0.597160
1689.75, 0.597349
1690.3, 0.597349
1690.85, 0.597538
1691.41, 0.598107
1691.96, 0.598549
1692.51, 0.598549
1693.06, 0.598865
1693.61, 0.598865
1694.17, 0.598675
1694.72, 0.598612
1695.28, 0.598738
1695.83, 0.599117
1696.39, 0.599496
1696.94, 0.599622
1697.5, 0.599812
1698.05, 0.600001
1698.61, 0.600254
1699.17, 0.600633
1699.72, 0.600633
1700.28, 0.600696
1700.84, 0.600696
1701.4, 0.600633
1701.95, 0.600507
1702.51, 0.600885
1703.07, 0.601328
1703.63, 0.601580
1704.19, 0.601580
1704.75, 0.601770
1705.31, 0.601959
1705.88, 0.602149
1706.44, 0.602464
1707.0, 0.602717
1707.56, 0.602780
1708.12, 0.602906
1708.69, 0.603033
1709.25, 0.603033
1709.81, 0.603096
1710.38, 0.603033
1710.94, 0.603222
1711.51, 0.603664
1712.07, 0.603790
1712.64, 0.603727
1713.2, 0.603790
1713.77, 0.604043
1714.34, 0.604233
1714.9, 0.604359
1715.47, 0.604359
1716.04, 0.604611
1716.61, 0.604864
1717.18, 0.604864
1717.74, 0.605117
1718.31, 0.605369
1718.88, 0.605369
1719.45, 0.605369
1720.02, 0.605811
1720.59, 0.605938
1721.17, 0.605811
1721.74, 0.606001
1722.31, 0.606190
1722.88, 0.606380
1723.45, 0.606632
1724.03, 0.606632
1724.6, 0.606948
1725.18, 0.607074
1725.75, 0.606948
1726.33, 0.606948
1726.9, 0.607327
1727.48, 0.607580
1728.05, 0.607453
1728.63, 0.607327
1729.2, 0.607643
1729.78, 0.607769
1730.36, 0.608022
1730.94, 0.608274
1731.51, 0.608085
1732.09, 0.607706
1732.67, 0.607769
1733.25, 0.608148
1733.83, 0.608653
1734.41, 0.608653
1734.99, 0.608906
1735.57, 0.609095
1736.15, 0.609095
1736.73, 0.609032
1737.32, 0.609032
1737.9, 0.609032
1738.48, 0.609158
1739.07, 0.609474
1739.65, 0.609727
1740.23, 0.609727
1740.82, 0.609790
1741.4, 0.609790
1741.99, 0.609853
1742.57, 0.609979
1743.16, 0.609979
1743.74, 0.610358
1744.33, 0.610358
1744.92, 0.610232
1745.51, 0.610800
1746.09, 0.611179
1746.68, 0.610863
1747.27, 0.610611
1747.86, 0.610863
1748.45, 0.611179
1749.04, 0.611179
1749.63, 0.611116
1750.22, 0.610863
1750.81, 0.610863
1751.4, 0.611179
1751.99, 0.611242
1752.59, 0.611305
1753.18, 0.611621
1753.77, 0.612316
1754.37, 0.612632
1754.96, 0.612063
1755.56, 0.611937
1756.15, 0.612379
1756.74, 0.612505
1757.34, 0.612695
1757.94, 0.612568
1758.53, 0.612379
1759.13, 0.612316
1759.73, 0.612442
1760.32, 0.612695
1760.92, 0.612505
1761.52, 0.612632
1762.12, 0.612758
1762.72, 0.612632
1763.32, 0.612884
1763.92, 0.612821
1764.52, 0.612947
1765.12, 0.613200
1765.72, 0.613263
1766.32, 0.613263
1766.92, 0.613453
1767.53, 0.613705
1768.13, 0.613516
1768.73, 0.613389
1769.34, 0.613705
1769.94, 0.613895
1770.55, 0.613642
1771.15, 0.614084
1771.76, 0.614210
1772.36, 0.614210
1772.97, 0.614337
1773.57, 0.614526
1774.18, 0.614337
1774.79, 0.614147
1775.4, 0.614463
1776.0, 0.614779
1776.61, 0.614779
1777.22, 0.614968
1777.83, 0.615031
1778.44, 0.615221
1779.05, 0.615410
1779.66, 0.615347
1780.27, 0.615410
1780.88, 0.615473
1781.5, 0.615663
1782.11, 0.615852
1782.72, 0.615979
1783.33, 0.615916
1783.95, 0.615852
1784.56, 0.616168
1785.18, 0.616547
1785.79, 0.616736
1786.41, 0.616736
1787.02, 0.616863
1787.64, 0.616926
1788.26, 0.616926
1788.87, 0.617115
1789.49, 0.617305
1790.11, 0.617494
1790.73, 0.617557
1791.35, 0.617557
1791.96, 0.617747
1792.58, 0.618000
1793.21, 0.618252
1793.83, 0.618252
1794.45, 0.618442
1795.07, 0.618694
1795.69, 0.618884
1796.31, 0.618757
1796.93, 0.618694
1797.56, 0.618820
1798.18, 0.619073
1798.8, 0.619389
1799.43, 0.619705
1800.05, 0.619768
1800.68, 0.619705
1801.3, 0.619641
1801.93, 0.619641
1802.56, 0.619641
1803.18, 0.620020
1803.81, 0.620399
1804.44, 0.620526
1805.07, 0.620652
1805.7, 0.620968
1806.33, 0.621031
1806.95, 0.620968
1807.58, 0.621031
1808.22, 0.621283
1808.85, 0.621410
1809.48, 0.621599
1810.11, 0.621599
1810.74, 0.621599
1811.38, 0.621852
1812.01, 0.622041
1812.64, 0.622041
1813.28, 0.622041
1813.91, 0.622168
1814.55, 0.622294
1815.18, 0.622483
1815.82, 0.622862
1816.45, 0.623052
1817.09, 0.622988
1817.73, 0.622925
1818.36, 0.622799
1819.0, 0.623115
1819.64, 0.623557
1820.28, 0.623809
1820.92, 0.623809
1821.56, 0.623746
1822.2, 0.623683
1822.84, 0.623809
1823.48, 0.623746
1824.12, 0.624062
1824.76, 0.624062
1825.41, 0.624251
1826.05, 0.624820
1826.69, 0.624694
1827.34, 0.624694
1827.98, 0.624883
1828.63, 0.624883
1829.27, 0.624757
1829.92, 0.624946
1830.56, 0.625451
1831.21, 0.625641
1831.86, 0.625515
1832.5, 0.625641
1833.15, 0.625641
1833.8, 0.625578
1834.45, 0.625704
1835.1, 0.625704
1835.75, 0.626083
1836.4, 0.626209
1837.05, 0.626083
1837.7, 0.626083
1838.35, 0.625893
1839.01, 0.626083
1839.66, 0.626336
1840.31, 0.626336
1840.96, 0.626525
1841.62, 0.626588
1842.27, 0.626588
1842.93, 0.626462
1843.58, 0.626399
1844.24, 0.626146
1844.9, 0.626209
1845.55, 0.626651
1846.21, 0.626841
1846.87, 0.626967
1847.53, 0.626714
1848.18, 0.626714
1848.84, 0.626525
1849.5, 0.626525
1850.16, 0.626525
1850.82, 0.626525
1851.48, 0.626525
1852.14, 0.626651
1852.81, 0.626778
1853.47, 0.626714
1854.13, 0.626588
1854.8, 0.626272
1855.46, 0.626209
1856.12, 0.626336
1856.79, 0.626209
1857.45, 0.625893
1858.12, 0.625704
1858.79, 0.625830
1859.45, 0.625893
1860.12, 0.625515
1860.79, 0.625388
1861.46, 0.625072
1862.12, 0.624820
1862.79, 0.624694
1863.46, 0.624757
1864.13, 0.624694
1864.8, 0.624378
1865.48, 0.624188
1866.15, 0.624125
1866.82, 0.623683
1867.49, 0.623683
1868.16, 0.623620
1868.84, 0.623115
1869.51, 0.622610
1870.19, 0.622546
1870.86, 0.622420
1871.54, 0.621599
1872.21, 0.621094
1872.89, 0.621094
1873.56, 0.620905
1874.24, 0.620147
1874.92, 0.619578
1875.6, 0.618884
1876.28, 0.618568
1876.96, 0.618378
1877.64, 0.617747
1878.32, 0.616926
1879.0, 0.616421
1879.68, 0.615916
1880.36, 0.615095
1881.04, 0.614463
1881.73, 0.614021
1882.41, 0.613326
1883.09, 0.612568
1883.78, 0.611874
1884.46, 0.610990
1885.15, 0.610106
1885.83, 0.609158
1886.52, 0.608337
1887.21, 0.607706
1887.89, 0.606569
1888.58, 0.605306
1889.27, 0.604296
1889.96, 0.603412
1890.65, 0.602401
1891.34, 0.601075
1892.03, 0.599812
1892.72, 0.598675
1893.41, 0.597538
1894.1, 0.596212
1894.79, 0.594760
1895.49, 0.592928
1896.18, 0.591413
1896.87, 0.590150
1897.57, 0.588824
1898.26, 0.587308
1898.96, 0.585855
1899.65, 0.584277
1900.35, 0.582445
1901.05, 0.580361
1901.74, 0.578593
1902.44, 0.576951
1903.14, 0.574930
1903.84, 0.572594
1904.54, 0.570383
1905.24, 0.568426
1905.94, 0.566342
1906.64, 0.564131
1907.34, 0.561668
1908.04, 0.559584
1908.75, 0.557374
1909.45, 0.554722
1910.15, 0.552133
1910.86, 0.550112
1911.56, 0.547965
1912.27, 0.545439
1912.97, 0.542912
1913.68, 0.540702
1914.39, 0.538239
1915.09, 0.535966
1915.8, 0.534008
1916.51, 0.532050
1917.22, 0.530093
1917.93, 0.528261
1918.64, 0.526367
1919.35, 0.524978
1920.06, 0.523651
1920.77, 0.522073
1921.48, 0.520557
1922.19, 0.519483
1922.91, 0.518599
1923.62, 0.517778
1924.33, 0.516831
1925.05, 0.516263
1925.76, 0.515884
1926.48, 0.515315
1927.19, 0.514621
1927.91, 0.514431
1928.63, 0.514305
1929.35, 0.514116
1930.07, 0.514242
1930.78, 0.514242
1931.5, 0.514305
1932.22, 0.514621
1932.94, 0.514684
1933.66, 0.514873
1934.39, 0.515252
1935.11, 0.515505
1935.83, 0.515694
1936.55, 0.515821
1937.28, 0.516326
1938.0, 0.516768
1938.73, 0.517020
1939.45, 0.517652
1940.18, 0.518157
1940.9, 0.518157
1941.63, 0.518283
1942.36, 0.518662
1943.09, 0.519104
1943.81, 0.519231
1944.54, 0.519420
1945.27, 0.519862
1946.0, 0.520304
1946.73, 0.520557
1947.47, 0.520999
1948.2, 0.521252
1948.93, 0.521441
1949.66, 0.521757
1950.4, 0.521946
1951.13, 0.522009
1951.86, 0.522199
1952.6, 0.522578
1953.34, 0.523020
1954.07, 0.523083
1954.81, 0.523146
1955.55, 0.523336
1956.29, 0.523525
1957.02, 0.523651
1957.76, 0.523904
1958.5, 0.524220
1959.24, 0.524472
1959.98, 0.524599
1960.72, 0.524978
1961.47, 0.525293
1962.21, 0.525609
1962.95, 0.525925
1963.7, 0.526114
1964.44, 0.526177
1965.18, 0.526556
1965.93, 0.527125
1966.67, 0.527440
1967.42, 0.527630
1968.17, 0.527946
1968.92, 0.528514
1969.66, 0.529209
1970.41, 0.529651
1971.16, 0.529966
1971.91, 0.530345
1972.66, 0.530851
1973.41, 0.531356
1974.16, 0.531545
1974.92, 0.532114
1975.67, 0.532935
1976.42, 0.533440
1977.18, 0.533819
1977.93, 0.534261
1978.69, 0.534829
1979.44, 0.535524
1980.2, 0.536155
1980.95, 0.537039
1981.71, 0.537987
1982.47, 0.538555
1983.23, 0.538997
1983.99, 0.539629
1984.74, 0.540197
1985.51, 0.540765
1986.27, 0.541460
1987.03, 0.542218
1987.79, 0.543039
1988.55, 0.543860
1989.32, 0.544491
1990.08, 0.545439
1990.84, 0.546323
1991.61, 0.547017
1992.37, 0.547775
1993.14, 0.548533
1993.9, 0.549417
1994.67, 0.550554
1995.44, 0.551375
1996.21, 0.552322
1996.98, 0.553206
1997.75, 0.553901
1998.52, 0.554722
1999.29, 0.555732
2000.06, 0.556743
2000.83, 0.557816
2001.6, 0.558827
2002.38, 0.559521
2003.15, 0.560153
2003.93, 0.560974
2004.7, 0.561984
2005.48, 0.562868
2006.25, 0.563752
2007.03, 0.564700
2007.81, 0.565331
2008.58, 0.566089
2009.36, 0.566847
2010.14, 0.567415
2010.92, 0.568426
2011.7, 0.569499
2012.48, 0.570131
2013.26, 0.570762
2014.05, 0.571394
2014.83, 0.572088
2015.61, 0.572973
2016.4, 0.573667
2017.18, 0.574362
2017.97, 0.574741
2018.75, 0.575499
2019.54, 0.576320
2020.32, 0.576825
2021.11, 0.577204
2021.9, 0.577583
2022.69, 0.578025
2023.48, 0.578593
2024.27, 0.579098
2025.06, 0.579730
2025.85, 0.580235
2026.64, 0.580488
2027.44, 0.580993
2028.23, 0.581309
2029.02, 0.581687
2029.82, 0.582193
2030.61, 0.582382
2031.41, 0.582572
2032.2, 0.583014
2033.0, 0.583203
2033.8, 0.583582
2034.6, 0.584087
2035.4, 0.584340
2036.2, 0.584782
2037.0, 0.585035
2037.8, 0.585098
2038.6, 0.585224
2039.4, 0.585413
2040.2, 0.585603
2041.01, 0.585729
2041.81, 0.585919
2042.61, 0.586361
2043.42, 0.586424
2044.22, 0.586424
2045.03, 0.586613
2045.84, 0.586550
2046.65, 0.586929
2047.46, 0.587182
2048.26, 0.586992
2049.07, 0.586866
2049.88, 0.587055
2050.69, 0.587371
2051.51, 0.587561
2052.32, 0.587750
2053.13, 0.587940
2053.94, 0.587940
2054.76, 0.588003
2055.57, 0.588318
2056.39, 0.588571
2057.2, 0.588508
2058.02, 0.588571
2058.84, 0.588697
2059.66, 0.588760
2060.48, 0.588887
2061.29, 0.588760
2062.11, 0.588950
2062.94, 0.589266
2063.76, 0.589076
2064.58, 0.589013
2065.4, 0.589076
2066.22, 0.589139
2067.05, 0.589139
2067.87, 0.589139
2068.7, 0.589076
2069.52, 0.589266
2070.35, 0.589392
2071.18, 0.589518
2072.0, 0.589455
2072.83, 0.589455
2073.66, 0.589645
2074.49, 0.589771
2075.32, 0.589897
2076.15, 0.589960
2076.98, 0.590276
2077.82, 0.590781
2078.65, 0.590781
2079.48, 0.590655
2080.32, 0.590655
2081.15, 0.590718
2081.99, 0.590844
2082.83, 0.591160
2083.66, 0.591350
2084.5, 0.591350
2085.34, 0.591539
2086.18, 0.591665
2087.02, 0.591855
2087.86, 0.592234
2088.7, 0.592550
2089.54, 0.592802
2090.39, 0.593055
2091.23, 0.593181
2092.07, 0.593244
2092.92, 0.593560
2093.76, 0.593749
2094.61, 0.594002
2095.45, 0.594191
2096.3, 0.594191
2097.15, 0.594381
2098.0, 0.594570
2098.85, 0.594886
2099.7, 0.595139
2100.55, 0.595581
2101.4, 0.595770
2102.25, 0.595896
2103.1, 0.596086
2103.96, 0.596276
2104.81, 0.596465
2105.67, 0.596654
2106.52, 0.596844
2107.38, 0.597160
2108.24, 0.597602
2109.09, 0.597854
2109.95, 0.598044
2110.81, 0.598359
2111.67, 0.598738
2112.53, 0.598991
2113.39, 0.599117
2114.25, 0.599244
2115.12, 0.599496
2115.98, 0.599686
2116.84, 0.599938
2117.71, 0.600443
2118.58, 0.600822
2119.44, 0.601012
2120.31, 0.601138
2121.18, 0.601328
2122.04, 0.601643
2122.91, 0.601833
2123.78, 0.602212
2124.65, 0.602654
2125.52, 0.603033
2126.4, 0.603222
2127.27, 0.603222
2128.14, 0.603538
2129.02, 0.603790
2129.89, 0.603854
2130.77, 0.604043
2131.64, 0.604359
2132.52, 0.604675
2133.4, 0.604801
2134.27, 0.605053
2135.15, 0.605432
2136.03, 0.605559
2136.91, 0.605622
2137.79, 0.605685
2138.68, 0.605874
2139.56, 0.606127
2140.44, 0.606190
2141.33, 0.606443
2142.21, 0.606569
2143.1, 0.606695
2143.99, 0.606948
2144.87, 0.606948
2145.76, 0.607138
2146.65, 0.607516
2147.54, 0.607580
2148.43, 0.607769
2149.32, 0.607832
2150.21, 0.608022
2151.1, 0.608211
2151.99, 0.608085
2152.89, 0.608274
2153.78, 0.608653
2154.68, 0.608906
2155.57, 0.608969
2156.47, 0.608969
2157.37, 0.609032
2158.27, 0.609158
2159.16, 0.609285
2160.06, 0.609474
2160.96, 0.609474
2161.86, 0.609600
2162.77, 0.609664
2163.67, 0.609853
2164.57, 0.609979
2165.48, 0.609916
2166.38, 0.610106
2167.29, 0.610358
2168.2, 0.610421
2169.1, 0.610674
2170.01, 0.610611
2170.92, 0.610674
2171.83, 0.610800
2172.74, 0.610737
2173.65, 0.610548
2174.56, 0.610737
2175.47, 0.611116
2176.39, 0.611305
2177.3, 0.611432
2178.22, 0.611495
2179.13, 0.611369
2180.05, 0.611658
2180.96, 0.611716
2181.88, 0.611311
2182.8, 0.611716
2183.72, 0.612122
2184.64, 0.611890
2185.56, 0.612180
2186.48, 0.612296
2187.41, 0.612353
2188.33, 0.612411
2189.25, 0.612527
2190.18, 0.612585
2191.1, 0.612643
2192.03, 0.612527
2192.96, 0.612469
2193.89, 0.612353
2194.82, 0.612411
2195.74, 0.612469
2196.68, 0.612701
2197.61, 0.612353
2198.54, 0.612469
2199.47, 0.612469
2200.4, 0.612585
2201.34, 0.612759
2202.28, 0.613222
2203.21, 0.613338
2204.15, 0.613165
2205.08, 0.612933
2206.02, 0.612759
2206.96, 0.613280
2207.9, 0.613570
2208.84, 0.613686
2209.78, 0.613512
2210.73, 0.613165
2211.67, 0.613802
2212.61, 0.614555
2213.56, 0.614555
2214.5, 0.614729
2215.45, 0.614613
2216.4, 0.614729
2217.35, 0.614902
2218.3, 0.615018
2219.24, 0.615076
2220.2, 0.615366
2221.15, 0.615076
2222.1, 0.614902
2223.05, 0.614960
2224.0, 0.615250
2224.96, 0.615366
2225.91, 0.615424
2226.87, 0.615887
2227.83, 0.616177
2228.79, 0.616351
2229.74, 0.616525
2230.7, 0.616872
2231.66, 0.616699
2232.63, 0.616756
2233.59, 0.617394
2234.55, 0.617452
2235.51, 0.617278
2236.48, 0.617452
2237.44, 0.617857
2238.41, 0.617973
2239.38, 0.618031
2240.34, 0.617973
2241.31, 0.617973
2242.28, 0.618263
2243.25, 0.618379
2244.22, 0.618552
2245.19, 0.618379
2246.17, 0.618379
2247.14, 0.618610
2248.12, 0.618610
2249.09, 0.618842
2250.07, 0.618610
2251.04, 0.618900
2252.02, 0.619363
2253.0, 0.619421
2253.98, 0.619190
2254.96, 0.618958
2255.94, 0.619132
2256.92, 0.619305
2257.91, 0.619305
2258.89, 0.619016
2259.88, 0.619016
2260.86, 0.619132
2261.85, 0.619132
2262.83, 0.619653
2263.82, 0.619479
2264.81, 0.619074
2265.8, 0.619074
2266.79, 0.619305
2267.78, 0.619363
2268.78, 0.619074
2269.77, 0.618726
2270.76, 0.618784
2271.76, 0.618958
2272.75, 0.619074
2273.75, 0.619074
2274.75, 0.619074
2275.75, 0.618958
2276.75, 0.618784
2277.75, 0.618958
2278.75, 0.618784
2279.75, 0.618610
2280.75, 0.618436
2281.76, 0.618147
2282.76, 0.617857
2283.77, 0.617973
2284.77, 0.618089
2285.78, 0.617683
2286.79, 0.617394
2287.8, 0.617741
2288.81, 0.617625
2289.82, 0.617394
2290.83, 0.617394
2291.84, 0.617336
2292.86, 0.616988
2293.87, 0.616756
2294.89, 0.616177
2295.91, 0.616235
2296.92, 0.616351
2297.94, 0.616061
2298.96, 0.615887
2299.98, 0.615482
2301.0, 0.615366
2302.02, 0.615308
2303.04, 0.614902
2304.07, 0.614729
2305.09, 0.614497
2306.12, 0.614149
2307.15, 0.613802
2308.17, 0.613918
2309.2, 0.613628
2310.23, 0.612701
2311.26, 0.612296
2312.29, 0.612180
2313.32, 0.612006
2314.35, 0.612122
2315.39, 0.611658
2316.42, 0.611079
2317.46, 0.611079
2318.5, 0.610558
2319.53, 0.610094
2320.57, 0.610094
2321.61, 0.610036
2322.65, 0.609399
2323.69, 0.608646
2324.73, 0.608530
2325.78, 0.608414
2326.82, 0.607951
2327.86, 0.607545
2328.91, 0.607024
2329.96, 0.606502
2331.01, 0.606328
2332.05, 0.606097
2333.1, 0.605633
2334.15, 0.604938
2335.21, 0.604243
2336.26, 0.603837
2337.31, 0.603548
2338.36, 0.603084
2339.42, 0.602852
2340.48, 0.601983
2341.53, 0.601404
2342.59, 0.601057
2343.65, 0.600072
2344.71, 0.599434
2345.77, 0.599029
2346.83, 0.598334
2347.9, 0.597638
2348.96, 0.597175
2350.02, 0.596712
2351.09, 0.595900
2352.16, 0.594974
2353.23, 0.594220
2354.29, 0.593641
2355.36, 0.592830
2356.43, 0.592251
2357.51, 0.591671
2358.58, 0.591034
2359.65, 0.590107
2360.73, 0.589238
2361.8, 0.588543
2362.88, 0.588253
2363.96, 0.587674
2365.03, 0.587037
2366.11, 0.586457
2367.19, 0.585530
2368.27, 0.585067
2369.36, 0.584430
2370.44, 0.583966
2371.53, 0.583329
2372.61, 0.582692
2373.7, 0.581939
2374.78, 0.580954
2375.87, 0.580201
2376.96, 0.579563
2378.05, 0.578926
2379.14, 0.577999
2380.24, 0.577536
2381.33, 0.577014
2382.42, 0.575856
2383.52, 0.574929
2384.61, 0.574291
2385.71, 0.573480
2386.81, 0.572669
2387.91, 0.572090
2389.01, 0.571163
2390.11, 0.570178
2391.22, 0.569367
2392.32, 0.568266
2393.42, 0.567224
2394.53, 0.566586
2395.64, 0.565428
2396.74, 0.563979
2397.85, 0.563052
2398.96, 0.562125
2400.07, 0.561199
2401.18, 0.560098
2402.3, 0.558707
2403.41, 0.557085
2404.52, 0.555753
2405.64, 0.554536
2406.76, 0.553493
2407.88, 0.552451
2408.99, 0.551118
2410.11, 0.549844
2411.23, 0.548395
2412.36, 0.546889
2413.48, 0.545557
2414.6, 0.544166
2415.73, 0.543007
2416.85, 0.541791
2417.98, 0.540516
2419.11, 0.539184
2420.24, 0.537851
2421.37, 0.536693
2422.5, 0.535650
2423.64, 0.534260
2424.77, 0.532927
2425.9, 0.531884
2427.04, 0.530842
2428.18, 0.529741
2429.31, 0.528524
2430.45, 0.527308
2431.59, 0.526091
2432.73, 0.525222
2433.88, 0.524179
2435.02, 0.523021
2436.16, 0.522383
2437.31, 0.521572
2438.45, 0.520761
2439.6, 0.519834
2440.75, 0.519081
2441.9, 0.518212
2443.05, 0.517459
2444.2, 0.516938
2445.35, 0.516069
2446.51, 0.515142
2447.67, 0.514678
2448.82, 0.513867
2449.98, 0.513114
2451.14, 0.512303
2452.3, 0.511550
2453.46, 0.510913
2454.62, 0.510275
2455.78, 0.509406
2456.94, 0.509001
2458.11, 0.508363
2459.28, 0.507610
2460.44, 0.507031
2461.61, 0.506336
2462.78, 0.505467
2463.95, 0.504714
2465.12, 0.504134
2466.3, 0.503903
2467.47, 0.503497
2468.65, 0.502976
2469.82, 0.502686
2471.0, 0.501991
2472.18, 0.501354
2473.36, 0.500948
2474.54, 0.500600
2475.72, 0.500311
2476.9, 0.499789
2478.08, 0.499326
2479.27, 0.498862
2480.46, 0.498689
2481.64, 0.498399
2482.83, 0.498283
2484.02, 0.498399
2485.21, 0.498225
2486.4, 0.497820
2487.6, 0.497298
2488.79, 0.497182
2489.99, 0.497530
2491.18, 0.497588
2492.38, 0.497762
2493.58, 0.497820
2494.78, 0.497762
2495.98, 0.497993
2497.18, 0.498341
2498.39, 0.498457
2499.59, 0.498862
2500.8, 0.499094
2502.01, 0.499442
2503.21, 0.499847
2504.42, 0.500079
2505.63, 0.500658
2506.84, 0.501180
2508.06, 0.501411
2509.27, 0.501817
2510.49, 0.502338
2511.7, 0.502976
2512.92, 0.503555
2514.14, 0.504076
2515.36, 0.504598
2516.58, 0.505351
2517.8, 0.505872
2519.03, 0.506683
2520.25, 0.507495
2521.48, 0.507958
2522.7, 0.508363
2523.93, 0.508943
2525.16, 0.509580
2526.39, 0.510507
2527.62, 0.511318
2528.86, 0.512187
2530.09, 0.512650
2531.33, 0.512708
2532.56, 0.513114
2533.8, 0.514041
2535.04, 0.514157
2536.28, 0.514678
2537.52, 0.516011
2538.76, 0.517227
2540.01, 0.518038
2541.25, 0.518096
2542.5, 0.517691
2543.75, 0.518560
2544.99, 0.519776
2546.24, 0.520240
2547.49, 0.520298
2548.75, 0.521398
2550.0, 0.522094
2551.26, 0.521862
2552.51, 0.521746
2553.77, 0.523136
2555.03, 0.524932
2556.29, 0.525628
2557.55, 0.525917
2558.81, 0.525570
2560.08, 0.523600
2561.34, 0.521746
2562.61, 0.521920
2563.88, 0.522963
2565.14, 0.525396
2566.41, 0.528292
2567.68, 0.528466
2568.96, 0.526381
2570.23, 0.526728
2571.51, 0.528408
2572.78, 0.525570
2574.06, 0.526033
2575.34, 0.528177
2576.62, 0.527308
2577.9, 0.528872
2579.18, 0.530668
2580.47, 0.528988
2581.75, 0.528292
2583.04, 0.525338
2584.32, 0.524585
2585.61, 0.527597
2586.9, 0.526670
2588.2, 0.526844
2589.49, 0.528350
2590.78, 0.529567
2592.08, 0.528466
2593.37, 0.520298
2594.67, 0.511666
2595.97, 0.517111
2597.27, 0.525338
2598.57, 0.528640
2599.88, 0.528235
2601.18, 0.526381
2602.49, 0.524585
2603.79, 0.521688
2605.1, 0.517575
2606.41, 0.518560
2607.72, 0.521688
2609.03, 0.522210
2610.35, 0.522557
2611.66, 0.522673
2612.98, 0.521688
2614.3, 0.521456
2615.62, 0.517343
2616.94, 0.513983
2618.26, 0.516358
2619.58, 0.513577
2620.91, 0.512708
2622.23, 0.517111
2623.56, 0.518096
2624.89, 0.515605
2626.22, 0.510739
2627.55, 0.511260
2628.88, 0.510217
2630.21, 0.505061
2631.55, 0.506741
2632.89, 0.508479
2634.22, 0.508016
2635.56, 0.508769
2636.9, 0.508421
2638.25, 0.507495
2639.59, 0.506278
2640.93, 0.504714
2642.28, 0.503265
2643.63, 0.502281
2644.98, 0.499673
2646.33, 0.498515
2647.68, 0.498747
2649.03, 0.498109
2650.39, 0.496371
2651.74, 0.492895
2653.1, 0.490984
2654.46, 0.490462
2655.82, 0.489303
2657.18, 0.489130
2658.54, 0.486349
2659.9, 0.484032
2661.27, 0.482931
2662.64, 0.481482
2664.01, 0.475457
2665.38, 0.469027
2666.74, 0.467289
2668.12, 0.469490
2669.49, 0.464218
2670.87, 0.461090
2672.24, 0.467115
2673.62, 0.467868
2675.0, 0.463523
2676.38, 0.458425
2677.76, 0.457209
2679.15, 0.456108
2680.54, 0.457382
2681.92, 0.456166
2683.31, 0.453095
2684.7, 0.450836
2686.09, 0.448403
2687.48, 0.446317
2688.88, 0.444405
2690.27, 0.441798
2691.67, 0.437627
2693.07, 0.430907
2694.47, 0.426736
2695.87, 0.425519
2697.27, 0.424302
2698.67, 0.421464
2700.08, 0.416366
2701.49, 0.411383
2702.9, 0.408487
2704.31, 0.404837
2705.72, 0.400782
2707.13, 0.396089
2708.54, 0.389774
2709.96, 0.382764
2711.38, 0.378651
2712.8, 0.378477
2714.22, 0.375928
2715.64, 0.371467
2717.06, 0.365848
2718.49, 0.359128
2719.91, 0.349916
2721.34, 0.345803
2722.77, 0.343022
2724.2, 0.336360
2725.63, 0.333000
2727.07, 0.330625
2728.5, 0.326280
2729.94, 0.320544
2731.38, 0.314461
2732.82, 0.307973
2734.26, 0.300499
2735.7, 0.294880
2737.15, 0.289434
2738.59, 0.280860
2740.04, 0.273213
2741.49, 0.268694
2742.94, 0.265276
2744.39, 0.260583
2745.84, 0.255196
2747.3, 0.249402
2748.76, 0.243493
2750.21, 0.237816
2751.67, 0.232138
2753.14, 0.226055
2754.6, 0.218408
2756.06, 0.213310
2757.53, 0.211108
2759.0, 0.207169
2760.46, 0.202245
2761.94, 0.196799
2763.41, 0.192512
2764.88, 0.189441
2766.36, 0.186023
2767.83, 0.182200
2769.31, 0.178724
2770.79, 0.175364
2772.27, 0.172641
2773.76, 0.170323
2775.24, 0.167890
2776.73, 0.165225
2778.22, 0.162966
2779.71, 0.160649
2781.2, 0.158505
2782.69, 0.156941
2784.18, 0.155551
2785.68, 0.153407
2787.18, 0.151669
2788.68, 0.150974
2790.18, 0.150452
2791.68, 0.149410
2793.19, 0.148193
2794.69, 0.147266
2796.2, 0.146571
2797.71, 0.145702
2799.22, 0.144891
2800.73, 0.143964
2802.24, 0.142458
2803.76, 0.141589
2805.28, 0.141357
2806.8, 0.141009
2808.32, 0.140488
2809.84, 0.139735
2811.36, 0.139098
2812.89, 0.138402
2814.42, 0.137475
2815.94, 0.136548
2817.48, 0.135506
2819.01, 0.134579
2820.54, 0.134057
2822.08, 0.133594
2823.61, 0.132841
2825.15, 0.131798
2826.69, 0.130697
2828.23, 0.129770
2829.78, 0.129017
2831.32, 0.127974
2832.87, 0.126932
2834.42, 0.125715
2835.97, 0.124904
2837.52, 0.123977
2839.08, 0.123050
2840.63, 0.122239
2842.19, 0.121138
2843.75, 0.120095
2845.31, 0.119226
2846.87, 0.118242
2848.44, 0.117315
2850.0, 0.116330
2851.57, 0.115345
2853.14, 0.114418
2854.71, 0.113549
2856.28, 0.112912
2857.86, 0.112217
2859.43, 0.111348
2861.01, 0.110305
2862.59, 0.109552
2864.17, 0.108798
2865.76, 0.107872
2867.34, 0.107003
2868.93, 0.106249
2870.52, 0.105496
2872.11, 0.104627
2873.7, 0.103990
2875.29, 0.103353
2876.89, 0.102715
2878.49, 0.101904
2880.08, 0.100920
2881.69, 0.100108
2883.29, 0.0995290
2884.89, 0.0987760
2886.5, 0.0980810
2888.11, 0.0973860
2889.72, 0.0966330
2891.33, 0.0959370
2892.94, 0.0951260
2894.56, 0.0944890
2896.17, 0.0939100
2897.79, 0.0933300
2899.42, 0.0928090
2901.04, 0.0922300
2902.66, 0.0917080
2904.29, 0.0912450
2905.92, 0.0906650
2907.55, 0.0902020
2909.18, 0.0896810
2910.81, 0.0893330
2912.45, 0.0889270
2914.08, 0.0882900
2915.72, 0.0878270
2917.36, 0.0874210
2919.01, 0.0869580
2920.65, 0.0864940
2922.3, 0.0859150
2923.94, 0.0856250
2925.59, 0.0853930
2927.25, 0.0849300
2928.9, 0.0844670
2930.56, 0.0841770
2932.21, 0.0838870
2933.87, 0.0835980
2935.53, 0.0835980
2937.2, 0.0836550
2938.86, 0.0837710
2940.53, 0.0840030
2942.2, 0.0840030
2943.87, 0.0840610
2945.54, 0.0842350
2947.22, 0.0844670
2948.89, 0.0847560
2950.57, 0.0848720
2952.25, 0.0848720
2953.93, 0.0849880
2955.62, 0.0851620
2957.3, 0.0852780
2958.99, 0.0854510
2960.68, 0.0855670
2962.37, 0.0856830
2964.07, 0.0857410
2965.76, 0.0856830
2967.46, 0.0857410
2969.16, 0.0857410
2970.86, 0.0859150
2972.56, 0.0861470
2974.27, 0.0861470
2975.98, 0.0861470
2977.69, 0.0861470
2979.4, 0.0862620
2981.11, 0.0863780
2982.83, 0.0863780
2984.54, 0.0863200
2986.26, 0.0864940
2987.98, 0.0865520
2989.71, 0.0864940
2991.43, 0.0866100
2993.16, 0.0867260
2994.89, 0.0868420
2996.62, 0.0869000
2998.35, 0.0869580
3000.09, 0.0870740
3001.83, 0.0870740
3003.57, 0.0871890
3005.31, 0.0873050
3007.05, 0.0873630
3008.79, 0.0875370
3010.54, 0.0876530
3012.29, 0.0877690
3014.04, 0.0878270
3015.8, 0.0879430
3017.55, 0.0880580
3019.31, 0.0882900
3021.07, 0.0884640
3022.83, 0.0886960
3024.59, 0.0888120
3026.36, 0.0889850
3028.13, 0.0891010
3029.9, 0.0893330
3031.67, 0.0895650
3033.44, 0.0897380
3035.22, 0.0898540
3037.0, 0.0901440
3038.78, 0.0903760
3040.56, 0.0906650
3042.34, 0.0910710
3044.13, 0.0911870
3045.92, 0.0914190
3047.71, 0.0915920
3049.5, 0.0918240
3051.3, 0.0923450
3053.09, 0.0928090
3054.89, 0.0933300
3056.69, 0.0937940
3058.5, 0.0941990
3060.3, 0.0944890
3062.11, 0.0949520
3063.92, 0.0956480
3065.73, 0.0963430
3067.55, 0.0970960
3069.36, 0.0977910
3071.18, 0.0983130
3073.0, 0.0988920
3074.82, 0.0995870
3076.65, 0.100282
3078.48, 0.100920
3080.31, 0.101673
3082.14, 0.102426
3083.97, 0.103121
3085.8, 0.103816
3087.64, 0.104511
3089.48, 0.105207
3091.33, 0.105960
3093.17, 0.106655
3095.02, 0.107466
3096.87, 0.108335
3098.72, 0.109204
3100.57, 0.110073
3102.43, 0.110942
3104.28, 0.111579
3106.14, 0.112390
3108.01, 0.113259
3109.87, 0.114070
3111.74, 0.114881
3113.61, 0.115808
3115.48, 0.116793
3117.35, 0.117720
3119.23, 0.118531
3121.1, 0.119516
3122.98, 0.120675
3124.87, 0.121776
3126.75, 0.122702
3128.64, 0.123687
3130.53, 0.124788
3132.42, 0.126063
3134.31, 0.127221
3136.21, 0.128206
3138.11, 0.129307
3140.01, 0.130523
3141.91, 0.131740
3143.82, 0.132841
3145.73, 0.133999
3147.64, 0.135158
3149.55, 0.136317
3151.46, 0.137649
3153.38, 0.138692
3155.3, 0.139967
3157.22, 0.141125
3159.14, 0.142284
3161.07, 0.143442
3163.0, 0.144659
3164.93, 0.145934
3166.86, 0.147382
3168.8, 0.148772
3170.74, 0.149989
3172.68, 0.151321
3174.62, 0.152712
3176.56, 0.153986
3178.51, 0.155203
3180.46, 0.156477
3182.42, 0.157868
3184.37, 0.159316
3186.33, 0.160591
3188.29, 0.161807
3190.25, 0.163140
3192.21, 0.164472
3194.18, 0.165921
3196.15, 0.167427
3198.12, 0.168875
3200.09, 0.170266
3202.07, 0.171714
3204.05, 0.173104
3206.03, 0.174495
3208.02, 0.175827
3210.0, 0.177160
3211.99, 0.178608
3213.98, 0.180114
3215.98, 0.181447
3217.97, 0.182779
3219.97, 0.184227
3221.97, 0.185560
3223.98, 0.186661
3225.98, 0.187761
3227.99, 0.189094
3230.0, 0.190484
3232.02, 0.191933
3234.03, 0.193323
3236.05, 0.194655
3238.07, 0.195988
3240.1, 0.197262
3242.12, 0.198537
3244.15, 0.199811
3246.18, 0.201202
3248.22, 0.202824
3250.25, 0.204736
3252.29, 0.206763
3254.33, 0.208849
3256.38, 0.210819
3258.43, 0.212673
3260.47, 0.214526
3262.53, 0.216264
3264.58, 0.217945
3266.64, 0.219683
3268.7, 0.221189
3270.76, 0.222869
3272.82, 0.224607
3274.89, 0.226403
3276.96, 0.228025
3279.04, 0.229879
3281.11, 0.231617
3283.19, 0.233065
3285.27, 0.234687
3287.35, 0.236309
3289.44, 0.237989
3291.53, 0.239669
3293.62, 0.241292
3295.71, 0.242856
3297.81, 0.244362
3299.91, 0.245984
3302.01, 0.247664
3304.11, 0.249286
3306.22, 0.251082
3308.33, 0.252936
3310.44, 0.254732
3312.56, 0.256586
3314.68, 0.258150
3316.8, 0.259598
3318.92, 0.261163
3321.05, 0.262611
3323.18, 0.264175
3325.31, 0.265681
3327.44, 0.267072
3329.58, 0.268520
3331.72, 0.270084
3333.86, 0.271591
3336.01, 0.273155
3338.16, 0.274835
3340.31, 0.276515
3342.46, 0.278137
3344.61, 0.279643
3346.77, 0.281323
3348.94, 0.282830
3351.1, 0.284220
3353.27, 0.285668
3355.44, 0.287291
3357.61, 0.288797
3359.79, 0.290013
3361.97, 0.291288
3364.15, 0.292562
3366.33, 0.293779
3368.52, 0.294822
3370.71, 0.295923
3372.9, 0.297255
3375.1, 0.298703
3377.3, 0.300325
3379.5, 0.302006
3381.71, 0.303801
3383.91, 0.305771
3386.12, 0.307799
3388.34, 0.309595
3390.55, 0.311043
3392.77, 0.312376
3394.99, 0.313476
3397.22, 0.314519
3399.45, 0.315504
3401.68, 0.316431
3403.91, 0.317416
3406.15, 0.318227
3408.39, 0.319038
3410.63, 0.320081
3412.87, 0.321066
3415.12, 0.322224
3417.37, 0.323673
3419.63, 0.325353
3421.88, 0.327264
3424.14, 0.329524
3426.41, 0.331667
3428.67, 0.333521
3430.94, 0.335665
3433.21, 0.338330
3435.49, 0.341110
3437.77, 0.343717
3440.05, 0.345919
3442.33, 0.347889
3444.62, 0.349742
3446.91, 0.351654
3449.2, 0.353392
3451.5, 0.354956
3453.8, 0.356694
3456.1, 0.358375
3458.41, 0.359939
3460.72, 0.361503
3463.03, 0.362835
3465.34, 0.364052
3467.66, 0.365095
3469.98, 0.366022
3472.31, 0.366949
3474.63, 0.368107
3476.96, 0.369556
3479.3, 0.371178
3481.64, 0.372626
3483.97, 0.373901
3486.32, 0.375059
3488.66, 0.376044
3491.01, 0.376913
3493.36, 0.377666
3495.72, 0.378361
3498.08, 0.379173
3500.44, 0.380099
3502.81, 0.381258
3505.18, 0.382706
3507.55, 0.384560
3509.92, 0.387051
3512.3, 0.390006
3514.68, 0.392729
3517.06, 0.395046
3519.45, 0.397074
3521.84, 0.398986
3524.24, 0.400782
3526.64, 0.402288
3529.04, 0.403736
3531.44, 0.405300
3533.85, 0.406691
3536.26, 0.408023
3538.67, 0.409414
3541.09, 0.410804
3543.51, 0.412136
3545.93, 0.413527
3548.36, 0.414801
3550.79, 0.416076
3553.22, 0.417293
3555.66, 0.418451
3558.1, 0.419494
3560.54, 0.420595
3562.99, 0.421695
3565.44, 0.422796
3567.9, 0.423955
3570.35, 0.425056
3572.81, 0.426214
3575.28, 0.427257
3577.75, 0.428242
3580.22, 0.429169
3582.69, 0.430212
3585.17, 0.431428
3587.65, 0.432471
3590.14, 0.433514
3592.62, 0.434499
3595.11, 0.435426
3597.61, 0.436295
3600.11, 0.437222
3602.61, 0.438091
3605.11, 0.439017
3607.62, 0.439944
3610.14, 0.440755
3612.65, 0.441509
3615.17, 0.442493
3617.69, 0.443189
3620.22, 0.444000
3622.75, 0.444869
3625.28, 0.445622
3627.82, 0.446375
3630.36, 0.446954
3632.9, 0.447592
3635.45, 0.448403
3638.0, 0.449040
3640.56, 0.449677
3643.12, 0.450314
3645.68, 0.450894
3648.24, 0.451473
3650.81, 0.452052
3653.39, 0.452574
3655.96, 0.453269
3658.54, 0.454022
3661.13, 0.454717
3663.71, 0.455355
3666.3, 0.455934
3668.9, 0.456166
3671.5, 0.456687
3674.1, 0.457324
3676.7, 0.457962
3679.31, 0.458599
3681.93, 0.459236
3684.54, 0.459815
3687.17, 0.460395
3689.79, 0.461032
3692.42, 0.461496
3695.05, 0.462075
3697.69, 0.462596
3700.32, 0.463118
3702.97, 0.463697
3705.61, 0.464160
3708.27, 0.464624
3710.92, 0.465145
3713.58, 0.465493
3716.24, 0.465898
3718.91, 0.466362
3721.58, 0.466594
3724.25, 0.466883
3726.93, 0.467115
3729.61, 0.467289
3732.29, 0.467289
3734.98, 0.467231
3737.67, 0.467057
3740.37, 0.466941
3743.07, 0.466710
3745.78, 0.466594
3748.49, 0.466420
3751.2, 0.466014
3753.91, 0.465493
3756.63, 0.464972
3759.36, 0.464508
3762.09, 0.463871
3764.82, 0.463060
3767.55, 0.462654
3770.29, 0.462307
3773.04, 0.461959
3775.78, 0.461611
3778.54, 0.461438
3781.29, 0.461611
3784.05, 0.461901
3786.82, 0.462133
3789.59, 0.462538
3792.36, 0.462886
3795.13, 0.463002
3797.92, 0.462944
3800.7, 0.462886
3803.49, 0.462770
3806.28, 0.463002
3809.08, 0.463755
3811.88, 0.464682
3814.68, 0.465493
3817.49, 0.466130
3820.31, 0.466594
3823.12, 0.466767
3825.94, 0.466594
3828.77, 0.466188
3831.6, 0.465841
3834.43, 0.465551
3837.27, 0.465435
3840.11, 0.465319
3842.96, 0.465203
3845.81, 0.465261
3848.67, 0.465319
3851.53, 0.465145
3854.39, 0.465377
3857.26, 0.466072
3860.13, 0.467057
3863.01, 0.468042
3865.89, 0.468853
3868.77, 0.469548
3871.66, 0.469954
3874.55, 0.470186
3877.45, 0.470417
3880.35, 0.470533
3883.26, 0.470707
3886.17, 0.470765
3889.09, 0.470707
3892.01, 0.470649
3894.93, 0.470649
3897.86, 0.470707
3900.79, 0.470823
3903.73, 0.470997
3906.67, 0.470997
3909.62, 0.470939
3912.57, 0.470765
3915.52, 0.470591
3918.48, 0.470359
3921.45, 0.470070
3924.42, 0.469722
3927.39, 0.469317
3930.37, 0.468969
3933.35, 0.468737
3936.34, 0.468505
3939.33, 0.467868
3942.32, 0.466536
3945.32, 0.464798
3948.33, 0.463639
3951.34, 0.463813
3954.35, 0.464450
3957.37, 0.464624
3960.39, 0.464392
3963.42, 0.464218
3966.45, 0.463987
3969.49, 0.463639
3972.53, 0.463176
3975.58, 0.462654
3978.63, 0.462249
3981.68, 0.461959
3984.75, 0.461496
3987.81, 0.461032
3990.88, 0.460684
3993.95, 0.460395
3997.03, 0.460221
4000.12, 0.459931
4003.21, 0.459526
4006.3, 0.459120
4009.4, 0.458715
4012.5, 0.458309
4015.61, 0.457672
4018.72, 0.456919
4021.84, 0.455644
4024.96, 0.454138
4028.09, 0.453211
4031.22, 0.452863
4034.36, 0.452284
4037.5, 0.451357
4040.65, 0.450314
4043.8, 0.449098
4046.96, 0.447997
4050.12, 0.447070
4053.29, 0.446201
4056.46, 0.445100
4059.64, 0.443652
4062.82, 0.441740
4066.0, 0.439423
4069.19, 0.437222
4072.39, 0.435947
4075.59, 0.435657
4078.8, 0.435136
4082.01, 0.434151
4085.23, 0.432645
4088.45, 0.431081
4091.68, 0.429922
4094.91, 0.429111
4098.15, 0.428184
4101.39, 0.426967
4104.63, 0.425635
4107.89, 0.424187
4111.14, 0.422854
4114.41, 0.421290
4117.67, 0.419494
4120.95, 0.417814
4124.23, 0.416134
4127.51, 0.414454
4130.8, 0.412658
4134.09, 0.410862
4137.39, 0.409008
4140.7, 0.407038
4144.01, 0.405011
4147.32, 0.403099
4150.64, 0.401071
4153.97, 0.399044
4157.3, 0.396958
4160.64, 0.394814
4163.98, 0.392497
4167.33, 0.390122
4170.68, 0.387863
4174.04, 0.385603
4177.4, 0.383170
4180.77, 0.380795
4184.14, 0.378419
4187.52, 0.375986
4190.91, 0.373495
4194.3, 0.371004
4197.69, 0.368513
4201.1, 0.365964
4204.5, 0.363415
4207.92, 0.360750
4211.34, 0.357911
4214.76, 0.354783
4218.19, 0.351712
4221.62, 0.348526
4225.06, 0.345340
4228.51, 0.342095
4231.96, 0.338677
4235.42, 0.334970
4238.88, 0.330914
4242.35, 0.326569
4245.83, 0.321239
4249.31, 0.314751
4252.79, 0.306930
4256.28, 0.297603
4259.78, 0.287175
4263.29, 0.276689
4266.79, 0.267825
4270.31, 0.262321
4273.83, 0.260641
4277.35, 0.261452
4280.89, 0.261858
4284.42, 0.260004
4287.97, 0.255485
4291.52, 0.248939
4295.07, 0.241234
4298.63, 0.232949
4302.2, 0.225012
4305.78, 0.218118
4309.35, 0.212441
4312.94, 0.207980
4316.53, 0.204214
4320.13, 0.200507
4323.73, 0.196451
4327.34, 0.192106
4330.96, 0.187298
4334.58, 0.181910
4338.21, 0.176059
4341.84, 0.170381
4345.48, 0.165457
4349.12, 0.161576
4352.77, 0.159084
4356.43, 0.158042
4360.1, 0.158215
4363.76, 0.159200
4367.44, 0.160822
4371.12, 0.162966
4374.81, 0.165225
4378.51, 0.167253
4382.21, 0.168585
4385.92, 0.168933
4389.63, 0.168238
4393.35, 0.166732
4397.08, 0.164646
4400.81, 0.162329
4404.55, 0.160127
4408.29, 0.157984
4412.04, 0.156072
4415.8, 0.154218
4419.57, 0.152248
4423.34, 0.150337
4427.12, 0.148367
4430.9, 0.146397
4434.69, 0.144196
4438.49, 0.141936
4442.29, 0.140140
4446.1, 0.139387
4449.92, 0.139619
4453.74, 0.140430
4457.57, 0.141531
4461.41, 0.142400
4465.25, 0.142747
4469.1, 0.142342
4472.95, 0.141820
4476.82, 0.141820
4480.69, 0.142400
4484.56, 0.142921
4488.44, 0.143095
4492.33, 0.143037
4496.23, 0.143790
4500.13, 0.146223
4504.04, 0.150105
4507.96, 0.154218
4511.88, 0.158273
4515.81, 0.163372
4519.75, 0.170787
4523.69, 0.180230
4527.65, 0.190484
4531.6, 0.199927
4535.57, 0.207343
4539.54, 0.211977
4543.52, 0.212731
4547.5, 0.208270
4551.5, 0.197842
4555.5, 0.182142
4559.5, 0.164183
4563.52, 0.148656
4567.54, 0.137939
4571.56, 0.131508
4575.6, 0.128090
4579.64, 0.126468
4583.69, 0.126410
4587.75, 0.127337
4591.81, 0.129191
4595.88, 0.131972
4599.96, 0.135679
4604.04, 0.140140
4608.14, 0.145123
4612.24, 0.149989
4616.34, 0.153870
4620.46, 0.155840
4624.58, 0.155145
4628.71, 0.152422
4632.84, 0.148830
4636.99, 0.145354
4641.14, 0.142516
4645.3, 0.140198
4649.47, 0.138113
4653.64, 0.136201
4657.82, 0.134289
4662.01, 0.132203
4666.21, 0.130581
4670.41, 0.129712
4674.62, 0.130002
4678.84, 0.131045
4683.07, 0.132146
4687.3, 0.132377
4691.54, 0.130813
4695.79, 0.127627
4700.05, 0.123803
4704.31, 0.119342
4708.59, 0.114186
4712.87, 0.108683
4717.15, 0.102773
4721.45, 0.0961690
4725.76, 0.0895650
4730.07, 0.0835400
4734.39, 0.0787890
4738.72, 0.0764720
4743.05, 0.0762980
4747.39, 0.0765880
4751.75, 0.0765300
4756.1, 0.0762980
4760.47, 0.0761820
4764.85, 0.0755450
4769.23, 0.0735750
4773.62, 0.0718370
4778.02, 0.0735170
4782.43, 0.0804110
4786.85, 0.0913610
4791.27, 0.104859
4795.7, 0.120559
4800.14, 0.138344
4804.59, 0.156999
4809.05, 0.174553
4813.51, 0.190252
4817.99, 0.204562
4822.47, 0.217481
4826.96, 0.229068
4831.46, 0.238974
4835.96, 0.247027
4840.48, 0.253921
4845.0, 0.261510
4849.54, 0.270142
4854.08, 0.278658
4858.63, 0.286306
4863.18, 0.293316
4867.75, 0.299746
4872.33, 0.305887
4876.91, 0.311796
4881.5, 0.317416
4886.1, 0.322688
4890.71, 0.327728
4895.33, 0.332305
4899.96, 0.336534
4904.59, 0.340473
4909.24, 0.344239
4913.89, 0.347947
4918.55, 0.351365
4923.22, 0.354609
4927.9, 0.357679
4932.59, 0.360576
4937.29, 0.363473
4942.0, 0.366253
4946.71, 0.368976
4951.44, 0.371409
4956.17, 0.373553
4960.91, 0.375754
4965.67, 0.378014
4970.43, 0.380099
4975.2, 0.382069
4979.98, 0.383807
4984.76, 0.385545
4989.56, 0.387225
4994.37, 0.388905
4999.18, 0.390643
5004.01, 0.392439
5008.84, 0.394235
5013.69, 0.395857
5018.54, 0.397016
5023.4, 0.398580
5028.28, 0.400144
5033.16, 0.401477
5038.05, 0.402693
5042.95, 0.403852
5047.86, 0.405069
5052.78, 0.406227
5057.71, 0.407096
5062.65, 0.407907
5067.6, 0.408776
5072.56, 0.409819
5077.53, 0.410572
5082.5, 0.411152
5087.49, 0.412021
5092.49, 0.413237
5097.5, 0.414164
5102.51, 0.414859
5107.54, 0.415497
5112.58, 0.416481
5117.62, 0.417350
5122.68, 0.418046
5127.75, 0.418451
5132.82, 0.419204
5137.91, 0.420363
5143.01, 0.421232
5148.12, 0.421753
5153.23, 0.422970
5158.36, 0.423955
5163.5, 0.424650
5168.65, 0.425056
5173.81, 0.425287
5178.98, 0.425519
5184.15, 0.425809
5189.34, 0.425925
5194.54, 0.425867
5199.75, 0.425519
5204.98, 0.425751
5210.21, 0.425056
5215.45, 0.424824
5220.7, 0.425867
5225.96, 0.426272
5231.23, 0.425983
5236.52, 0.425635
5241.81, 0.425751
5247.12, 0.425751
5252.44, 0.425577
5257.76, 0.425461
5263.1, 0.425287
5268.45, 0.424882
5273.81, 0.424245
5279.18, 0.424013
5284.56, 0.423665
5289.95, 0.422680
5295.36, 0.422449
5300.77, 0.422622
5306.2, 0.422217
5311.63, 0.421811
5317.08, 0.421290
5322.54, 0.420711
5328.01, 0.419957
5333.49, 0.419378
5338.98, 0.418683
5344.49, 0.416887
5350.0, 0.414686
5355.53, 0.414801
5361.07, 0.415149
5366.62, 0.414686
5372.18, 0.413701
5377.75, 0.412658
5383.34, 0.411441
5388.93, 0.410283
5394.54, 0.408603
5400.16, 0.406459
5405.79, 0.403562
5411.44, 0.400260
5417.09, 0.395626
5422.76, 0.391512
5428.43, 0.391396
5434.12, 0.390759
5439.83, 0.388384
5445.54, 0.385835
5451.26, 0.382880
5457.0, 0.378477
5462.75, 0.372742
5468.52, 0.368860
5474.29, 0.365442
5480.08, 0.362024
5485.88, 0.360750
5491.69, 0.359533
5497.51, 0.358259
5503.35, 0.357332
5509.2, 0.356926
5515.06, 0.356173
5520.93, 0.355130
5526.82, 0.354725
5532.71, 0.354319
5538.63, 0.353392
5544.55, 0.351712
5550.49, 0.349337
5556.44, 0.347773
5562.4, 0.347078
5568.37, 0.345629
5574.36, 0.342385
5580.36, 0.340183
5586.37, 0.341053
5592.4, 0.340879
5598.44, 0.338851
5604.49, 0.336881
5610.56, 0.334970
5616.63, 0.332073
5622.73, 0.329408
5628.83, 0.325990
5634.95, 0.320892
5641.08, 0.314635
5647.23, 0.312202
5653.39, 0.309827
5659.56, 0.307220
5665.74, 0.304555
5671.94, 0.299399
5678.15, 0.295575
5684.38, 0.293547
5690.62, 0.289376
5696.87, 0.285089
5703.14, 0.279759
5709.42, 0.273792
5715.72, 0.271591
5722.03, 0.271707
5728.35, 0.271938
5734.69, 0.271185
5741.03, 0.269389
5747.4, 0.266898
5753.78, 0.265855
5760.17, 0.261858
5766.58, 0.256296
5773.0, 0.256470
5779.44, 0.255775
5785.88, 0.253689
5792.35, 0.251546
5798.83, 0.248997
5805.32, 0.246390
5811.83, 0.242798
5818.35, 0.236599
5824.89, 0.232370
5831.45, 0.230111
5838.01, 0.225823
5844.59, 0.219393
5851.19, 0.212673
5857.8, 0.205894
5864.43, 0.200623
5871.07, 0.197842
5877.73, 0.190716
5884.4, 0.183416
5891.09, 0.176986
5897.79, 0.168991
5904.5, 0.164183
5911.23, 0.158042
5917.98, 0.151090
5924.75, 0.144427
5931.53, 0.135390
5938.32, 0.128090
5945.13, 0.126700
5951.96, 0.127105
5958.8, 0.130350
5965.65, 0.132783
5972.53, 0.136143
5979.42, 0.139155
5986.32, 0.140082
5993.24, 0.141183
6000.18, 0.142921
6007.13, 0.142921
6014.1, 0.142284
6021.08, 0.142400
6028.09, 0.141878
6035.1, 0.140140
6042.14, 0.135564
6049.19, 0.130581
6056.25, 0.130697
6063.34, 0.129017
6070.44, 0.123803
6077.55, 0.119053
6084.69, 0.114824
6091.84, 0.110305
6099.0, 0.107176
6106.19, 0.105322
6113.39, 0.105033
6120.61, 0.107582
6127.84, 0.109957
6135.09, 0.110421
6142.36, 0.109610
6149.65, 0.107814
6156.95, 0.104396
6164.27, 0.101151
6171.61, 0.0990080
6178.97, 0.0968640
6186.34, 0.0960530
6193.73, 0.0973860
6201.14, 0.0980810
6208.57, 0.0979650
6216.01, 0.0977330
6223.47, 0.0983130
6230.95, 0.100920
6238.45, 0.105496
6245.97, 0.110710
6253.5, 0.115171
6261.06, 0.118763
6268.63, 0.121602
6276.21, 0.123513
6283.82, 0.124788
6291.45, 0.125541
6299.1, 0.126236
6306.76, 0.126932
6314.44, 0.127916
6322.14, 0.128901
6329.86, 0.129886
6337.6, 0.129596
6345.35, 0.129654
6353.13, 0.132203
6360.92, 0.133594
6368.74, 0.133826
6376.57, 0.135274
6384.43, 0.136317
6392.3, 0.136433
6400.19, 0.135622
6408.1, 0.132435
6416.03, 0.131740
6423.98, 0.135795
6431.95, 0.139967
6439.94, 0.145007
6447.95, 0.150105
6455.98, 0.154682
6464.03, 0.158042
6472.1, 0.159548
6480.19, 0.160069
6488.31, 0.158853
6496.44, 0.158911
6504.59, 0.161518
6512.76, 0.161402
6520.95, 0.159316
6529.16, 0.158621
6537.4, 0.156999
6545.65, 0.154276
6553.92, 0.151206
6562.22, 0.148077
6570.54, 0.143558
6578.88, 0.140372
6587.23, 0.137302
6595.61, 0.134810
6604.02, 0.133941
6612.44, 0.132377
6620.89, 0.130176
6629.35, 0.126468
6637.84, 0.122818
6646.35, 0.122355
6654.88, 0.121486
6663.44, 0.118705
6672.01, 0.115171
6680.61, 0.111869
6689.23, 0.109725
6697.88, 0.107582
6706.54, 0.104511
6715.23, 0.102020
6723.94, 0.0996450
6732.67, 0.0968060
6741.42, 0.0921720
6750.2, 0.0842350
6759.0, 0.0755450
6767.82, 0.0728800
6776.67, 0.0777460
6785.54, 0.0838870
6794.44, 0.0896810
6803.35, 0.0947790
6812.29, 0.0980810
6821.26, 0.0997610
6830.24, 0.101383
6839.25, 0.103005
6848.29, 0.103353
6857.35, 0.102136
6866.43, 0.101904
6875.54, 0.103411
6884.67, 0.103700
6893.82, 0.103179
6903.0, 0.102368
6912.2, 0.101731
6921.43, 0.100978
6930.69, 0.0995290
6939.96, 0.0974440
6949.27, 0.0939100
6958.59, 0.0870740
6967.95, 0.0799480
6977.33, 0.0800640
6986.73, 0.0847560
6996.16, 0.0863200
7005.61, 0.0849300
7015.09, 0.0815120
7024.6, 0.0769350
7034.13, 0.0738650
7043.69, 0.0747340
7053.27, 0.0777460
7062.88, 0.0792530
7072.52, 0.0783840
7082.18, 0.0757770
7091.87, 0.0716050
7101.58, 0.0652910
7111.32, 0.0578170
7121.09, 0.0554420
7130.88, 0.0590340
7140.71, 0.0623940
7150.56, 0.0631470
7160.43, 0.0633790
7170.33, 0.0642480
7180.27, 0.0655220
7190.23, 0.0671450
7200.21, 0.0689980
7210.23, 0.0700990
7220.27, 0.0705630
7230.34, 0.0702730
7240.44, 0.0695780
7250.56, 0.0683030
7260.72, 0.0672020
7270.9, 0.0660440
7281.12, 0.0648850
7291.36, 0.0633790
7301.63, 0.0615830
7311.93, 0.0597870
7322.25, 0.0581070
7332.61, 0.0562530
7343.0, 0.0542830
7353.41, 0.0521400
7363.86, 0.0498800
7374.33, 0.0473890
7384.83, 0.0442030
7395.37, 0.0409010
7405.93, 0.0394520
7416.53, 0.0398580
7427.15, 0.0401480
7437.81, 0.0398000
7448.5, 0.0392210
7459.22, 0.0383520
7469.96, 0.0373090
7480.74, 0.0363820
7491.55, 0.0360340
7502.39, 0.0356290
7513.27, 0.0348180
7524.17, 0.0338330
7535.11, 0.0327320
7546.08, 0.0313420
7557.08, 0.0300670
7568.11, 0.0286190
7579.17, 0.0271710
7590.27, 0.0257800
7601.4, 0.0244480
7612.56, 0.0230570
7623.76, 0.0216670
7634.98, 0.0203920
7646.24, 0.0192340
7657.54, 0.0180170
7668.87, 0.0169160
7680.23, 0.0158740
7691.62, 0.0150050
7703.05, 0.0141360
7714.51, 0.0132670
7726.01, 0.0123980
7737.54, 0.0117600
7749.11, 0.0109490
7760.71, 0.0102540
7772.35, 0.00973300
7784.02, 0.00921100
7795.72, 0.00869000
7807.46, 0.00834200
7819.23, 0.00782100
7831.04, 0.00747300
7842.89, 0.00718400
7854.77, 0.00689400
7866.69, 0.00666200
7878.65, 0.00677800
7890.64, 0.00677800
7902.67, 0.00683600
7914.74, 0.00689400
7926.84, 0.00724200
7938.98, 0.00764700
7951.16, 0.00811100
7963.37, 0.00874800
7975.62, 0.00973300
7987.91, 0.0107180
8000.24, 0.0118760
8012.6, 0.0134400
8025.01, 0.0152360
8037.45, 0.0173800
8049.93, 0.0200450
8062.45, 0.0231730
8075.01, 0.0266490
8087.61, 0.0303570
8100.24, 0.0343540
8112.91, 0.0384680
8125.63, 0.0426970
8138.39, 0.0473890
8151.18, 0.0527190
8164.02, 0.0589180
8176.9, 0.0661020
8189.81, 0.0744440
8202.77, 0.0837130
8215.77, 0.0937940
8228.82, 0.105265
8241.9, 0.118184
8255.02, 0.132493
8268.19, 0.147845
8281.39, 0.163487
8294.65, 0.178260
8307.94, 0.190310
8321.28, 0.197436
8334.66, 0.199754
8348.08, 0.200391
8361.54, 0.201607
8375.05, 0.203577
8388.6, 0.206474
8402.2, 0.209834
8415.84, 0.213136
8429.52, 0.216264
8443.25, 0.219625
8457.02, 0.222405
8470.84, 0.222463
8484.7, 0.220030
8498.61, 0.216264
8512.57, 0.212151
8526.57, 0.208096
8540.62, 0.204446
8554.71, 0.201376
8568.85, 0.199116
8583.04, 0.197668
8597.27, 0.196857
8611.55, 0.196509
8625.88, 0.196509
8640.26, 0.196799
8654.68, 0.197204
8669.16, 0.197610
8683.68, 0.197842
8698.25, 0.198305
8712.87, 0.199174
8727.53, 0.200217
8742.25, 0.201492
8757.02, 0.202882
8771.83, 0.204330
8786.7, 0.205431
8801.62, 0.206242
8816.59, 0.206995
8831.61, 0.207343
8846.68, 0.206648
8861.8, 0.204099
8876.97, 0.199174
8892.2, 0.192396
8907.48, 0.184227
8922.81, 0.174668
8938.2, 0.164241
8953.63, 0.154566
8969.13, 0.146513
8984.67, 0.139619
9000.27, 0.133304
9015.92, 0.126874
9031.63, 0.120559
9047.39, 0.114244
9063.21, 0.107640
9079.08, 0.100514
9095.01, 0.0935620
9111.0, 0.0878850
9127.04, 0.0841190
9143.13, 0.0812220
9159.28, 0.0787310
9175.49, 0.0765880
9191.76, 0.0747340
9208.09, 0.0732280
9224.47, 0.0721850
9240.92, 0.0716630
9257.42, 0.0714900
9273.98, 0.0714320
9290.6, 0.0714900
9307.28, 0.0718950
9324.02, 0.0724160
9340.82, 0.0727060
9357.68, 0.0730540
9374.6, 0.0736910
9391.58, 0.0745020
9408.62, 0.0753710
9425.73, 0.0763560
9442.9, 0.0776300
9460.13, 0.0789630
9477.42, 0.0801220
9494.78, 0.0815120
9512.2, 0.0830180
9529.69, 0.0846400
9547.24, 0.0864360
9564.86, 0.0881740
9582.54, 0.0898540
9600.28, 0.0918240
9618.1, 0.0937360
9635.97, 0.0956480
9653.92, 0.0976750
9671.93, 0.0993550
9690.01, 0.100630
9708.16, 0.101846
9726.37, 0.102715
9744.65, 0.103121
9763.0, 0.103411
9781.43, 0.103527
9799.92, 0.103469
9818.48, 0.103353
9837.1, 0.103121
9855.8, 0.102426
9874.58, 0.101557
9893.42, 0.100398
9912.34, 0.0990080
9931.33, 0.0976170
9950.39, 0.0968060
9969.52, 0.0968060
9988.74, 0.0975020
10008.0, 0.0985440
10027.4, 0.0991820
10046.8, 0.0992390
10066.3, 0.0991820
10085.9, 0.0992390
10105.6, 0.0991240
10125.3, 0.0994130
10145.1, 0.100572
10165.0, 0.102542
10185.0, 0.104975
10205.0, 0.107582
10225.2, 0.109378
10245.4, 0.111405
10265.7, 0.116967
10286.0, 0.122702
10306.5, 0.126063
10327.0, 0.128090
10347.6, 0.129944
10368.3, 0.131798
10389.1, 0.133420
10409.9, 0.135042
10430.9, 0.137302
10451.9, 0.139445
10473.0, 0.141125
10494.2, 0.142574
10515.5, 0.143848
10536.9, 0.145180
10558.4, 0.146165
10579.9, 0.147440
10601.5, 0.149120
10623.3, 0.150568
10645.1, 0.151669
10667.0, 0.152770
10689.0, 0.153639
10711.1, 0.153928
10733.2, 0.154044
10755.5, 0.154102
10777.9, 0.154855
10800.3, 0.156246
10822.9, 0.157868
10845.5, 0.159374
10868.2, 0.160591
10891.1, 0.161634
10914.0, 0.162445
10937.0, 0.163256
10960.2, 0.164125
10983.4, 0.164530
11006.7, 0.164588
11030.1, 0.164472
11053.6, 0.164009
11077.3, 0.163545
11101.0, 0.163198
11124.8, 0.162966
11148.7, 0.162966
11172.7, 0.163082
11196.9, 0.163024
11221.1, 0.162618
11245.4, 0.161749
11269.9, 0.160591
11294.4, 0.158447
11319.1, 0.155435
11343.9, 0.152017
11368.8, 0.150452
11393.7, 0.151495
11418.8, 0.150221
11444.0, 0.147208
11469.4, 0.146803
11494.8, 0.151206
11520.3, 0.155898
11546.0, 0.158505
11571.8, 0.159838
11597.7, 0.160243
11623.7, 0.160127
11649.8, 0.159664
11676.0, 0.159548
11702.4, 0.159548
11728.9, 0.159258
11755.5, 0.158737
11782.2, 0.157752
11809.0, 0.156188
11836.0, 0.153639
11863.0, 0.151843
11890.3, 0.151553
11917.6, 0.150742
11945.0, 0.149410
11972.6, 0.147961
12000.4, 0.146629
12028.2, 0.145123
12056.2, 0.143095
12084.3, 0.140893
12112.5, 0.138518
12140.9, 0.136085
12169.4, 0.133710
12198.0, 0.131740
12226.8, 0.130002
12255.7, 0.128322
12284.7, 0.126526
12313.9, 0.124498
12343.2, 0.122123
12372.7, 0.119400
12402.3, 0.116735
12432.0, 0.114302
12461.9, 0.111869
12491.9, 0.109552
12522.1, 0.107466
12552.4, 0.105496
12582.9, 0.103527
12613.5, 0.101731
12644.3, 0.100340
12675.2, 0.0990660
12706.3, 0.0976750
12737.5, 0.0962850
12768.9, 0.0948950
12800.4, 0.0935620
12832.1, 0.0922300
12863.9, 0.0909550
12895.9, 0.0898540
12928.1, 0.0892170
12960.4, 0.0883480
12992.9, 0.0878270
13025.5, 0.0875950
13058.3, 0.0872470
13091.3, 0.0871890
13124.4, 0.0870160
13157.8, 0.0863200
13191.2, 0.0855670
13224.9, 0.0848720
13258.7, 0.0839450
13292.7, 0.0830760
13326.9, 0.0823230
13361.2, 0.0815120
13395.7, 0.0809330
13430.4, 0.0805850
13465.3, 0.0802370
13500.4, 0.0796580
13535.7, 0.0793680
13571.1, 0.0788470
13606.7, 0.0783840
13642.5, 0.0777460
13678.5, 0.0767610
13714.7, 0.0754290
13751.1, 0.0739810
13787.6, 0.0725320
13824.4, 0.0710260
13861.4, 0.0696360
13898.5, 0.0686510
13935.9, 0.0679560
13973.5, 0.0672020
14011.2, 0.0664490
14049.2, 0.0658120
14087.4, 0.0650590
14125.8, 0.0640160
14164.3, 0.0627420
14203.2, 0.0612930
14242.2, 0.0600190
14281.4, 0.0590340
14320.9, 0.0578170
14360.5, 0.0563110
14400.4, 0.0543990
14440.5, 0.0525450
14480.9, 0.0512130
14521.4, 0.0495910
14562.2, 0.0476790
14603.3, 0.0458830
14644.5, 0.0443190
14686.0, 0.0420020
14727.7, 0.0393950
14769.7, 0.0368450
14811.9, 0.0340650
14854.3, 0.0314000
14897.0, 0.0290250
14939.9, 0.0261280
14983.1, 0.0233470
15026.5, 0.0211460
15070.2, 0.0190600
15114.2, 0.0172060
15158.3, 0.0162790
15202.8, 0.0163950
15247.5, 0.0182490
15292.5, 0.0229420
15337.7, 0.0318630
15383.2, 0.0426970
15429.0, 0.0517340
15475.1, 0.0568900
15521.4, 0.0581650
15568.0, 0.0567750
15614.9, 0.0535300
15662.1, 0.0489540
15709.6, 0.0439710
15757.3, 0.0403210
15805.4, 0.0388730
15853.7, 0.0396260
15902.3, 0.0440870
15951.2, 0.0514450
16000.5, 0.0604820
16050.0, 0.0684770
16099.8, 0.0735750
16150.0, 0.0752550
16200.5, 0.0744440
16251.3, 0.0718370
16302.4, 0.0675500
16353.8, 0.0622200
16405.5, 0.0575860
16457.6, 0.0546890
16510.0, 0.0530670
16562.8, 0.0525450
16615.9, 0.0534720
16669.3, 0.0552680
16723.1, 0.0573540
16777.2, 0.0594390
16831.7, 0.0618150
16886.5, 0.0647110
16941.7, 0.0674920
16997.2, 0.0703310
17053.1, 0.0729380
17109.4, 0.0750810
17166.1, 0.0773990
17223.1, 0.0792530
17280.5, 0.0808750
17338.3, 0.0827290
17396.5, 0.0845240
17455.1, 0.0859150
17514.0, 0.0877690
17573.4, 0.0889270
17633.2, 0.0892170
17693.4, 0.0898540
17754.0, 0.0907230
17815.0, 0.0914190
17876.4, 0.0921720
17938.3, 0.0920560
18000.5, 0.0918820
18063.3, 0.0923450
18126.4, 0.0926930
18190.0, 0.0925770
18254.1, 0.0927510
18318.6, 0.0923450
18383.5, 0.0919400
18449.0, 0.0922300
18514.9, 0.0921140
18581.2, 0.0914190
18648.0, 0.0906650
18715.4, 0.0902600
18783.2, 0.0899700
18851.5, 0.0890430
18920.3, 0.0883480
18989.6, 0.0879430
19059.4, 0.0877110
19129.7, 0.0874210
19200.6, 0.0866100
19272.0, 0.0864360
19343.9, 0.0863780
19416.3, 0.0855090
19489.3, 0.0851620
19562.8, 0.0856830
19637.0, 0.0855090
19711.6, 0.0844090
19786.8, 0.0835400
19862.6, 0.0831920
19939.0, 0.0823810
20016.0, 0.0810480
20093.6, 0.0800640
20171.8, 0.0790210
20250.6, 0.0776300
20330.0, 0.0762980
20410.0, 0.0753710
20490.7, 0.0750810
20572.0, 0.0747340
20654.0, 0.0733430
20736.6, 0.0717790
20819.9, 0.0703310
20903.8, 0.0697520
20988.5, 0.0683610
21073.8, 0.0672020
21159.8, 0.0670870
21246.5, 0.0672020
21334.0, 0.0667390
21422.1, 0.0660440
21511.0, 0.0652330
21600.7, 0.0643060
21691.0, 0.0632630
21782.1, 0.0621040
21874.0, 0.0600190
21966.7, 0.0605980
22060.2, 0.0621620
22154.5, 0.0621040
22249.6, 0.0608880
22345.5, 0.0609460
22442.2, 0.0609700
22539.8, 0.0604970
22638.2, 0.0607340
22737.5, 0.0605560
22837.7, 0.0590170
22938.7, 0.0578330
23040.7, 0.0577740
23143.5, 0.0565310
23247.3, 0.0545180
23352.1, 0.0532160
23457.7, 0.0517360
23564.4, 0.0501970
23672.0, 0.0488360
23780.5, 0.0475920
23890.1, 0.0457570
24000.7, 0.0438040
24112.3, 0.0437450
24225.0, 0.0448690
24338.7, 0.0424420
24453.5, 0.0400750
24569.4, 0.0392460
24686.4, 0.0379440
24804.5, 0.0361090
24923.8, 0.0345700
25044.2, 0.0330900
25165.8, 0.0338000
25288.6, 0.0331490
25412.5, 0.0317870
25537.7, 0.0303670
25664.1, 0.0278810
25791.8, 0.0260460
25920.8, 0.0247430
26051.1, 0.0242110
26182.6, 0.0228490
26315.5, 0.0220800
26449.8, 0.0218430
26585.4, 0.0213690
26722.5, 0.0206590
26860.9, 0.0197710
27000.8, 0.0181730
27142.1, 0.0172850
27285.0, 0.0167520
27429.4, 0.0161010
27575.3, 0.0155680
27722.7, 0.0149760
27871.8, 0.0135560
28022.4, 0.0123120
28174.7, 0.0118980
28328.7, 0.0110690
28484.4, 0.0110100
28641.7, 0.0104180
28800.9, 0.00929400
28961.8, 0.00941200
29124.5, 0.00941200
29289.0, 0.00828700
29455.4, 0.00822800
29623.8, 0.00793200
29794.0, 0.00745900
29966.3, 0.00716300
30140.5, 0.00615600
30316.7, 0.00562300
30495.1, 0.00627500
30675.5, 0.00639300
30858.1, 0.00615600
31042.8, 0.00603800
31229.8, 0.00674800
31419.1, 0.00692600
31610.7, 0.00686700
31804.6, 0.00728100
32000.9, 0.00811000
32199.7, 0.00935300
32400.9, 0.0110690
32604.8, 0.0139110
32811.1, 0.0169300
33020.1, 0.0200080
33231.8, 0.0242110
33446.2, 0.0295380
33663.4, 0.0351620
33883.4, 0.0408440
34106.3, 0.0454610
34332.1, 0.0491310
34561.0, 0.0523870
34792.9, 0.0553470
35028.0, 0.0582470
35266.3, 0.0602600
35507.8, 0.0619180
35752.7, 0.0647590
36001.0, 0.0668900
36252.8, 0.0682510
36508.1, 0.0701460
36767.0, 0.0732240
37029.7, 0.0763020
37296.1, 0.0789060
37566.3, 0.0812740
37840.5, 0.0840560
38118.8, 0.0866020
38401.2, 0.0900940
38687.8, 0.0932310
38978.6, 0.0967830
39273.9, 0.0991510
39573.7, 0.101933
39878.1, 0.106846
40187.3, 0.109806
40501.2, 0.112706
40820.0, 0.116672
41144.0, 0.119455
41473.2, 0.121408
41807.6, 0.122888
42147.5, 0.122237
42493.0, 0.121882
42844.2, 0.122118
43201.2, 0.121882
43564.3, 0.120639
43933.5, 0.119099
44309.0, 0.119277
44691.0, 0.117975
45079.6, 0.115015
45475.0, 0.113476
45877.5, 0.111463
46287.1, 0.107734
46704.2, 0.104538
47128.7, 0.102288
47561.1, 0.0999800
48001.5, 0.0980850
48450.1, 0.101815
48907.2, 0.107438
49373.0, 0.116732
49847.7, 0.128097
50331.5, 0.134372
50825.0, 0.138397
51328.2, 0.140824
51841.5, 0.140587
52365.1, 0.139699
52899.4, 0.137450
53444.8, 0.137272
54001.5, 0.136680
54570.1, 0.134786
55150.6, 0.132951
55743.6, 0.130524
56349.5, 0.127209
56968.7, 0.123657
57601.7, 0.116732
58248.9, 0.108563
58910.9, 0.101459
59588.1, 0.0970200
60281.0, 0.0909230
60990.2, 0.0840560
61716.3, 0.0797940
62459.8, 0.0767750
63221.6, 0.0700270
64002.1, 0.0649960
64802.1, 0.0644630
65622.1, 0.0707370
66463.4, 0.0838790
67326.6, 0.0986770
68212.4, 0.108267
69121.9, 0.113772
70056.0, 0.116909
71015.7, 0.115193
72002.0, 0.110990
73016.3, 0.109806
74059.4, 0.106905
75132.7, 0.101815
76237.6, 0.0992100
77375.5, 0.0976710
78547.9, 0.0928170
79756.3, 0.0892650
81002.5, 0.0871340
82288.5, 0.0872530
83615.7, 0.0892060
84986.5, 0.0891470
86402.9, 0.0871940
87867.4, 0.0848850
89382.4, 0.0827540
90950.5, 0.0883180
92574.6, 0.0893250
94257.2, 0.0787880
96002.7, 0.0787290
97814.1, 0.0840560
99695.1, 0.0827540
101650.0, 0.0824580
103683.0, 0.0809190
105799.0, 0.0797350
108003.0, 0.0824580
110301.0, 0.0830500
112699.0, 0.0803270
115204.0, 0.0792620
117822.0, 0.0797350
120562.0, 0.0809780
123433.0, 0.0800900
126443.0, 0.0787290
129604.0, 0.0841750
132926.0, 0.0926390
136424.0, 0.0964870
140111.0, 0.0961320
144003.0, 0.0913960
148118.0, 0.0812740
152474.0, 0.0867790
157095.0, 0.0969010
162004.0, 0.0936460
167231.0, 0.0938230
172805.0, 0.0976710
178764.0, 0.0932910
185148.0, 0.0883770
192005.0, 0.0804450
199390.0, 0.100453
207366.0, 0.110161
216006.0, 0.0872530
