Database of Origin, USGS Spectral Database
Sample Description, See USGS database for additional info
Date Added,2016-08-10 02:57:31.431225

Data ID,USGS_hor04          
Sample ID, hornblende_hs16.9969
Mineral Name, hornblende
Material Class,Inosilicate

Wavelength
1607.49, 0.199362
1607.99, 0.200279
1608.49, 0.200049
1608.99, 0.199897
1609.49, 0.200584
1609.99, 0.201196
1610.49, 0.201578
1610.99, 0.202189
1611.49, 0.202800
1611.99, 0.203564
1612.49, 0.203488
1612.99, 0.204252
1613.49, 0.204940
1614.0, 0.205398
1614.5, 0.205627
1615.0, 0.206086
1615.51, 0.205933
1616.01, 0.206468
1616.51, 0.207156
1617.02, 0.207461
1617.52, 0.207614
1618.03, 0.208073
1618.53, 0.208378
1619.04, 0.208837
1619.54, 0.208760
1620.05, 0.208837
1620.55, 0.209142
1621.06, 0.209830
1621.57, 0.210976
1622.08, 0.211893
1622.58, 0.212123
1623.09, 0.212352
1623.6, 0.212734
1624.11, 0.213116
1624.62, 0.213192
1625.13, 0.213574
1625.64, 0.214262
1626.15, 0.214873
1626.66, 0.214568
1627.17, 0.215179
1627.68, 0.215561
1628.19, 0.215638
1628.7, 0.215867
1629.21, 0.216937
1629.72, 0.217548
1630.24, 0.218236
1630.75, 0.218236
1631.26, 0.218465
1631.78, 0.218771
1632.29, 0.219382
1632.8, 0.219535
1633.32, 0.219764
1633.83, 0.220222
1634.35, 0.220987
1634.86, 0.221598
1635.38, 0.222438
1635.9, 0.222438
1636.41, 0.222438
1636.93, 0.222286
1637.45, 0.223050
1637.96, 0.223661
1638.48, 0.224272
1639.0, 0.224578
1639.52, 0.224731
1640.04, 0.225113
1640.56, 0.225648
1641.08, 0.226106
1641.59, 0.226717
1642.11, 0.226412
1642.63, 0.227023
1643.16, 0.227100
1643.68, 0.227252
1644.2, 0.227864
1644.72, 0.228475
1645.24, 0.228857
1645.76, 0.229086
1646.29, 0.229468
1646.81, 0.230309
1647.33, 0.230385
1647.86, 0.230920
1648.38, 0.231990
1648.9, 0.232525
1649.43, 0.232219
1649.95, 0.232525
1650.48, 0.233213
1651.0, 0.233442
1651.53, 0.233824
1652.06, 0.234130
1652.58, 0.234282
1653.11, 0.234894
1653.64, 0.235123
1654.17, 0.235352
1654.69, 0.236269
1655.22, 0.236804
1655.75, 0.237110
1656.28, 0.237721
1656.81, 0.237950
1657.34, 0.237874
1657.87, 0.237568
1658.4, 0.238103
1658.93, 0.238638
1659.46, 0.239402
1659.99, 0.239861
1660.52, 0.240166
1661.05, 0.240701
1661.59, 0.240777
1662.12, 0.241160
1662.65, 0.241924
1663.19, 0.241771
1663.72, 0.242306
1664.26, 0.242841
1664.79, 0.243299
1665.32, 0.243834
1665.86, 0.244216
1666.39, 0.244292
1666.93, 0.244980
1667.47, 0.245515
1668.0, 0.245668
1668.54, 0.245897
1669.08, 0.246585
1669.61, 0.246891
1670.15, 0.247196
1670.69, 0.247273
1671.23, 0.247349
1671.77, 0.248037
1672.31, 0.248877
1672.85, 0.249030
1673.39, 0.249336
1673.93, 0.249718
1674.47, 0.250023
1675.01, 0.249947
1675.55, 0.250329
1676.09, 0.250558
1676.64, 0.250635
1677.18, 0.251017
1677.72, 0.252239
1678.26, 0.252622
1678.81, 0.253004
1679.35, 0.253309
1679.89, 0.253615
1680.44, 0.253462
1680.98, 0.253462
1681.53, 0.253997
1682.07, 0.254761
1682.62, 0.254990
1683.17, 0.255449
1683.71, 0.255907
1684.26, 0.256060
1684.81, 0.256366
1685.36, 0.256748
1685.9, 0.256671
1686.45, 0.257130
1687.0, 0.257359
1687.55, 0.258200
1688.1, 0.258658
1688.65, 0.259040
1689.2, 0.259040
1689.75, 0.259499
1690.3, 0.260263
1690.85, 0.260798
1691.41, 0.260645
1691.96, 0.261103
1692.51, 0.261333
1693.06, 0.261562
1693.61, 0.261638
1694.17, 0.261791
1694.72, 0.261867
1695.28, 0.262555
1695.83, 0.263167
1696.39, 0.263396
1696.94, 0.263778
1697.5, 0.264160
1698.05, 0.264313
1698.61, 0.264618
1699.17, 0.265000
1699.72, 0.265230
1700.28, 0.265306
1700.84, 0.265841
1701.4, 0.266605
1701.95, 0.267140
1702.51, 0.267140
1703.07, 0.267598
1703.63, 0.267598
1704.19, 0.267446
1704.75, 0.267828
1705.31, 0.268592
1705.88, 0.268363
1706.44, 0.268821
1707.0, 0.269280
1707.56, 0.269585
1708.12, 0.269738
1708.69, 0.270426
1709.25, 0.270961
1709.81, 0.271496
1710.38, 0.272030
1710.94, 0.272030
1711.51, 0.272336
1712.07, 0.272565
1712.64, 0.272642
1713.2, 0.273100
1713.77, 0.273329
1714.34, 0.273788
1714.9, 0.274246
1715.47, 0.274476
1716.04, 0.274476
1716.61, 0.274323
1717.18, 0.274399
1717.74, 0.275469
1718.31, 0.276233
1718.88, 0.276462
1719.45, 0.276692
1720.02, 0.277532
1720.59, 0.277532
1721.17, 0.277609
1721.74, 0.277914
1722.31, 0.278449
1722.88, 0.278449
1723.45, 0.278678
1724.03, 0.279442
1724.6, 0.279672
1725.18, 0.279748
1725.75, 0.279977
1726.33, 0.280130
1726.9, 0.280665
1727.48, 0.280971
1728.05, 0.281429
1728.63, 0.281658
1729.2, 0.281888
1729.78, 0.281964
1730.36, 0.282270
1730.94, 0.282117
1731.51, 0.282881
1732.09, 0.283110
1732.67, 0.283492
1733.25, 0.284104
1733.83, 0.284715
1734.41, 0.285021
1734.99, 0.285632
1735.57, 0.285479
1736.15, 0.285632
1736.73, 0.285938
1737.32, 0.286549
1737.9, 0.287007
1738.48, 0.287619
1739.07, 0.287771
1739.65, 0.287848
1740.23, 0.288001
1740.82, 0.288459
1741.4, 0.288841
1741.99, 0.289300
1742.57, 0.289376
1743.16, 0.290217
1743.74, 0.290370
1744.33, 0.290752
1744.92, 0.291210
1745.51, 0.291363
1746.09, 0.291134
1746.68, 0.291669
1747.27, 0.291974
1747.86, 0.291821
1748.45, 0.292051
1749.04, 0.292586
1749.63, 0.292738
1750.22, 0.293503
1750.81, 0.294190
1751.4, 0.294878
1751.99, 0.294954
1752.59, 0.295107
1753.18, 0.295642
1753.77, 0.296253
1754.37, 0.296330
1754.96, 0.296406
1755.56, 0.296559
1756.15, 0.296788
1756.74, 0.296788
1757.34, 0.297017
1757.94, 0.297094
1758.53, 0.297705
1759.13, 0.298164
1759.73, 0.298622
1760.32, 0.298546
1760.92, 0.299157
1761.52, 0.299463
1762.12, 0.299692
1762.72, 0.299845
1763.32, 0.300303
1763.92, 0.300915
1764.52, 0.301297
1765.12, 0.301373
1765.72, 0.301602
1766.32, 0.301908
1766.92, 0.302214
1767.53, 0.302290
1768.13, 0.302672
1768.73, 0.303207
1769.34, 0.303818
1769.94, 0.304047
1770.55, 0.304047
1771.15, 0.303818
1771.76, 0.304506
1772.36, 0.304888
1772.97, 0.305347
1773.57, 0.305499
1774.18, 0.305652
1774.79, 0.305729
1775.4, 0.305729
1776.0, 0.306187
1776.61, 0.306798
1777.22, 0.307028
1777.83, 0.307715
1778.44, 0.307868
1779.05, 0.308021
1779.66, 0.308021
1780.27, 0.308403
1780.88, 0.308632
1781.5, 0.309167
1782.11, 0.309167
1782.72, 0.309473
1783.33, 0.309778
1783.95, 0.310161
1784.56, 0.310161
1785.18, 0.310390
1785.79, 0.310543
1786.41, 0.310925
1787.02, 0.311307
1787.64, 0.311918
1788.26, 0.311689
1788.87, 0.311994
1789.49, 0.312224
1790.11, 0.312606
1790.73, 0.312759
1791.35, 0.313293
1791.96, 0.313599
1792.58, 0.313905
1793.21, 0.314440
1793.83, 0.314669
1794.45, 0.314592
1795.07, 0.315204
1795.69, 0.315815
1796.31, 0.316044
1796.93, 0.316121
1797.56, 0.316121
1798.18, 0.316579
1798.8, 0.317038
1799.43, 0.316885
1800.05, 0.317191
1800.68, 0.317496
1801.3, 0.317955
1801.93, 0.318260
1802.56, 0.318413
1803.18, 0.318566
1803.81, 0.318948
1804.44, 0.319024
1805.07, 0.319024
1805.7, 0.319407
1806.33, 0.320171
1806.95, 0.320629
1807.58, 0.320553
1808.22, 0.320706
1808.85, 0.321088
1809.48, 0.321546
1810.11, 0.321775
1810.74, 0.321852
1811.38, 0.322081
1812.01, 0.322157
1812.64, 0.322463
1813.28, 0.322769
1813.91, 0.323456
1814.55, 0.323838
1815.18, 0.323991
1815.82, 0.324144
1816.45, 0.324373
1817.09, 0.324832
1817.73, 0.325290
1818.36, 0.325672
1819.0, 0.326054
1819.64, 0.325978
1820.28, 0.325978
1820.92, 0.326054
1821.56, 0.326284
1822.2, 0.326742
1822.84, 0.327353
1823.48, 0.327812
1824.12, 0.328041
1824.76, 0.327888
1825.41, 0.327965
1826.05, 0.328118
1826.69, 0.328729
1827.34, 0.329264
1827.98, 0.329340
1828.63, 0.329340
1829.27, 0.329799
1829.92, 0.330104
1830.56, 0.330181
1831.21, 0.330257
1831.86, 0.330868
1832.5, 0.331021
1833.15, 0.331556
1833.8, 0.332015
1834.45, 0.332244
1835.1, 0.332091
1835.75, 0.331862
1836.4, 0.332167
1837.05, 0.332779
1837.7, 0.332932
1838.35, 0.333467
1839.01, 0.333467
1839.66, 0.333543
1840.31, 0.334001
1840.96, 0.334154
1841.62, 0.334383
1842.27, 0.335148
1842.93, 0.335377
1843.58, 0.335682
1844.24, 0.335759
1844.9, 0.335682
1845.55, 0.335912
1846.21, 0.336294
1846.87, 0.336599
1847.53, 0.337134
1848.18, 0.337134
1848.84, 0.337516
1849.5, 0.337746
1850.16, 0.338586
1850.82, 0.338815
1851.48, 0.338586
1852.14, 0.338051
1852.81, 0.338051
1853.47, 0.338128
1854.13, 0.338815
1854.8, 0.339350
1855.46, 0.339427
1856.12, 0.339503
1856.79, 0.340038
1857.45, 0.340344
1858.12, 0.340573
1858.79, 0.340649
1859.45, 0.340879
1860.12, 0.341184
1860.79, 0.341490
1861.46, 0.341719
1862.12, 0.342025
1862.79, 0.342178
1863.46, 0.342025
1864.13, 0.342254
1864.8, 0.343171
1865.48, 0.343095
1866.15, 0.343324
1866.82, 0.343477
1867.49, 0.343247
1868.16, 0.343477
1868.84, 0.343935
1869.51, 0.344164
1870.19, 0.344241
1870.86, 0.344241
1871.54, 0.345005
1872.21, 0.345081
1872.89, 0.345081
1873.56, 0.345387
1874.24, 0.345998
1874.92, 0.345845
1875.6, 0.346151
1876.28, 0.346380
1876.96, 0.346457
1877.64, 0.346915
1878.32, 0.347297
1879.0, 0.347297
1879.68, 0.347756
1880.36, 0.347909
1881.04, 0.348138
1881.73, 0.348291
1882.41, 0.348596
1883.09, 0.348673
1883.78, 0.348902
1884.46, 0.348978
1885.15, 0.349208
1885.83, 0.349208
1886.52, 0.349513
1887.21, 0.350125
1887.89, 0.350812
1888.58, 0.350430
1889.27, 0.350125
1889.96, 0.350125
1890.65, 0.350659
1891.34, 0.350889
1892.03, 0.350889
1892.72, 0.351194
1893.41, 0.351653
1894.1, 0.351653
1894.79, 0.351882
1895.49, 0.352111
1896.18, 0.352493
1896.87, 0.352646
1897.57, 0.352646
1898.26, 0.352417
1898.96, 0.352341
1899.65, 0.352111
1900.35, 0.352646
1901.05, 0.353181
1901.74, 0.353716
1902.44, 0.353640
1903.14, 0.353792
1903.84, 0.354022
1904.54, 0.354098
1905.24, 0.354327
1905.94, 0.354480
1906.64, 0.354480
1907.34, 0.355168
1908.04, 0.355626
1908.75, 0.355779
1909.45, 0.355856
1910.15, 0.356008
1910.86, 0.356085
1911.56, 0.356390
1912.27, 0.356543
1912.97, 0.356772
1913.68, 0.357078
1914.39, 0.357460
1915.09, 0.357689
1915.8, 0.357995
1916.51, 0.358072
1917.22, 0.358224
1917.93, 0.358530
1918.64, 0.358759
1919.35, 0.358683
1920.06, 0.358836
1920.77, 0.359371
1921.48, 0.360135
1922.19, 0.360211
1922.91, 0.360135
1923.62, 0.360211
1924.33, 0.360746
1925.05, 0.361128
1925.76, 0.361204
1926.48, 0.361281
1927.19, 0.361663
1927.91, 0.361892
1928.63, 0.362121
1929.35, 0.362351
1930.07, 0.362656
1930.78, 0.362809
1931.5, 0.362886
1932.22, 0.363191
1932.94, 0.363802
1933.66, 0.364032
1934.39, 0.364261
1935.11, 0.364261
1935.83, 0.364337
1936.55, 0.364414
1937.28, 0.365025
1938.0, 0.365254
1938.73, 0.365331
1939.45, 0.365254
1940.18, 0.365560
1940.9, 0.365942
1941.63, 0.366477
1942.36, 0.366553
1943.09, 0.366783
1943.81, 0.366706
1944.54, 0.367088
1945.27, 0.367241
1946.0, 0.367317
1946.73, 0.367394
1947.47, 0.367623
1948.2, 0.367776
1948.93, 0.368234
1949.66, 0.368311
1950.4, 0.368464
1951.13, 0.368693
1951.86, 0.369151
1952.6, 0.369151
1953.34, 0.369381
1954.07, 0.369533
1954.81, 0.369533
1955.55, 0.369533
1956.29, 0.369916
1957.02, 0.370068
1957.76, 0.370221
1958.5, 0.370298
1959.24, 0.370680
1959.98, 0.370756
1960.72, 0.370603
1961.47, 0.370527
1962.21, 0.370909
1962.95, 0.371215
1963.7, 0.371520
1964.44, 0.371673
1965.18, 0.372055
1965.93, 0.372284
1966.67, 0.372590
1967.42, 0.372437
1968.17, 0.372514
1968.92, 0.372590
1969.66, 0.372972
1970.41, 0.372896
1971.16, 0.372972
1971.91, 0.373278
1972.66, 0.373507
1973.41, 0.373354
1974.16, 0.373507
1974.92, 0.373889
1975.67, 0.374271
1976.42, 0.374271
1977.18, 0.374271
1977.93, 0.374195
1978.69, 0.374577
1979.44, 0.374959
1980.2, 0.375417
1980.95, 0.375417
1981.71, 0.375417
1982.47, 0.375647
1983.23, 0.376105
1983.99, 0.376258
1984.74, 0.376411
1985.51, 0.376105
1986.27, 0.376258
1987.03, 0.376563
1987.79, 0.377022
1988.55, 0.377022
1989.32, 0.377098
1990.08, 0.377328
1990.84, 0.377786
1991.61, 0.378092
1992.37, 0.378397
1993.14, 0.378321
1993.9, 0.378321
1994.67, 0.378550
1995.44, 0.378703
1996.21, 0.378703
1996.98, 0.378627
1997.75, 0.378779
1998.52, 0.379238
1999.29, 0.379391
2000.06, 0.379773
2000.83, 0.379849
2001.6, 0.380231
2002.38, 0.380308
2003.15, 0.380461
2003.93, 0.380690
2004.7, 0.380843
2005.48, 0.380843
2006.25, 0.381072
2007.03, 0.381072
2007.81, 0.381301
2008.58, 0.381530
2009.36, 0.381836
2010.14, 0.382142
2010.92, 0.382294
2011.7, 0.382371
2012.48, 0.382447
2013.26, 0.382142
2014.05, 0.382447
2014.83, 0.382982
2015.61, 0.383364
2016.4, 0.383288
2017.18, 0.383211
2017.97, 0.383364
2018.75, 0.383899
2019.54, 0.384052
2020.32, 0.384281
2021.11, 0.384358
2021.9, 0.384510
2022.69, 0.384587
2023.48, 0.385122
2024.27, 0.385198
2025.06, 0.385045
2025.85, 0.385045
2026.64, 0.385275
2027.44, 0.385351
2028.23, 0.385657
2029.02, 0.386039
2029.82, 0.385886
2030.61, 0.385733
2031.41, 0.386344
2032.2, 0.386650
2033.0, 0.386650
2033.8, 0.386879
2034.6, 0.387108
2035.4, 0.387185
2036.2, 0.387338
2037.0, 0.387414
2037.8, 0.387567
2038.6, 0.387720
2039.4, 0.387873
2040.2, 0.387873
2041.01, 0.388178
2041.81, 0.388484
2042.61, 0.388560
2043.42, 0.388484
2044.22, 0.388713
2045.03, 0.388637
2045.84, 0.389019
2046.65, 0.389324
2047.46, 0.389324
2048.26, 0.389324
2049.07, 0.389401
2049.88, 0.389707
2050.69, 0.389783
2051.51, 0.389630
2052.32, 0.389783
2053.13, 0.390165
2053.94, 0.389936
2054.76, 0.389554
2055.57, 0.389936
2056.39, 0.390318
2057.2, 0.390394
2058.02, 0.390471
2058.84, 0.390623
2059.66, 0.390471
2060.48, 0.390623
2061.29, 0.390700
2062.11, 0.391006
2062.94, 0.391006
2063.76, 0.391235
2064.58, 0.391235
2065.4, 0.391006
2066.22, 0.391082
2067.05, 0.391311
2067.87, 0.391158
2068.7, 0.391388
2069.52, 0.391311
2070.35, 0.391464
2071.18, 0.391388
2072.0, 0.391235
2072.83, 0.391235
2073.66, 0.391388
2074.49, 0.391540
2075.32, 0.391770
2076.15, 0.391464
2076.98, 0.391693
2077.82, 0.391693
2078.65, 0.391922
2079.48, 0.391846
2080.32, 0.391693
2081.15, 0.391464
2081.99, 0.391617
2082.83, 0.391922
2083.66, 0.392152
2084.5, 0.392075
2085.34, 0.392152
2086.18, 0.392075
2087.02, 0.391999
2087.86, 0.391922
2088.7, 0.391846
2089.54, 0.391922
2090.39, 0.391999
2091.23, 0.391770
2092.07, 0.391999
2092.92, 0.392228
2093.76, 0.392228
2094.61, 0.392228
2095.45, 0.392457
2096.3, 0.392457
2097.15, 0.392381
2098.0, 0.392228
2098.85, 0.392305
2099.7, 0.392228
2100.55, 0.392228
2101.4, 0.391999
2102.25, 0.392152
2103.1, 0.392075
2103.96, 0.392075
2104.81, 0.392152
2105.67, 0.392457
2106.52, 0.392610
2107.38, 0.392534
2108.24, 0.392687
2109.09, 0.392992
2109.95, 0.392839
2110.81, 0.392839
2111.67, 0.392839
2112.53, 0.392916
2113.39, 0.393069
2114.25, 0.393221
2115.12, 0.393221
2115.98, 0.393374
2116.84, 0.393221
2117.71, 0.393145
2118.58, 0.393221
2119.44, 0.393604
2120.31, 0.393833
2121.18, 0.393909
2122.04, 0.393833
2122.91, 0.394062
2123.78, 0.394062
2124.65, 0.394444
2125.52, 0.394444
2126.4, 0.394291
2127.27, 0.394444
2128.14, 0.394826
2129.02, 0.395208
2129.89, 0.395590
2130.77, 0.395590
2131.64, 0.395743
2132.52, 0.395590
2133.4, 0.395896
2134.27, 0.396202
2135.15, 0.396354
2136.03, 0.396354
2136.91, 0.396660
2137.79, 0.396813
2138.68, 0.396966
2139.56, 0.396889
2140.44, 0.397195
2141.33, 0.397501
2142.21, 0.397883
2143.1, 0.398036
2143.99, 0.398265
2144.87, 0.398341
2145.76, 0.398570
2146.65, 0.398723
2147.54, 0.399105
2148.43, 0.399182
2149.32, 0.399029
2150.21, 0.399105
2151.1, 0.399487
2151.99, 0.399717
2152.89, 0.399946
2153.78, 0.399869
2154.68, 0.400022
2155.57, 0.400022
2156.47, 0.400328
2157.37, 0.400481
2158.27, 0.400557
2159.16, 0.400786
2160.06, 0.400939
2160.96, 0.401016
2161.86, 0.401398
2162.77, 0.401551
2163.67, 0.401551
2164.57, 0.401627
2165.48, 0.401780
2166.38, 0.401703
2167.29, 0.401856
2168.2, 0.402009
2169.1, 0.402238
2170.01, 0.402238
2170.92, 0.402315
2171.83, 0.402467
2172.74, 0.402544
2173.65, 0.402391
2174.56, 0.402467
2175.47, 0.402544
2176.39, 0.402544
2177.3, 0.402544
2178.22, 0.402620
2179.13, 0.402697
2180.05, 0.402926
2180.96, 0.403155
2181.88, 0.403384
2182.8, 0.403384
2183.72, 0.403384
2184.64, 0.403079
2185.56, 0.403079
2186.48, 0.403232
2187.41, 0.403461
2188.33, 0.403384
2189.25, 0.403537
2190.18, 0.403614
2191.1, 0.403843
2192.03, 0.403766
2192.96, 0.403766
2193.89, 0.403843
2194.82, 0.403919
2195.74, 0.403690
2196.68, 0.403537
2197.61, 0.403614
2198.54, 0.403843
2199.47, 0.403919
2200.4, 0.404149
2201.34, 0.404072
2202.28, 0.404072
2203.21, 0.403996
2204.15, 0.404072
2205.08, 0.404225
2206.02, 0.404378
2206.96, 0.404225
2207.9, 0.404531
2208.84, 0.404531
2209.78, 0.404607
2210.73, 0.404607
2211.67, 0.404760
2212.61, 0.404531
2213.56, 0.404913
2214.5, 0.404989
2215.45, 0.404989
2216.4, 0.404836
2217.35, 0.404989
2218.3, 0.405295
2219.24, 0.405448
2220.2, 0.405295
2221.15, 0.405371
2222.1, 0.405600
2223.05, 0.405753
2224.0, 0.405600
2224.96, 0.405677
2225.91, 0.405677
2226.87, 0.405830
2227.83, 0.405677
2228.79, 0.405830
2229.74, 0.405982
2230.7, 0.406059
2231.66, 0.405830
2232.63, 0.405906
2233.59, 0.406059
2234.55, 0.406212
2235.51, 0.406212
2236.48, 0.406212
2237.44, 0.406212
2238.41, 0.406365
2239.38, 0.406059
2240.34, 0.405906
2241.31, 0.405982
2242.28, 0.406212
2243.25, 0.406135
2244.22, 0.406212
2245.19, 0.405982
2246.17, 0.405830
2247.14, 0.405753
2248.12, 0.405600
2249.09, 0.405371
2250.07, 0.405524
2251.04, 0.405295
2252.02, 0.405066
2253.0, 0.404760
2253.98, 0.404989
2254.96, 0.405142
2255.94, 0.404913
2256.92, 0.404683
2257.91, 0.404760
2258.89, 0.404454
2259.88, 0.404301
2260.86, 0.404301
2261.85, 0.404378
2262.83, 0.403996
2263.82, 0.403996
2264.81, 0.404225
2265.8, 0.404301
2266.79, 0.404072
2267.78, 0.404072
2268.78, 0.403690
2269.77, 0.403537
2270.76, 0.403155
2271.76, 0.403002
2272.75, 0.402773
2273.75, 0.402620
2274.75, 0.402315
2275.75, 0.402009
2276.75, 0.401474
2277.75, 0.401016
2278.75, 0.400557
2279.75, 0.400481
2280.75, 0.400099
2281.76, 0.399411
2282.76, 0.398647
2283.77, 0.398188
2284.77, 0.397501
2285.78, 0.396966
2286.79, 0.396202
2287.8, 0.395514
2288.81, 0.394673
2289.82, 0.393756
2290.83, 0.392534
2291.84, 0.391617
2292.86, 0.390547
2293.87, 0.389554
2294.89, 0.388255
2295.91, 0.387108
2296.92, 0.385809
2297.94, 0.384587
2298.96, 0.382982
2299.98, 0.381225
2301.0, 0.379620
2302.02, 0.377939
2303.04, 0.375876
2304.07, 0.374042
2305.09, 0.371979
2306.12, 0.369839
2307.15, 0.367547
2308.17, 0.365101
2309.2, 0.362809
2310.23, 0.360822
2311.26, 0.358836
2312.29, 0.357078
2313.32, 0.355091
2314.35, 0.353410
2315.39, 0.351729
2316.42, 0.350125
2317.46, 0.348291
2318.5, 0.346915
2319.53, 0.345922
2320.57, 0.345081
2321.61, 0.344317
2322.65, 0.343782
2323.69, 0.343095
2324.73, 0.342712
2325.78, 0.342407
2326.82, 0.342254
2327.86, 0.342101
2328.91, 0.342330
2329.96, 0.342789
2331.01, 0.343324
2332.05, 0.344011
2333.1, 0.345005
2334.15, 0.345845
2335.21, 0.346839
2336.26, 0.348061
2337.31, 0.349284
2338.36, 0.350125
2339.42, 0.351271
2340.48, 0.352341
2341.53, 0.353640
2342.59, 0.354633
2343.65, 0.355932
2344.71, 0.357231
2345.77, 0.358683
2346.83, 0.359829
2347.9, 0.361281
2348.96, 0.362733
2350.02, 0.364490
2351.09, 0.365866
2352.16, 0.367317
2353.23, 0.368540
2354.29, 0.369763
2355.36, 0.370909
2356.43, 0.371673
2357.51, 0.372284
2358.58, 0.373278
2359.65, 0.373889
2360.73, 0.374500
2361.8, 0.374959
2362.88, 0.375570
2363.96, 0.375876
2365.03, 0.376105
2366.11, 0.375894
2367.19, 0.375542
2368.27, 0.375191
2369.36, 0.374769
2370.44, 0.373996
2371.53, 0.373011
2372.61, 0.371956
2373.7, 0.371042
2374.78, 0.369847
2375.87, 0.368652
2376.96, 0.367175
2378.05, 0.365980
2379.14, 0.364714
2380.24, 0.363378
2381.33, 0.362042
2382.42, 0.360777
2383.52, 0.359441
2384.61, 0.358527
2385.71, 0.357613
2386.81, 0.356558
2387.91, 0.355784
2389.01, 0.355574
2390.11, 0.355433
2391.22, 0.355222
2392.32, 0.354589
2393.42, 0.354378
2394.53, 0.354659
2395.64, 0.355011
2396.74, 0.355363
2397.85, 0.356066
2398.96, 0.357050
2400.07, 0.357894
2401.18, 0.358386
2402.3, 0.359089
2403.41, 0.360003
2404.52, 0.361480
2405.64, 0.363027
2406.76, 0.364363
2407.88, 0.365347
2408.99, 0.366472
2410.11, 0.367949
2411.23, 0.369917
2412.36, 0.371394
2413.48, 0.372449
2414.6, 0.373855
2415.73, 0.375332
2416.85, 0.376316
2417.98, 0.377230
2419.11, 0.378566
2420.24, 0.379832
2421.37, 0.380605
2422.5, 0.381449
2423.64, 0.382714
2424.77, 0.383910
2425.9, 0.384613
2427.04, 0.385175
2428.18, 0.385808
2429.31, 0.386933
2430.45, 0.387496
2431.59, 0.387777
2432.73, 0.388269
2433.88, 0.388691
2435.02, 0.388832
2436.16, 0.389043
2437.31, 0.389464
2438.45, 0.389746
2439.6, 0.389746
2440.75, 0.389746
2441.9, 0.389816
2443.05, 0.389957
2444.2, 0.389957
2445.35, 0.389957
2446.51, 0.390449
2447.67, 0.390589
2448.82, 0.390308
2449.98, 0.390449
2451.14, 0.390449
2452.3, 0.390027
2453.46, 0.389816
2454.62, 0.389816
2455.78, 0.389746
2456.94, 0.389675
2458.11, 0.389675
2459.28, 0.389605
2460.44, 0.389535
2461.61, 0.389394
2462.78, 0.389394
2463.95, 0.389605
2465.12, 0.389605
2466.3, 0.389535
2467.47, 0.389394
2468.65, 0.389394
2469.82, 0.389394
2471.0, 0.389394
2472.18, 0.389183
2473.36, 0.389254
2474.54, 0.389464
2475.72, 0.389043
2476.9, 0.388902
2478.08, 0.389324
2479.27, 0.389043
2480.46, 0.388972
2481.64, 0.388972
2482.83, 0.388902
2484.02, 0.388691
2485.21, 0.388972
2486.4, 0.388832
2487.6, 0.388621
2488.79, 0.388480
2489.99, 0.388691
2491.18, 0.388761
2492.38, 0.388761
2493.58, 0.388550
2494.78, 0.388621
2495.98, 0.388691
2497.18, 0.388832
2498.39, 0.388761
2499.59, 0.388550
2500.8, 0.388339
2502.01, 0.388550
2503.21, 0.388761
2504.42, 0.388972
2505.63, 0.388972
2506.84, 0.389113
2508.06, 0.389183
2509.27, 0.389464
2510.49, 0.389605
2511.7, 0.389746
2512.92, 0.389746
2514.14, 0.390027
2515.36, 0.390449
2516.58, 0.390871
2517.8, 0.391293
2519.03, 0.391504
2520.25, 0.391363
2521.48, 0.391644
2522.7, 0.391996
2523.93, 0.392066
2525.16, 0.391925
2526.39, 0.392558
2527.62, 0.392910
2528.86, 0.393121
2530.09, 0.393191
2531.33, 0.393402
2532.56, 0.393613
2533.8, 0.393754
2535.04, 0.393332
2536.28, 0.393261
2537.52, 0.394316
2538.76, 0.394457
2540.01, 0.394105
2541.25, 0.393824
2542.5, 0.393472
2543.75, 0.393964
2544.99, 0.394808
2546.24, 0.394808
2547.49, 0.394316
2548.75, 0.394668
2550.0, 0.394527
2551.26, 0.394175
2552.51, 0.394035
2553.77, 0.394738
2555.03, 0.395441
2556.29, 0.395582
2557.55, 0.395582
2558.81, 0.395090
2560.08, 0.393121
2561.34, 0.390871
2562.61, 0.390519
2563.88, 0.391363
2565.14, 0.393050
2566.41, 0.394527
2567.68, 0.394246
2568.96, 0.392418
2570.23, 0.392699
2571.51, 0.394035
2572.78, 0.391714
2574.06, 0.391785
2575.34, 0.392980
2576.62, 0.392347
2577.9, 0.393402
2579.18, 0.394668
2580.47, 0.393683
2581.75, 0.393402
2583.04, 0.390800
2584.32, 0.390449
2585.61, 0.392910
2586.9, 0.392347
2588.2, 0.392488
2589.49, 0.393964
2590.78, 0.395019
2592.08, 0.394035
2593.37, 0.387777
2594.67, 0.381800
2595.97, 0.386722
2597.27, 0.393472
2598.57, 0.395722
2599.88, 0.395300
2601.18, 0.394035
2602.49, 0.393191
2603.79, 0.391222
2605.1, 0.388058
2606.41, 0.389113
2607.72, 0.391504
2609.03, 0.391504
2610.35, 0.391996
2611.66, 0.392418
2612.98, 0.391925
2614.3, 0.391855
2615.62, 0.388480
2616.94, 0.385597
2618.26, 0.387496
2619.58, 0.385949
2620.91, 0.385878
2622.23, 0.389394
2623.56, 0.390168
2624.89, 0.388410
2626.22, 0.384964
2627.55, 0.385808
2628.88, 0.385035
2630.21, 0.381660
2631.55, 0.384191
2632.89, 0.385949
2634.22, 0.386019
2635.56, 0.387355
2636.9, 0.387777
2638.25, 0.387988
2639.59, 0.387847
2640.93, 0.387566
2642.28, 0.387496
2643.63, 0.387496
2644.98, 0.386300
2646.33, 0.386511
2647.68, 0.387777
2649.03, 0.387988
2650.39, 0.387144
2651.74, 0.385035
2653.1, 0.384543
2654.46, 0.385175
2655.82, 0.384964
2657.18, 0.385668
2658.54, 0.384613
2659.9, 0.383207
2661.27, 0.383207
2662.64, 0.382925
2664.01, 0.378496
2665.38, 0.373714
2666.74, 0.373152
2668.12, 0.375683
2669.49, 0.371464
2670.87, 0.369144
2672.24, 0.374066
2673.62, 0.373996
2675.0, 0.369355
2676.38, 0.363449
2677.76, 0.359722
2679.15, 0.354941
2680.54, 0.350370
2681.92, 0.342706
2683.31, 0.332581
2684.7, 0.321753
2686.09, 0.310081
2687.48, 0.297987
2688.88, 0.285190
2690.27, 0.270917
2691.67, 0.255307
2693.07, 0.237869
2694.47, 0.222541
2695.87, 0.209885
2697.27, 0.198353
2698.67, 0.186541
2700.08, 0.174869
2701.49, 0.164533
2702.9, 0.156165
2704.31, 0.148220
2705.72, 0.141329
2707.13, 0.135142
2708.54, 0.129376
2709.96, 0.124103
2711.38, 0.120517
2712.8, 0.118618
2714.22, 0.116298
2715.64, 0.113485
2717.06, 0.110743
2718.49, 0.107790
2719.91, 0.104415
2721.34, 0.102798
2722.77, 0.101462
2724.2, 0.0998450
2725.63, 0.0997740
2727.07, 0.0999850
2728.5, 0.100337
2729.94, 0.100126
2731.38, 0.0993520
2732.82, 0.0978760
2734.26, 0.0961880
2735.7, 0.0959770
2737.15, 0.0966810
2738.59, 0.0970320
2740.04, 0.0982980
2741.49, 0.100477
2742.94, 0.102165
2744.39, 0.102165
2745.84, 0.101321
2747.3, 0.101110
2748.76, 0.102376
2750.21, 0.104626
2751.67, 0.107860
2753.14, 0.111165
2754.6, 0.113696
2756.06, 0.117634
2757.53, 0.121923
2759.0, 0.123962
2760.46, 0.124173
2761.94, 0.125157
2763.41, 0.128954
2764.88, 0.133665
2766.36, 0.136829
2767.83, 0.139501
2769.31, 0.142595
2770.79, 0.146884
2772.27, 0.152580
2773.76, 0.157994
2775.24, 0.162423
2776.73, 0.166291
2778.22, 0.169806
2779.71, 0.172689
2781.2, 0.175361
2782.69, 0.177611
2784.18, 0.179509
2785.68, 0.180142
2787.18, 0.180986
2788.68, 0.182955
2790.18, 0.184642
2791.68, 0.185627
2793.19, 0.186330
2794.69, 0.186963
2796.2, 0.187666
2797.71, 0.188228
2799.22, 0.188791
2800.73, 0.188791
2802.24, 0.188439
2803.76, 0.188580
2805.28, 0.189775
2806.8, 0.190760
2808.32, 0.191463
2809.84, 0.191885
2811.36, 0.192095
2812.89, 0.192236
2814.42, 0.192447
2815.94, 0.192799
2817.48, 0.193150
2819.01, 0.193291
2820.54, 0.193713
2822.08, 0.194135
2823.61, 0.194697
2825.15, 0.195119
2826.69, 0.195611
2828.23, 0.196174
2829.78, 0.196525
2831.32, 0.196806
2832.87, 0.197158
2834.42, 0.197299
2835.97, 0.197580
2837.52, 0.198213
2839.08, 0.198916
2840.63, 0.199338
2842.19, 0.199830
2843.75, 0.200392
2845.31, 0.200744
2846.87, 0.201025
2848.44, 0.201447
2850.0, 0.202010
2851.57, 0.202432
2853.14, 0.202713
2854.71, 0.203135
2856.28, 0.203627
2857.86, 0.203978
2859.43, 0.204330
2861.01, 0.204752
2862.59, 0.205033
2864.17, 0.205314
2865.76, 0.205525
2867.34, 0.205807
2868.93, 0.206228
2870.52, 0.206580
2872.11, 0.206791
2873.7, 0.207213
2875.29, 0.207494
2876.89, 0.207916
2878.49, 0.208197
2880.08, 0.208478
2881.69, 0.208830
2883.29, 0.209252
2884.89, 0.209603
2886.5, 0.209674
2888.11, 0.209814
2889.72, 0.210096
2891.33, 0.210447
2892.94, 0.211010
2894.56, 0.211361
2896.17, 0.211783
2897.79, 0.212064
2899.42, 0.212275
2901.04, 0.212627
2902.66, 0.213119
2904.29, 0.213541
2905.92, 0.214104
2907.55, 0.214385
2909.18, 0.214666
2910.81, 0.215088
2912.45, 0.215580
2914.08, 0.215791
2915.72, 0.216283
2917.36, 0.216916
2919.01, 0.217197
2920.65, 0.217549
2922.3, 0.218252
2923.94, 0.218814
2925.59, 0.219236
2927.25, 0.219729
2928.9, 0.220221
2930.56, 0.220783
2932.21, 0.221416
2933.87, 0.221838
2935.53, 0.222611
2937.2, 0.223104
2938.86, 0.223385
2940.53, 0.223877
2942.2, 0.224580
2943.87, 0.225072
2945.54, 0.225635
2947.22, 0.226127
2948.89, 0.226619
2950.57, 0.227393
2952.25, 0.228166
2953.93, 0.228588
2955.62, 0.229361
2957.3, 0.230065
2958.99, 0.230557
2960.68, 0.231190
2962.37, 0.231893
2964.07, 0.232455
2965.76, 0.233088
2967.46, 0.233651
2969.16, 0.234354
2970.86, 0.235127
2972.56, 0.235901
2974.27, 0.236604
2975.98, 0.237377
2977.69, 0.238010
2979.4, 0.238713
2981.11, 0.239416
2982.83, 0.240049
2984.54, 0.240963
2986.26, 0.241807
2987.98, 0.242510
2989.71, 0.243213
2991.43, 0.243916
2993.16, 0.244760
2994.89, 0.245463
2996.62, 0.246026
2998.35, 0.246729
3000.09, 0.247573
3001.83, 0.248557
3003.57, 0.249401
3005.31, 0.250174
3007.05, 0.250948
3008.79, 0.251651
3010.54, 0.252494
3012.29, 0.253268
3014.04, 0.254041
3015.8, 0.254744
3017.55, 0.255518
3019.31, 0.256362
3021.07, 0.256924
3022.83, 0.257557
3024.59, 0.258471
3026.36, 0.259174
3028.13, 0.259807
3029.9, 0.260721
3031.67, 0.261424
3033.44, 0.261987
3035.22, 0.262690
3037.0, 0.263393
3038.78, 0.264237
3040.56, 0.264870
3042.34, 0.265291
3044.13, 0.265924
3045.92, 0.266768
3047.71, 0.267612
3049.5, 0.268174
3051.3, 0.268596
3053.09, 0.269159
3054.89, 0.269862
3056.69, 0.270565
3058.5, 0.270987
3060.3, 0.271549
3062.11, 0.272252
3063.92, 0.272885
3065.73, 0.273307
3067.55, 0.273799
3069.36, 0.274292
3071.18, 0.274995
3073.0, 0.275698
3074.82, 0.276331
3076.65, 0.276682
3078.48, 0.277034
3080.31, 0.277596
3082.14, 0.278088
3083.97, 0.278651
3085.8, 0.279354
3087.64, 0.279917
3089.48, 0.280409
3091.33, 0.280971
3093.17, 0.281534
3095.02, 0.281956
3096.87, 0.282237
3098.72, 0.282870
3100.57, 0.283713
3102.43, 0.284206
3104.28, 0.284487
3106.14, 0.284768
3108.01, 0.285190
3109.87, 0.285823
3111.74, 0.286526
3113.61, 0.287229
3115.48, 0.287792
3117.35, 0.288424
3119.23, 0.288987
3121.1, 0.289620
3122.98, 0.290042
3124.87, 0.290323
3126.75, 0.290956
3128.64, 0.291448
3130.53, 0.292010
3132.42, 0.292503
3134.31, 0.293065
3136.21, 0.293628
3138.11, 0.294261
3140.01, 0.294893
3141.91, 0.295456
3143.82, 0.296089
3145.73, 0.296581
3147.64, 0.297003
3149.55, 0.297706
3151.46, 0.298620
3153.38, 0.299182
3155.3, 0.299815
3157.22, 0.300518
3159.14, 0.301221
3161.07, 0.301784
3163.0, 0.302628
3164.93, 0.303401
3166.86, 0.304104
3168.8, 0.304737
3170.74, 0.305300
3172.68, 0.306073
3174.62, 0.306847
3176.56, 0.307479
3178.51, 0.308112
3180.46, 0.308815
3182.42, 0.309589
3184.37, 0.310151
3186.33, 0.310714
3188.29, 0.311347
3190.25, 0.311768
3192.21, 0.312401
3194.18, 0.313245
3196.15, 0.313948
3198.12, 0.314511
3200.09, 0.315214
3202.07, 0.315847
3204.05, 0.316409
3206.03, 0.316901
3208.02, 0.317393
3210.0, 0.317815
3211.99, 0.318378
3213.98, 0.319011
3215.98, 0.319573
3217.97, 0.320065
3219.97, 0.320558
3221.97, 0.320979
3223.98, 0.321401
3225.98, 0.321683
3227.99, 0.322175
3230.0, 0.322597
3232.02, 0.322948
3234.03, 0.323370
3236.05, 0.323722
3238.07, 0.323862
3240.1, 0.324144
3242.12, 0.324495
3244.15, 0.324565
3246.18, 0.324706
3248.22, 0.324987
3250.25, 0.325058
3252.29, 0.325339
3254.33, 0.325690
3256.38, 0.325972
3258.43, 0.326253
3260.47, 0.326394
3262.53, 0.326534
3264.58, 0.326745
3266.64, 0.327097
3268.7, 0.327448
3270.76, 0.327659
3272.82, 0.327940
3274.89, 0.328222
3276.96, 0.328573
3279.04, 0.328855
3281.11, 0.329065
3283.19, 0.329558
3285.27, 0.330120
3287.35, 0.330401
3289.44, 0.330753
3291.53, 0.331245
3293.62, 0.331737
3295.71, 0.331948
3297.81, 0.332159
3299.91, 0.332651
3302.01, 0.333214
3304.11, 0.333706
3306.22, 0.334058
3308.33, 0.334550
3310.44, 0.334761
3312.56, 0.335042
3314.68, 0.335394
3316.8, 0.335675
3318.92, 0.336097
3321.05, 0.336519
3323.18, 0.336800
3325.31, 0.336870
3327.44, 0.336870
3329.58, 0.336870
3331.72, 0.337011
3333.86, 0.336870
3336.01, 0.336800
3338.16, 0.336448
3340.31, 0.336097
3342.46, 0.335675
3344.61, 0.335253
3346.77, 0.334831
3348.94, 0.334691
3351.1, 0.334691
3353.27, 0.334620
3355.44, 0.334409
3357.61, 0.334198
3359.79, 0.334128
3361.97, 0.333917
3364.15, 0.333495
3366.33, 0.332933
3368.52, 0.332370
3370.71, 0.331948
3372.9, 0.331315
3375.1, 0.330683
3377.3, 0.330331
3379.5, 0.330191
3381.71, 0.330261
3383.91, 0.330683
3386.12, 0.331105
3388.34, 0.331667
3390.55, 0.332230
3392.77, 0.332792
3394.99, 0.333144
3397.22, 0.333214
3399.45, 0.332792
3401.68, 0.332230
3403.91, 0.331597
3406.15, 0.330894
3408.39, 0.329909
3410.63, 0.329136
3412.87, 0.328573
3415.12, 0.328362
3417.37, 0.328503
3419.63, 0.329136
3421.88, 0.330191
3424.14, 0.331737
3426.41, 0.333355
3428.67, 0.334972
3430.94, 0.336519
3433.21, 0.337855
3435.49, 0.338980
3437.77, 0.339894
3440.05, 0.340878
3442.33, 0.342003
3444.62, 0.342706
3446.91, 0.343409
3449.2, 0.344253
3451.5, 0.344886
3453.8, 0.345378
3456.1, 0.346011
3458.41, 0.346503
3460.72, 0.346925
3463.03, 0.346925
3465.34, 0.346855
3467.66, 0.346573
3469.98, 0.346222
3472.31, 0.345870
3474.63, 0.345519
3476.96, 0.345238
3479.3, 0.344886
3481.64, 0.344605
3483.97, 0.344675
3486.32, 0.344675
3488.66, 0.344745
3491.01, 0.344886
3493.36, 0.345027
3495.72, 0.345097
3498.08, 0.344956
3500.44, 0.344816
3502.81, 0.345448
3505.18, 0.346292
3507.55, 0.347417
3509.92, 0.348753
3512.3, 0.350370
3514.68, 0.351917
3517.06, 0.353464
3519.45, 0.354941
3521.84, 0.356136
3524.24, 0.357472
3526.64, 0.358738
3529.04, 0.359581
3531.44, 0.360285
3533.85, 0.360917
3536.26, 0.361550
3538.67, 0.362042
3541.09, 0.362464
3543.51, 0.362745
3545.93, 0.363027
3548.36, 0.363308
3550.79, 0.363589
3553.22, 0.364011
3555.66, 0.364222
3558.1, 0.364363
3560.54, 0.364714
3562.99, 0.364855
3565.44, 0.365066
3567.9, 0.365277
3570.35, 0.365488
3572.81, 0.365558
3575.28, 0.365769
3577.75, 0.365980
3580.22, 0.366121
3582.69, 0.366331
3585.17, 0.366542
3587.65, 0.366683
3590.14, 0.366824
3592.62, 0.367035
3595.11, 0.367175
3597.61, 0.367105
3600.11, 0.367035
3602.61, 0.367175
3605.11, 0.367246
3607.62, 0.367316
3610.14, 0.367246
3612.65, 0.367316
3615.17, 0.367597
3617.69, 0.367527
3620.22, 0.367527
3622.75, 0.367597
3625.28, 0.367738
3627.82, 0.367738
3630.36, 0.367667
3632.9, 0.367597
3635.45, 0.367738
3638.0, 0.367878
3640.56, 0.367808
3643.12, 0.367808
3645.68, 0.367878
3648.24, 0.367808
3650.81, 0.367738
3653.39, 0.367667
3655.96, 0.367667
3658.54, 0.367738
3661.13, 0.367878
3663.71, 0.367738
3666.3, 0.367597
3668.9, 0.367738
3671.5, 0.367878
3674.1, 0.367878
3676.7, 0.367738
3679.31, 0.367738
3681.93, 0.367808
3684.54, 0.367667
3687.17, 0.367738
3689.79, 0.367738
3692.42, 0.367667
3695.05, 0.367667
3697.69, 0.367667
3700.32, 0.367597
3702.97, 0.367527
3705.61, 0.367456
3708.27, 0.367386
3710.92, 0.367527
3713.58, 0.367667
3716.24, 0.367597
3718.91, 0.367527
3721.58, 0.367527
3724.25, 0.367527
3726.93, 0.367527
3729.61, 0.367527
3732.29, 0.367386
3734.98, 0.367386
3737.67, 0.367386
3740.37, 0.367386
3743.07, 0.367246
3745.78, 0.367246
3748.49, 0.367316
3751.2, 0.367175
3753.91, 0.367035
3756.63, 0.367105
3759.36, 0.367105
3762.09, 0.366964
3764.82, 0.366824
3767.55, 0.366753
3770.29, 0.366753
3773.04, 0.366683
3775.78, 0.366402
3778.54, 0.366121
3781.29, 0.365980
3784.05, 0.365910
3786.82, 0.365699
3789.59, 0.365488
3792.36, 0.365136
3795.13, 0.364714
3797.92, 0.364363
3800.7, 0.364011
3803.49, 0.363449
3806.28, 0.363097
3809.08, 0.362816
3811.88, 0.362464
3814.68, 0.361831
3817.49, 0.361339
3820.31, 0.360988
3823.12, 0.360566
3825.94, 0.360144
3828.77, 0.359722
3831.6, 0.359089
3834.43, 0.358738
3837.27, 0.358456
3840.11, 0.358175
3842.96, 0.357824
3845.81, 0.357542
3848.67, 0.357120
3851.53, 0.356769
3854.39, 0.356347
3857.26, 0.356206
3860.13, 0.355995
3863.01, 0.355784
3865.89, 0.355574
3868.77, 0.355363
3871.66, 0.355081
3874.55, 0.354800
3877.45, 0.354449
3880.35, 0.354238
3883.26, 0.354027
3886.17, 0.353956
3889.09, 0.353675
3892.01, 0.353394
3894.93, 0.352972
3897.86, 0.352620
3900.79, 0.352409
3903.73, 0.352199
3906.67, 0.351917
3909.62, 0.351636
3912.57, 0.351355
3915.52, 0.351214
3918.48, 0.350792
3921.45, 0.350230
3924.42, 0.349667
3927.39, 0.349316
3930.37, 0.348964
3933.35, 0.348472
3936.34, 0.347839
3939.33, 0.346995
3942.32, 0.346011
3945.32, 0.344816
3948.33, 0.343620
3951.34, 0.342636
3954.35, 0.341722
3957.37, 0.340667
3960.39, 0.339683
3963.42, 0.338980
3966.45, 0.338347
3969.49, 0.337855
3972.53, 0.337362
3975.58, 0.337081
3978.63, 0.337011
3981.68, 0.336870
3984.75, 0.337011
3987.81, 0.337433
3990.88, 0.338066
3993.95, 0.338628
3997.03, 0.339191
4000.12, 0.339823
4003.21, 0.340245
4006.3, 0.340527
4009.4, 0.340808
4012.5, 0.340948
4015.61, 0.341089
4018.72, 0.341230
4021.84, 0.341441
4024.96, 0.341652
4028.09, 0.342003
4031.22, 0.342425
4034.36, 0.342777
4037.5, 0.343058
4040.65, 0.343339
4043.8, 0.343620
4046.96, 0.343691
4050.12, 0.343831
4053.29, 0.343761
4056.46, 0.343691
4059.64, 0.343480
4062.82, 0.343480
4066.0, 0.343409
4069.19, 0.343198
4072.39, 0.343128
4075.59, 0.342987
4078.8, 0.342706
4082.01, 0.342425
4085.23, 0.342284
4088.45, 0.342144
4091.68, 0.341933
4094.91, 0.341722
4098.15, 0.341441
4101.39, 0.341230
4104.63, 0.341019
4107.89, 0.340808
4111.14, 0.340386
4114.41, 0.340105
4117.67, 0.339823
4120.95, 0.339753
4124.23, 0.339612
4127.51, 0.339472
4130.8, 0.339120
4134.09, 0.338769
4137.39, 0.338558
4140.7, 0.338417
4144.01, 0.338066
4147.32, 0.337714
4150.64, 0.337573
4153.97, 0.337433
4157.3, 0.337151
4160.64, 0.336870
4163.98, 0.336519
4167.33, 0.336378
4170.68, 0.336097
4174.04, 0.335745
4177.4, 0.335394
4180.77, 0.335253
4184.14, 0.334901
4187.52, 0.334691
4190.91, 0.334480
4194.3, 0.334198
4197.69, 0.333847
4201.1, 0.333495
4204.5, 0.333003
4207.92, 0.332722
4211.34, 0.332230
4214.76, 0.331597
4218.19, 0.331034
4221.62, 0.330472
4225.06, 0.329980
4228.51, 0.329487
4231.96, 0.329136
4235.42, 0.328855
4238.88, 0.328644
4242.35, 0.328573
4245.83, 0.328503
4249.31, 0.328503
4252.79, 0.328644
4256.28, 0.328644
4259.78, 0.328151
4263.29, 0.327378
4266.79, 0.326815
4270.31, 0.326464
4273.83, 0.326183
4277.35, 0.325901
4280.89, 0.325550
4284.42, 0.325339
4287.97, 0.325198
4291.52, 0.325058
4295.07, 0.324847
4298.63, 0.324636
4302.2, 0.324495
4305.78, 0.324354
4309.35, 0.324144
4312.94, 0.324003
4316.53, 0.323651
4320.13, 0.323440
4323.73, 0.323300
4327.34, 0.323019
4330.96, 0.322808
4334.58, 0.322526
4338.21, 0.322175
4341.84, 0.321823
4345.48, 0.321542
4349.12, 0.321331
4352.77, 0.320979
4356.43, 0.320628
4360.1, 0.320347
4363.76, 0.319995
4367.44, 0.319503
4371.12, 0.319222
4374.81, 0.318870
4378.51, 0.318448
4382.21, 0.318026
4385.92, 0.317604
4389.63, 0.317183
4393.35, 0.316761
4397.08, 0.316409
4400.81, 0.315987
4404.55, 0.315495
4408.29, 0.315003
4412.04, 0.314511
4415.8, 0.313948
4419.57, 0.313456
4423.34, 0.312823
4427.12, 0.312190
4430.9, 0.311698
4434.69, 0.311136
4438.49, 0.310503
4442.29, 0.309800
4446.1, 0.309167
4449.92, 0.308534
4453.74, 0.307901
4457.57, 0.307268
4461.41, 0.306565
4465.25, 0.305792
4469.1, 0.304948
4472.95, 0.304104
4476.82, 0.303401
4480.69, 0.302487
4484.56, 0.301643
4488.44, 0.300800
4492.33, 0.299886
4496.23, 0.298901
4500.13, 0.297987
4504.04, 0.297003
4507.96, 0.296089
4511.88, 0.294964
4515.81, 0.293768
4519.75, 0.292643
4523.69, 0.291518
4527.65, 0.290112
4531.6, 0.288776
4535.57, 0.287370
4539.54, 0.285964
4543.52, 0.284346
4547.5, 0.282870
4551.5, 0.281393
4555.5, 0.279846
4559.5, 0.278159
4563.52, 0.276401
4567.54, 0.274643
4571.56, 0.272885
4575.6, 0.271057
4579.64, 0.269229
4583.69, 0.267401
4587.75, 0.265432
4591.81, 0.263393
4595.88, 0.261354
4599.96, 0.259315
4604.04, 0.257346
4608.14, 0.255307
4612.24, 0.253198
4616.34, 0.251088
4620.46, 0.249190
4624.58, 0.247151
4628.71, 0.244971
4632.84, 0.243002
4636.99, 0.241033
4641.14, 0.238994
4645.3, 0.237096
4649.47, 0.235127
4653.64, 0.233158
4657.82, 0.231260
4662.01, 0.229502
4666.21, 0.227744
4670.41, 0.225916
4674.62, 0.224229
4678.84, 0.222752
4683.07, 0.221275
4687.3, 0.219729
4691.54, 0.218041
4695.79, 0.216494
4700.05, 0.215018
4704.31, 0.213541
4708.59, 0.212064
4712.87, 0.210658
4717.15, 0.209182
4721.45, 0.207775
4725.76, 0.206299
4730.07, 0.204963
4734.39, 0.203557
4738.72, 0.202150
4743.05, 0.200814
4747.39, 0.199408
4751.75, 0.198002
4756.1, 0.196666
4760.47, 0.195330
4764.85, 0.193924
4769.23, 0.192517
4773.62, 0.191322
4778.02, 0.189916
4782.43, 0.188510
4786.85, 0.187174
4791.27, 0.185978
4795.7, 0.184853
4800.14, 0.183517
4804.59, 0.182252
4809.05, 0.181056
4813.51, 0.179791
4817.99, 0.178595
4822.47, 0.177330
4826.96, 0.176064
4831.46, 0.174728
4835.96, 0.173392
4840.48, 0.172197
4845.0, 0.170931
4849.54, 0.169666
4854.08, 0.168470
4858.63, 0.167134
4863.18, 0.165728
4867.75, 0.164462
4872.33, 0.163126
4876.91, 0.161791
4881.5, 0.160455
4886.1, 0.159189
4890.71, 0.157853
4895.33, 0.156587
4899.96, 0.155322
4904.59, 0.154056
4909.24, 0.152931
4913.89, 0.151665
4918.55, 0.150540
4923.22, 0.149486
4927.9, 0.148431
4932.59, 0.147376
4937.29, 0.146392
4942.0, 0.145408
4946.71, 0.144353
4951.44, 0.143439
4956.17, 0.142595
4960.91, 0.141751
4965.67, 0.140978
4970.43, 0.140134
4975.2, 0.139290
4979.98, 0.138587
4984.76, 0.137814
4989.56, 0.136970
4994.37, 0.136267
4999.18, 0.135564
5004.01, 0.135001
5008.84, 0.134439
5013.69, 0.133876
5018.54, 0.133173
5023.4, 0.132611
5028.28, 0.132189
5033.16, 0.131837
5038.05, 0.131345
5042.95, 0.130782
5047.86, 0.130431
5052.78, 0.129939
5057.71, 0.129517
5062.65, 0.129095
5067.6, 0.128743
5072.56, 0.128392
5077.53, 0.127970
5082.5, 0.127548
5087.49, 0.127337
5092.49, 0.127126
5097.5, 0.126986
5102.51, 0.126845
5107.54, 0.126493
5112.58, 0.126353
5117.62, 0.126282
5122.68, 0.126071
5127.75, 0.125790
5132.82, 0.125579
5137.91, 0.125368
5143.01, 0.125157
5148.12, 0.124946
5153.23, 0.125017
5158.36, 0.124946
5163.5, 0.124876
5168.65, 0.124665
5173.81, 0.124525
5178.98, 0.124384
5184.15, 0.124173
5189.34, 0.123892
5194.54, 0.123610
5199.75, 0.123259
5204.98, 0.123048
5210.21, 0.122556
5215.45, 0.122064
5220.7, 0.121993
5225.96, 0.121712
5231.23, 0.121290
5236.52, 0.120728
5241.81, 0.120235
5247.12, 0.119673
5252.44, 0.119040
5257.76, 0.118407
5263.1, 0.117845
5268.45, 0.117212
5273.81, 0.116439
5279.18, 0.115735
5284.56, 0.115173
5289.95, 0.114540
5295.36, 0.114048
5300.77, 0.113556
5306.2, 0.113064
5311.63, 0.112712
5317.08, 0.112290
5322.54, 0.111868
5328.01, 0.111587
5333.49, 0.111165
5338.98, 0.110673
5344.49, 0.109759
5350.0, 0.108915
5355.53, 0.108774
5361.07, 0.108634
5366.62, 0.108142
5372.18, 0.107438
5377.75, 0.106665
5383.34, 0.106032
5388.93, 0.105470
5394.54, 0.104556
5400.16, 0.103712
5405.79, 0.102727
5411.44, 0.101813
5417.09, 0.100477
5422.76, 0.0992120
5428.43, 0.0988600
5434.12, 0.0981570
5439.83, 0.0971730
5445.54, 0.0963290
5451.26, 0.0953450
5457.0, 0.0941490
5462.75, 0.0928840
5468.52, 0.0920400
5474.29, 0.0911960
5480.08, 0.0902820
5485.88, 0.0896490
5491.69, 0.0887350
5497.51, 0.0876800
5503.35, 0.0867660
5509.2, 0.0859930
5515.06, 0.0850090
5520.93, 0.0839540
5526.82, 0.0831100
5532.71, 0.0824770
5538.63, 0.0816340
5544.55, 0.0805090
5550.49, 0.0793840
5556.44, 0.0786100
5562.4, 0.0781180
5568.37, 0.0776260
5574.36, 0.0767820
5580.36, 0.0763600
5586.37, 0.0766410
5592.4, 0.0766410
5598.44, 0.0761490
5604.49, 0.0758680
5610.56, 0.0758680
5616.63, 0.0756570
5622.73, 0.0755160
5628.83, 0.0752350
5634.95, 0.0745320
5641.08, 0.0736880
5647.23, 0.0738290
5653.39, 0.0738290
5659.56, 0.0736180
5665.74, 0.0735480
5671.94, 0.0730550
5678.15, 0.0728440
5684.38, 0.0727040
5690.62, 0.0722820
5696.87, 0.0722120
5703.14, 0.0718600
5709.42, 0.0710870
5715.72, 0.0709460
5722.03, 0.0709460
5728.35, 0.0709460
5734.69, 0.0708760
5741.03, 0.0705940
5747.4, 0.0702430
5753.78, 0.0704540
5760.17, 0.0697510
5766.58, 0.0687660
5773.0, 0.0694690
5779.44, 0.0700320
5785.88, 0.0701730
5792.35, 0.0700320
5798.83, 0.0698210
5805.32, 0.0697510
5811.83, 0.0693990
5818.35, 0.0682040
5824.89, 0.0679220
5831.45, 0.0684150
5838.01, 0.0688370
5844.59, 0.0689770
5851.19, 0.0686960
5857.8, 0.0682040
5864.43, 0.0678520
5871.07, 0.0676410
5877.73, 0.0663760
5884.4, 0.0663050
5891.09, 0.0665870
5897.79, 0.0663760
5904.5, 0.0672900
5911.23, 0.0675010
5917.98, 0.0672190
5924.75, 0.0670080
5931.53, 0.0658830
5938.32, 0.0652510
5945.13, 0.0661650
5951.96, 0.0664460
5958.8, 0.0663760
5965.65, 0.0656720
5972.53, 0.0654620
5979.42, 0.0654620
5986.32, 0.0648990
5993.24, 0.0648990
6000.18, 0.0652510
6007.13, 0.0648290
6014.1, 0.0643370
6021.08, 0.0644070
6028.09, 0.0642660
6035.1, 0.0637040
6042.14, 0.0620160
6049.19, 0.0605400
6056.25, 0.0615940
6063.34, 0.0619460
6070.44, 0.0609610
6077.55, 0.0608910
6084.69, 0.0611720
6091.84, 0.0609610
6099.0, 0.0604690
6106.19, 0.0594850
6113.39, 0.0586410
6120.61, 0.0589930
6127.84, 0.0594150
6135.09, 0.0589930
6142.36, 0.0583600
6149.65, 0.0580080
6156.95, 0.0575860
6164.27, 0.0575860
6171.61, 0.0575860
6178.97, 0.0568830
6186.34, 0.0565320
6193.73, 0.0571650
6201.14, 0.0573760
6208.57, 0.0571650
6216.01, 0.0572350
6223.47, 0.0573760
6230.95, 0.0575160
6238.45, 0.0575860
6245.97, 0.0577270
6253.5, 0.0577970
6261.06, 0.0580080
6268.63, 0.0583600
6276.21, 0.0587820
6283.82, 0.0590630
6291.45, 0.0592740
6299.1, 0.0596260
6306.76, 0.0599770
6314.44, 0.0604690
6322.14, 0.0608910
6329.86, 0.0612430
6337.6, 0.0611020
6345.35, 0.0613830
6353.13, 0.0628600
6360.92, 0.0635630
6368.74, 0.0637040
6376.57, 0.0646180
6384.43, 0.0655320
6392.3, 0.0661650
6400.19, 0.0663760
6408.1, 0.0653910
6416.03, 0.0654620
6423.98, 0.0673600
6431.95, 0.0684850
6439.94, 0.0695400
6447.95, 0.0703830
6455.98, 0.0710160
6464.03, 0.0714380
6472.1, 0.0715080
6480.19, 0.0715080
6488.31, 0.0709460
6496.44, 0.0713680
6504.59, 0.0731960
6512.76, 0.0739690
6520.95, 0.0739690
6529.16, 0.0748130
6537.4, 0.0751650
6545.65, 0.0750940
6553.92, 0.0750240
6562.22, 0.0749540
6570.54, 0.0743210
6578.88, 0.0747430
6587.23, 0.0751650
6595.61, 0.0752350
6604.02, 0.0755870
6612.44, 0.0753760
6620.89, 0.0750240
6629.35, 0.0736180
6637.84, 0.0725630
6646.35, 0.0736880
6654.88, 0.0743910
6663.44, 0.0738290
6672.01, 0.0729850
6680.61, 0.0724230
6689.23, 0.0724230
6697.88, 0.0722120
6706.54, 0.0712270
6715.23, 0.0707350
6723.94, 0.0706650
6732.67, 0.0705240
6741.42, 0.0701730
6750.2, 0.0696100
6759.0, 0.0691880
6767.82, 0.0686260
6776.67, 0.0679220
6785.54, 0.0668680
6794.44, 0.0664460
6803.35, 0.0667270
6812.29, 0.0663760
6821.26, 0.0656020
6830.24, 0.0652510
6839.25, 0.0653210
6848.29, 0.0646180
6857.35, 0.0631410
6866.43, 0.0625790
6875.54, 0.0632120
6884.67, 0.0633520
6893.82, 0.0630010
6903.0, 0.0624380
6912.2, 0.0621570
6921.43, 0.0618760
6930.69, 0.0614540
6939.96, 0.0610320
6949.27, 0.0603290
6958.59, 0.0594150
6967.95, 0.0593440
6977.33, 0.0593440
6986.73, 0.0587820
6996.16, 0.0582900
7005.61, 0.0580080
7015.09, 0.0576570
7024.6, 0.0571650
7034.13, 0.0565320
7043.69, 0.0556880
7053.27, 0.0553360
7062.88, 0.0551960
7072.52, 0.0549850
7082.18, 0.0546330
7091.87, 0.0541410
7101.58, 0.0535790
7111.32, 0.0530160
7121.09, 0.0525240
7130.88, 0.0519610
7140.71, 0.0512580
7150.56, 0.0506960
7160.43, 0.0502040
7170.33, 0.0496410
7180.27, 0.0493600
7190.23, 0.0490080
7200.21, 0.0483750
7210.23, 0.0478830
7220.27, 0.0476020
7230.34, 0.0471800
7240.44, 0.0466180
7250.56, 0.0461250
7260.72, 0.0458440
7270.9, 0.0453520
7281.12, 0.0449300
7291.36, 0.0446490
7301.63, 0.0442270
7311.93, 0.0438050
7322.25, 0.0432430
7332.61, 0.0426100
7343.0, 0.0423290
7353.41, 0.0420470
7363.86, 0.0416960
7374.33, 0.0412740
7384.83, 0.0408520
7395.37, 0.0404300
7405.93, 0.0400080
7416.53, 0.0395860
7427.15, 0.0392350
7437.81, 0.0387430
7448.5, 0.0382500
7459.22, 0.0377580
7469.96, 0.0373360
7480.74, 0.0369140
7491.55, 0.0365630
7502.39, 0.0361410
7513.27, 0.0356490
7524.17, 0.0350860
7535.11, 0.0348050
7546.08, 0.0343830
7557.08, 0.0340320
7568.11, 0.0336100
7579.17, 0.0331880
7590.27, 0.0327660
7601.4, 0.0324850
7612.56, 0.0321330
7623.76, 0.0317820
7634.98, 0.0315000
7646.24, 0.0311490
7657.54, 0.0308670
7668.87, 0.0305160
7680.23, 0.0301640
7691.62, 0.0298830
7703.05, 0.0295320
7714.51, 0.0291800
7726.01, 0.0288990
7737.54, 0.0285470
7749.11, 0.0281250
7760.71, 0.0279140
7772.35, 0.0275630
7784.02, 0.0272110
7795.72, 0.0268600
7807.46, 0.0266490
7819.23, 0.0263670
7831.04, 0.0260860
7842.89, 0.0258050
7854.77, 0.0255240
7866.69, 0.0251020
7878.65, 0.0247500
7890.64, 0.0244690
7902.67, 0.0243280
7914.74, 0.0240470
7926.84, 0.0236960
7938.98, 0.0234850
7951.16, 0.0234140
7963.37, 0.0231330
7975.62, 0.0228520
7987.91, 0.0225710
8000.24, 0.0223600
8012.6, 0.0222190
8025.01, 0.0220780
8037.45, 0.0218670
8049.93, 0.0217270
8062.45, 0.0217270
8075.01, 0.0216560
8087.61, 0.0215160
8100.24, 0.0215160
8112.91, 0.0215860
8125.63, 0.0216560
8138.39, 0.0216560
8151.18, 0.0215860
8164.02, 0.0214460
8176.9, 0.0213050
8189.81, 0.0212350
8202.77, 0.0210940
8215.77, 0.0209530
8228.82, 0.0206720
8241.9, 0.0203200
8255.02, 0.0201800
8268.19, 0.0200390
8281.39, 0.0198280
8294.65, 0.0195470
8307.94, 0.0191950
8321.28, 0.0188440
8334.66, 0.0188440
8348.08, 0.0188440
8361.54, 0.0189850
8375.05, 0.0189140
8388.6, 0.0190550
8402.2, 0.0191950
8415.84, 0.0195470
8429.52, 0.0198990
8443.25, 0.0203910
8457.02, 0.0208130
8470.84, 0.0215160
8484.7, 0.0225000
8498.61, 0.0238360
8512.57, 0.0255240
8526.57, 0.0274220
8540.62, 0.0294610
8554.71, 0.0321330
8568.85, 0.0350860
8583.04, 0.0381800
8597.27, 0.0416250
8611.55, 0.0456330
8625.88, 0.0508360
8640.26, 0.0577970
8654.68, 0.0659540
8669.16, 0.0748130
8683.68, 0.0838130
8698.25, 0.0923910
8712.87, 0.0999850
8727.53, 0.105821
8742.25, 0.109829
8757.02, 0.112149
8771.83, 0.113485
8786.7, 0.113696
8801.62, 0.113134
8816.59, 0.112079
8831.61, 0.110603
8846.68, 0.108493
8861.8, 0.106173
8876.97, 0.103782
8892.2, 0.101392
8907.48, 0.0992820
8922.81, 0.0973840
8938.2, 0.0961880
8953.63, 0.0956260
8969.13, 0.0953450
8984.67, 0.0957660
9000.27, 0.0970320
9015.92, 0.0989310
9031.63, 0.101321
9047.39, 0.104345
9063.21, 0.108001
9079.08, 0.112220
9095.01, 0.117001
9111.0, 0.121923
9127.04, 0.127056
9143.13, 0.132540
9159.28, 0.137954
9175.49, 0.143439
9191.76, 0.148783
9208.09, 0.154126
9224.47, 0.159400
9240.92, 0.164322
9257.42, 0.168752
9273.98, 0.172900
9290.6, 0.176697
9307.28, 0.180072
9324.02, 0.182674
9340.82, 0.184713
9357.68, 0.186259
9374.6, 0.187174
9391.58, 0.187525
9408.62, 0.187525
9425.73, 0.186963
9442.9, 0.186259
9460.13, 0.185556
9477.42, 0.184642
9494.78, 0.183306
9512.2, 0.181549
9529.69, 0.179931
9547.24, 0.178314
9564.86, 0.176275
9582.54, 0.174306
9600.28, 0.172197
9618.1, 0.170228
9635.97, 0.168330
9653.92, 0.166783
9671.93, 0.165447
9690.01, 0.164251
9708.16, 0.163689
9726.37, 0.163689
9744.65, 0.164181
9763.0, 0.165658
9781.43, 0.167767
9799.92, 0.170087
9818.48, 0.172830
9837.1, 0.176064
9855.8, 0.179369
9874.58, 0.182252
9893.42, 0.184924
9912.34, 0.187666
9931.33, 0.190056
9950.39, 0.192236
9969.52, 0.193924
9988.74, 0.195119
10008.0, 0.195892
10027.4, 0.196525
10046.8, 0.196736
10066.3, 0.196385
10085.9, 0.195822
10105.6, 0.195260
10125.3, 0.194697
10145.1, 0.194135
10165.0, 0.193502
10185.0, 0.192799
10205.0, 0.192095
10225.2, 0.191111
10245.4, 0.189564
10265.7, 0.188088
10286.0, 0.186259
10306.5, 0.183377
10327.0, 0.180072
10347.6, 0.176767
10368.3, 0.173041
10389.1, 0.168892
10409.9, 0.164322
10430.9, 0.159962
10451.9, 0.155603
10473.0, 0.151384
10494.2, 0.147447
10515.5, 0.143439
10536.9, 0.139712
10558.4, 0.136407
10579.9, 0.133314
10601.5, 0.130361
10623.3, 0.127407
10645.1, 0.124595
10667.0, 0.121782
10689.0, 0.119462
10711.1, 0.117353
10733.2, 0.115314
10755.5, 0.113626
10777.9, 0.112079
10800.3, 0.110743
10822.9, 0.109618
10845.5, 0.108845
10868.2, 0.108001
10891.1, 0.107298
10914.0, 0.106665
10937.0, 0.105751
10960.2, 0.105048
10983.4, 0.104345
11006.7, 0.103571
11030.1, 0.102446
11053.6, 0.101110
11077.3, 0.100056
11101.0, 0.0990710
11124.8, 0.0981570
11148.7, 0.0973130
11172.7, 0.0961880
11196.9, 0.0950630
11221.1, 0.0940790
11245.4, 0.0930950
11269.9, 0.0921100
11294.4, 0.0912660
11319.1, 0.0904230
11343.9, 0.0896490
11368.8, 0.0888760
11393.7, 0.0878910
11418.8, 0.0869770
11444.0, 0.0862040
11469.4, 0.0851490
11494.8, 0.0842350
11520.3, 0.0831100
11546.0, 0.0819150
11571.8, 0.0807190
11597.7, 0.0795240
11623.7, 0.0786100
11649.8, 0.0775550
11676.0, 0.0764300
11702.4, 0.0753760
11728.9, 0.0747430
11755.5, 0.0738290
11782.2, 0.0729850
11809.0, 0.0723520
11836.0, 0.0715080
11863.0, 0.0705940
11890.3, 0.0698210
11917.6, 0.0689770
11945.0, 0.0679930
11972.6, 0.0670790
12000.4, 0.0662350
12028.2, 0.0655320
12056.2, 0.0645470
12084.3, 0.0637740
12112.5, 0.0631410
12140.9, 0.0622270
12169.4, 0.0612430
12198.0, 0.0605400
12226.8, 0.0597660
12255.7, 0.0590630
12284.7, 0.0584300
12313.9, 0.0581490
12343.2, 0.0577970
12372.7, 0.0573050
12402.3, 0.0572350
12432.0, 0.0571650
12461.9, 0.0568130
12491.9, 0.0562510
12522.1, 0.0557580
12552.4, 0.0549150
12582.9, 0.0540710
12613.5, 0.0530860
12644.3, 0.0523830
12675.2, 0.0516800
12706.3, 0.0508360
12737.5, 0.0503440
12768.9, 0.0497110
12800.4, 0.0490790
12832.1, 0.0482350
12863.9, 0.0475320
12895.9, 0.0464770
12928.1, 0.0452820
12960.4, 0.0442270
12992.9, 0.0433830
13025.5, 0.0426800
13058.3, 0.0419770
13091.3, 0.0416250
13124.4, 0.0415550
13157.8, 0.0415550
13191.2, 0.0412740
13224.9, 0.0411330
13258.7, 0.0412740
13292.7, 0.0413440
13326.9, 0.0411330
13361.2, 0.0407820
13395.7, 0.0406410
13430.4, 0.0402190
13465.3, 0.0399380
13500.4, 0.0397270
13535.7, 0.0395160
13571.1, 0.0392350
13606.7, 0.0385320
13642.5, 0.0379690
13678.5, 0.0379690
13714.7, 0.0381800
13751.1, 0.0376180
13787.6, 0.0369850
13824.4, 0.0367740
13861.4, 0.0364220
13898.5, 0.0360710
13935.9, 0.0357890
13973.5, 0.0350160
14011.2, 0.0347350
14049.2, 0.0345240
14087.4, 0.0343130
14125.8, 0.0338910
14164.3, 0.0334690
14203.2, 0.0331880
14242.2, 0.0329070
14281.4, 0.0325550
14320.9, 0.0324850
14360.5, 0.0327660
14400.4, 0.0325550
14440.5, 0.0320630
14480.9, 0.0316410
14521.4, 0.0314300
14562.2, 0.0312890
14603.3, 0.0310080
14644.5, 0.0308670
14686.0, 0.0306570
14727.7, 0.0303050
14769.7, 0.0303750
14811.9, 0.0304460
14854.3, 0.0303750
14897.0, 0.0306570
14939.9, 0.0310780
14983.1, 0.0317110
15026.5, 0.0325550
15070.2, 0.0326960
15114.2, 0.0323440
15158.3, 0.0321330
15202.8, 0.0317820
15247.5, 0.0311490
15292.5, 0.0303750
15337.7, 0.0296720
15383.2, 0.0293910
15429.0, 0.0293910
15475.1, 0.0291100
15521.4, 0.0287580
15568.0, 0.0283360
15614.9, 0.0277030
15662.1, 0.0270710
15709.6, 0.0267890
15757.3, 0.0262970
15805.4, 0.0256640
15853.7, 0.0248210
15902.3, 0.0241880
15951.2, 0.0239060
16000.5, 0.0234850
16050.0, 0.0230630
16099.8, 0.0227110
16150.0, 0.0220780
16200.5, 0.0213050
16251.3, 0.0207420
16302.4, 0.0204610
16353.8, 0.0198280
16405.5, 0.0191950
16457.6, 0.0191250
16510.0, 0.0185630
16562.8, 0.0180700
16615.9, 0.0177890
16669.3, 0.0177190
16723.1, 0.0176490
16777.2, 0.0178600
16831.7, 0.0187030
16886.5, 0.0198280
16941.7, 0.0217270
16997.2, 0.0240470
17053.1, 0.0279850
17109.4, 0.0330470
17166.1, 0.0389530
17223.1, 0.0463360
17280.5, 0.0549150
17338.3, 0.0645470
17396.5, 0.0753050
17455.1, 0.0867660
17514.0, 0.0985790
17573.4, 0.111024
17633.2, 0.124454
17693.4, 0.138025
17754.0, 0.151314
17815.0, 0.164744
17876.4, 0.177822
17938.3, 0.189705
18000.5, 0.200181
18063.3, 0.209674
18126.4, 0.217408
18190.0, 0.224861
18254.1, 0.230838
18318.6, 0.235197
18383.5, 0.240190
18449.0, 0.244760
18514.9, 0.247994
18581.2, 0.250526
18648.0, 0.255026
18715.4, 0.259877
18783.2, 0.263956
18851.5, 0.269440
18920.3, 0.275627
18989.6, 0.279143
19059.4, 0.283362
19129.7, 0.287159
19200.6, 0.289479
19272.0, 0.290745
19343.9, 0.290534
19416.3, 0.289901
19489.3, 0.289268
19562.8, 0.287299
19637.0, 0.285049
19711.6, 0.283784
19786.8, 0.281393
19862.6, 0.277385
19939.0, 0.272885
20016.0, 0.270635
20093.6, 0.269018
20171.8, 0.266346
20250.6, 0.263252
20330.0, 0.262409
20410.0, 0.261635
20490.7, 0.260370
20572.0, 0.258963
20654.0, 0.256151
20736.6, 0.254252
20819.9, 0.254112
20903.8, 0.252705
20988.5, 0.252143
21073.8, 0.252073
21159.8, 0.252705
21246.5, 0.253479
21334.0, 0.251651
21422.1, 0.250244
21511.0, 0.248627
21600.7, 0.244338
21691.0, 0.240190
21782.1, 0.236533
21874.0, 0.232526
21966.7, 0.227744
22060.2, 0.222260
22154.5, 0.217057
22249.6, 0.212135
22345.5, 0.206791
22442.2, 0.201588
22539.8, 0.197861
22638.2, 0.195260
22737.5, 0.193361
22837.7, 0.192939
22938.7, 0.191392
23040.7, 0.187947
23143.5, 0.184994
23247.3, 0.183658
23352.1, 0.183447
23457.7, 0.181056
23564.4, 0.175923
23672.0, 0.171564
23780.5, 0.167837
23890.1, 0.162986
24000.7, 0.161298
24112.3, 0.158837
24225.0, 0.156517
24338.7, 0.155251
24453.5, 0.153423
24569.4, 0.153142
24686.4, 0.153212
