Database of Origin, USGS Spectral Database
Sample Description, See USGS database for additional info
Date Added,2017-07-03 06:06:52.695612

Data ID,USGS_rut02          
Sample ID, rutile_hs126.19708
Mineral Name, rutile
Material Class,Oxide

Wavelength
1503.53, 0.500566
1503.96, 0.500784
1504.4, 0.500929
1504.83, 0.501292
1505.27, 0.501583
1505.71, 0.501365
1506.15, 0.501074
1506.58, 0.501510
1507.02, 0.501510
1507.46, 0.501292
1507.9, 0.501437
1508.34, 0.501801
1508.78, 0.501873
1509.21, 0.501873
1509.66, 0.501946
1510.09, 0.502019
1510.53, 0.501873
1510.97, 0.501946
1511.42, 0.502164
1511.86, 0.502309
1512.3, 0.502382
1512.74, 0.502527
1513.18, 0.502890
1513.62, 0.502890
1514.06, 0.502600
1514.51, 0.502745
1514.95, 0.502745
1515.39, 0.502890
1515.83, 0.502890
1516.28, 0.502963
1516.72, 0.503036
1517.16, 0.503036
1517.61, 0.502963
1518.05, 0.502963
1518.5, 0.503399
1518.94, 0.503544
1519.39, 0.503762
1519.83, 0.503835
1520.28, 0.503399
1520.73, 0.503326
1521.17, 0.503689
1521.62, 0.504198
1522.07, 0.504125
1522.51, 0.504343
1522.96, 0.504561
1523.41, 0.504343
1523.85, 0.504198
1524.3, 0.504706
1524.75, 0.505142
1525.2, 0.505069
1525.65, 0.504779
1526.1, 0.504924
1526.55, 0.504852
1527.0, 0.505142
1527.45, 0.505433
1527.9, 0.505651
1528.35, 0.505723
1528.8, 0.505869
1529.25, 0.506086
1529.7, 0.506159
1530.15, 0.505869
1530.6, 0.505723
1531.05, 0.505796
1531.51, 0.506086
1531.96, 0.506304
1532.41, 0.506668
1532.87, 0.506668
1533.32, 0.506958
1533.77, 0.507321
1534.23, 0.507467
1534.68, 0.507612
1535.14, 0.507539
1535.59, 0.507612
1536.05, 0.507757
1536.5, 0.507975
1536.96, 0.508193
1537.41, 0.508193
1537.87, 0.508629
1538.32, 0.508847
1538.78, 0.509065
1539.24, 0.509283
1539.7, 0.509428
1540.15, 0.509428
1540.61, 0.509573
1541.07, 0.509573
1541.53, 0.509719
1541.98, 0.510154
1542.44, 0.510300
1542.9, 0.510372
1543.36, 0.510445
1543.82, 0.510735
1544.28, 0.511026
1544.74, 0.511244
1545.2, 0.511244
1545.66, 0.511171
1546.12, 0.511317
1546.59, 0.511680
1547.05, 0.511970
1547.51, 0.512043
1547.97, 0.512479
1548.43, 0.512624
1548.9, 0.512697
1549.36, 0.512624
1549.82, 0.512842
1550.29, 0.512842
1550.75, 0.512769
1551.21, 0.513423
1551.68, 0.513786
1552.14, 0.513714
1552.61, 0.513714
1553.07, 0.514004
1553.54, 0.514295
1554.0, 0.514731
1554.47, 0.514731
1554.93, 0.514731
1555.4, 0.515167
1555.87, 0.515239
1556.34, 0.515094
1556.8, 0.515530
1557.27, 0.515602
1557.74, 0.515602
1558.21, 0.515966
1558.68, 0.516111
1559.14, 0.516111
1559.61, 0.516765
1560.08, 0.517273
1560.55, 0.517273
1561.02, 0.517273
1561.49, 0.517418
1561.96, 0.517709
1562.43, 0.517636
1562.9, 0.517564
1563.38, 0.518000
1563.85, 0.518290
1564.32, 0.518581
1564.79, 0.518726
1565.26, 0.518508
1565.74, 0.518508
1566.21, 0.518581
1566.68, 0.518871
1567.16, 0.519089
1567.63, 0.519380
1568.1, 0.519670
1568.58, 0.519888
1569.05, 0.520179
1569.53, 0.520397
1570.0, 0.520179
1570.48, 0.520397
1570.96, 0.520833
1571.43, 0.520905
1571.91, 0.520687
1572.39, 0.520833
1572.86, 0.521050
1573.34, 0.521268
1573.82, 0.521123
1574.3, 0.521341
1574.77, 0.521486
1575.25, 0.521704
1575.73, 0.521922
1576.21, 0.522431
1576.69, 0.522721
1577.17, 0.522721
1577.65, 0.522649
1578.13, 0.522649
1578.61, 0.522721
1579.09, 0.523230
1579.57, 0.523593
1580.05, 0.523593
1580.54, 0.523448
1581.02, 0.523520
1581.5, 0.523883
1581.98, 0.524319
1582.47, 0.524392
1582.95, 0.524682
1583.43, 0.524465
1583.92, 0.524755
1584.4, 0.524900
1584.88, 0.525046
1585.37, 0.524973
1585.85, 0.525191
1586.34, 0.525409
1586.82, 0.525482
1587.31, 0.525699
1587.8, 0.526426
1588.28, 0.526499
1588.77, 0.526281
1589.26, 0.525990
1589.74, 0.526208
1590.23, 0.526716
1590.72, 0.527152
1591.21, 0.527152
1591.7, 0.527515
1592.19, 0.527661
1592.67, 0.527661
1593.16, 0.527661
1593.65, 0.527879
1594.14, 0.527806
1594.63, 0.528024
1595.12, 0.528242
1595.61, 0.528678
1596.11, 0.528823
1596.6, 0.529186
1597.09, 0.529259
1597.58, 0.529404
1598.08, 0.529477
1598.57, 0.529767
1599.06, 0.529767
1599.55, 0.530203
1600.05, 0.530494
1600.54, 0.530784
1601.04, 0.531002
1601.53, 0.530930
1602.03, 0.531002
1602.52, 0.531438
1603.02, 0.531729
1603.51, 0.531801
1604.01, 0.531729
1604.5, 0.532019
1605.0, 0.532165
1605.5, 0.532382
1606.0, 0.532455
1606.49, 0.532528
1606.99, 0.532746
1607.49, 0.533472
1607.99, 0.533835
1608.49, 0.533980
1608.99, 0.534126
1609.49, 0.534562
1609.99, 0.534780
1610.49, 0.534997
1610.99, 0.535070
1611.49, 0.535143
1611.99, 0.535070
1612.49, 0.535579
1612.99, 0.535869
1613.49, 0.535942
1614.0, 0.535869
1614.5, 0.536087
1615.0, 0.536232
1615.51, 0.536813
1616.01, 0.537177
1616.51, 0.537249
1617.02, 0.537322
1617.52, 0.537540
1618.03, 0.537685
1618.53, 0.537758
1619.04, 0.537830
1619.54, 0.538194
1620.05, 0.538484
1620.55, 0.538775
1621.06, 0.538993
1621.57, 0.539429
1622.08, 0.539429
1622.58, 0.539501
1623.09, 0.539646
1623.6, 0.539864
1624.11, 0.540300
1624.62, 0.540373
1625.13, 0.540591
1625.64, 0.541027
1626.15, 0.541245
1626.66, 0.541535
1627.17, 0.541680
1627.68, 0.541608
1628.19, 0.541462
1628.7, 0.541680
1629.21, 0.542116
1629.72, 0.542552
1630.24, 0.542697
1630.75, 0.542770
1631.26, 0.542915
1631.78, 0.543206
1632.29, 0.543351
1632.8, 0.543496
1633.32, 0.543424
1633.83, 0.543569
1634.35, 0.543569
1634.86, 0.543714
1635.38, 0.544005
1635.9, 0.544295
1636.41, 0.544295
1636.93, 0.544731
1637.45, 0.545094
1637.96, 0.545385
1638.48, 0.545312
1639.0, 0.545748
1639.52, 0.546039
1640.04, 0.546111
1640.56, 0.546111
1641.08, 0.546475
1641.59, 0.546475
1642.11, 0.546184
1642.63, 0.546402
1643.16, 0.547128
1643.68, 0.547056
1644.2, 0.547128
1644.72, 0.547274
1645.24, 0.547492
1645.76, 0.547710
1646.29, 0.548073
1646.81, 0.548509
1647.33, 0.548726
1647.86, 0.548509
1648.38, 0.548581
1648.9, 0.548654
1649.43, 0.548363
1649.95, 0.548799
1650.48, 0.549162
1651.0, 0.549162
1651.53, 0.549453
1652.06, 0.549816
1652.58, 0.549889
1653.11, 0.549453
1653.64, 0.549671
1654.17, 0.550107
1654.69, 0.550397
1655.22, 0.550397
1655.75, 0.550543
1656.28, 0.550470
1656.81, 0.550978
1657.34, 0.551414
1657.87, 0.551632
1658.4, 0.551560
1658.93, 0.551632
1659.46, 0.551995
1659.99, 0.552286
1660.52, 0.552286
1661.05, 0.552359
1661.59, 0.552431
1662.12, 0.553012
1662.65, 0.553012
1663.19, 0.552940
1663.72, 0.553085
1664.26, 0.553375
1664.79, 0.553448
1665.32, 0.553666
1665.86, 0.553884
1666.39, 0.554029
1666.93, 0.554247
1667.47, 0.554320
1668.0, 0.554465
1668.54, 0.554828
1669.08, 0.555046
1669.61, 0.555337
1670.15, 0.555627
1670.69, 0.555991
1671.23, 0.555845
1671.77, 0.555845
1672.31, 0.556136
1672.85, 0.556572
1673.39, 0.556717
1673.93, 0.557080
1674.47, 0.557080
1675.01, 0.557008
1675.55, 0.557225
1676.09, 0.557443
1676.64, 0.557589
1677.18, 0.557734
1677.72, 0.558097
1678.26, 0.558606
1678.81, 0.558460
1679.35, 0.558896
1679.89, 0.559405
1680.44, 0.559477
1680.98, 0.559405
1681.53, 0.559623
1682.07, 0.559986
1682.62, 0.559986
1683.17, 0.559986
1683.71, 0.560422
1684.26, 0.560567
1684.81, 0.560785
1685.36, 0.561148
1685.9, 0.561366
1686.45, 0.561293
1687.0, 0.561584
1687.55, 0.561802
1688.1, 0.561947
1688.65, 0.562310
1689.2, 0.562456
1689.75, 0.562383
1690.3, 0.562601
1690.85, 0.562964
1691.41, 0.563182
1691.96, 0.563327
1692.51, 0.563618
1693.06, 0.563908
1693.61, 0.563763
1694.17, 0.564054
1694.72, 0.564562
1695.28, 0.564489
1695.83, 0.564272
1696.39, 0.564344
1696.94, 0.564489
1697.5, 0.564707
1698.05, 0.564998
1698.61, 0.565143
1699.17, 0.565361
1699.72, 0.565506
1700.28, 0.565870
1700.84, 0.566160
1701.4, 0.566160
1701.95, 0.566160
1702.51, 0.566596
1703.07, 0.567032
1703.63, 0.567177
1704.19, 0.567468
1704.75, 0.567686
1705.31, 0.567322
1705.88, 0.567250
1706.44, 0.567250
1707.0, 0.567540
1707.56, 0.567904
1708.12, 0.568412
1708.69, 0.568412
1709.25, 0.568557
1709.81, 0.568485
1710.38, 0.568848
1710.94, 0.569139
1711.51, 0.568993
1712.07, 0.569066
1712.64, 0.569284
1713.2, 0.569356
1713.77, 0.569720
1714.34, 0.569938
1714.9, 0.570301
1715.47, 0.570373
1716.04, 0.570446
1716.61, 0.570301
1717.18, 0.570373
1717.74, 0.570519
1718.31, 0.570519
1718.88, 0.570882
1719.45, 0.571100
1720.02, 0.571100
1720.59, 0.571245
1721.17, 0.571536
1721.74, 0.571608
1722.31, 0.571826
1722.88, 0.571971
1723.45, 0.572044
1724.03, 0.572262
1724.6, 0.572262
1725.18, 0.572480
1725.75, 0.572480
1726.33, 0.572771
1726.9, 0.572916
1727.48, 0.572988
1728.05, 0.573134
1728.63, 0.573424
1729.2, 0.573279
1729.78, 0.573424
1730.36, 0.573788
1730.94, 0.573933
1731.51, 0.573860
1732.09, 0.574005
1732.67, 0.574005
1733.25, 0.574296
1733.83, 0.574369
1734.41, 0.574296
1734.99, 0.574223
1735.57, 0.574587
1736.15, 0.574804
1736.73, 0.574877
1737.32, 0.574732
1737.9, 0.575458
1738.48, 0.576112
1739.07, 0.576330
1739.65, 0.576257
1740.23, 0.576403
1740.82, 0.576475
1741.4, 0.576620
1741.99, 0.576838
1742.57, 0.576911
1743.16, 0.576984
1743.74, 0.577492
1744.33, 0.577710
1744.92, 0.577565
1745.51, 0.577637
1746.09, 0.577928
1746.68, 0.577928
1747.27, 0.577928
1747.86, 0.578001
1748.45, 0.578364
1749.04, 0.578654
1749.63, 0.578800
1750.22, 0.579018
1750.81, 0.579599
1751.4, 0.579599
1751.99, 0.579599
1752.59, 0.579671
1753.18, 0.579817
1753.77, 0.580107
1754.37, 0.580543
1754.96, 0.580616
1755.56, 0.580543
1756.15, 0.580325
1756.74, 0.580616
1757.34, 0.580979
1757.94, 0.581342
1758.53, 0.581560
1759.13, 0.581633
1759.73, 0.581851
1760.32, 0.582141
1760.92, 0.582141
1761.52, 0.582141
1762.12, 0.582359
1762.72, 0.582650
1763.32, 0.582868
1763.92, 0.583231
1764.52, 0.583521
1765.12, 0.583594
1765.72, 0.583521
1766.32, 0.583667
1766.92, 0.583812
1767.53, 0.584248
1768.13, 0.584684
1768.73, 0.584974
1769.34, 0.584756
1769.94, 0.584684
1770.55, 0.584684
1771.15, 0.584902
1771.76, 0.585119
1772.36, 0.585555
1772.97, 0.585555
1773.57, 0.585192
1774.18, 0.585555
1774.79, 0.586136
1775.4, 0.586282
1776.0, 0.586427
1776.61, 0.586500
1777.22, 0.586718
1777.83, 0.586645
1778.44, 0.586572
1779.05, 0.586935
1779.66, 0.587299
1780.27, 0.587444
1780.88, 0.587589
1781.5, 0.587662
1782.11, 0.588098
1782.72, 0.588098
1783.33, 0.588316
1783.95, 0.588461
1784.56, 0.588388
1785.18, 0.588534
1785.79, 0.588606
1786.41, 0.588606
1787.02, 0.588897
1787.64, 0.589333
1788.26, 0.589550
1788.87, 0.589260
1789.49, 0.589405
1790.11, 0.589478
1790.73, 0.589478
1791.35, 0.589623
1791.96, 0.589768
1792.58, 0.589768
1793.21, 0.589768
1793.83, 0.589914
1794.45, 0.590059
1795.07, 0.589841
1795.69, 0.589841
1796.31, 0.590132
1796.93, 0.590640
1797.56, 0.590785
1798.18, 0.591076
1798.8, 0.590931
1799.43, 0.590567
1800.05, 0.590567
1800.68, 0.591076
1801.3, 0.591512
1801.93, 0.591512
1802.56, 0.591512
1803.18, 0.591512
1803.81, 0.591657
1804.44, 0.591948
1805.07, 0.591802
1805.7, 0.591948
1806.33, 0.592238
1806.95, 0.592456
1807.58, 0.592311
1808.22, 0.592383
1808.85, 0.592383
1809.48, 0.592674
1810.11, 0.592819
1810.74, 0.592965
1811.38, 0.592747
1812.01, 0.592601
1812.64, 0.592892
1813.28, 0.593328
1813.91, 0.593618
1814.55, 0.593618
1815.18, 0.593546
1815.82, 0.593618
1816.45, 0.593764
1817.09, 0.594054
1817.73, 0.594054
1818.36, 0.594054
1819.0, 0.594345
1819.64, 0.594781
1820.28, 0.594853
1820.92, 0.594926
1821.56, 0.595216
1822.2, 0.595434
1822.84, 0.595216
1823.48, 0.595362
1824.12, 0.595362
1824.76, 0.595362
1825.41, 0.595652
1826.05, 0.595798
1826.69, 0.596016
1827.34, 0.596451
1827.98, 0.596669
1828.63, 0.596451
1829.27, 0.596524
1829.92, 0.596960
1830.56, 0.597105
1831.21, 0.596887
1831.86, 0.596887
1832.5, 0.597178
1833.15, 0.597541
1833.8, 0.597759
1834.45, 0.597686
1835.1, 0.597904
1835.75, 0.598195
1836.4, 0.598267
1837.05, 0.598195
1837.7, 0.598267
1838.35, 0.598267
1839.01, 0.598558
1839.66, 0.598848
1840.31, 0.599139
1840.96, 0.598994
1841.62, 0.599139
1842.27, 0.599430
1842.93, 0.599502
1843.58, 0.599575
1844.24, 0.599865
1844.9, 0.599938
1845.55, 0.600301
1846.21, 0.600301
1846.87, 0.600374
1847.53, 0.600374
1848.18, 0.600592
1848.84, 0.601100
1849.5, 0.601246
1850.16, 0.601246
1850.82, 0.601318
1851.48, 0.601318
1852.14, 0.601246
1852.81, 0.601318
1853.47, 0.601827
1854.13, 0.601972
1854.8, 0.602190
1855.46, 0.602408
1856.12, 0.602408
1856.79, 0.602335
1857.45, 0.602698
1858.12, 0.602844
1858.79, 0.602916
1859.45, 0.602844
1860.12, 0.603134
1860.79, 0.603280
1861.46, 0.603498
1862.12, 0.603498
1862.79, 0.603498
1863.46, 0.603643
1864.13, 0.603788
1864.8, 0.603861
1865.48, 0.604079
1866.15, 0.604006
1866.82, 0.604151
1867.49, 0.603933
1868.16, 0.604079
1868.84, 0.604224
1869.51, 0.604514
1870.19, 0.604369
1870.86, 0.604224
1871.54, 0.604442
1872.21, 0.604660
1872.89, 0.604805
1873.56, 0.605096
1874.24, 0.605168
1874.92, 0.605168
1875.6, 0.604950
1876.28, 0.604732
1876.96, 0.604732
1877.64, 0.605096
1878.32, 0.605241
1879.0, 0.605241
1879.68, 0.605096
1880.36, 0.605168
1881.04, 0.605168
1881.73, 0.605313
1882.41, 0.605168
1883.09, 0.605168
1883.78, 0.605023
1884.46, 0.604950
1885.15, 0.604950
1885.83, 0.605168
1886.52, 0.605096
1887.21, 0.604950
1887.89, 0.604878
1888.58, 0.604732
1889.27, 0.604514
1889.96, 0.604514
1890.65, 0.604732
1891.34, 0.604660
1892.03, 0.604369
1892.72, 0.604224
1893.41, 0.604079
1894.1, 0.604297
1894.79, 0.604297
1895.49, 0.604006
1896.18, 0.603788
1896.87, 0.603715
1897.57, 0.603498
1898.26, 0.603352
1898.96, 0.603352
1899.65, 0.603570
1900.35, 0.603352
1901.05, 0.603280
1901.74, 0.603207
1902.44, 0.602989
1903.14, 0.603062
1903.84, 0.603134
1904.54, 0.602844
1905.24, 0.603062
1905.94, 0.603134
1906.64, 0.602916
1907.34, 0.602989
1908.04, 0.603062
1908.75, 0.602698
1909.45, 0.602553
1910.15, 0.602553
1910.86, 0.602698
1911.56, 0.602989
1912.27, 0.602844
1912.97, 0.602626
1913.68, 0.602698
1914.39, 0.602844
1915.09, 0.602844
1915.8, 0.602989
1916.51, 0.603280
1917.22, 0.603280
1917.93, 0.603134
1918.64, 0.603280
1919.35, 0.603498
1920.06, 0.603643
1920.77, 0.603788
1921.48, 0.603788
1922.19, 0.603933
1922.91, 0.604079
1923.62, 0.604079
1924.33, 0.603933
1925.05, 0.604224
1925.76, 0.604369
1926.48, 0.604297
1927.19, 0.604297
1927.91, 0.604732
1928.63, 0.604878
1929.35, 0.605096
1930.07, 0.605168
1930.78, 0.605386
1931.5, 0.605531
1932.22, 0.605749
1932.94, 0.605459
1933.66, 0.605459
1934.39, 0.605822
1935.11, 0.606185
1935.83, 0.606185
1936.55, 0.606476
1937.28, 0.606912
1938.0, 0.606984
1938.73, 0.606839
1939.45, 0.607275
1940.18, 0.607493
1940.9, 0.607638
1941.63, 0.607783
1942.36, 0.607638
1943.09, 0.607711
1943.81, 0.608001
1944.54, 0.608001
1945.27, 0.608146
1946.0, 0.608437
1946.73, 0.608582
1947.47, 0.608510
1948.2, 0.608728
1948.93, 0.608800
1949.66, 0.609236
1950.4, 0.609309
1951.13, 0.609527
1951.86, 0.609817
1952.6, 0.609962
1953.34, 0.609962
1954.07, 0.610253
1954.81, 0.610471
1955.55, 0.610471
1956.29, 0.610544
1957.02, 0.610761
1957.76, 0.610907
1958.5, 0.611052
1959.24, 0.611052
1959.98, 0.611197
1960.72, 0.611270
1961.47, 0.611415
1962.21, 0.611561
1962.95, 0.611851
1963.7, 0.611924
1964.44, 0.611996
1965.18, 0.612069
1965.93, 0.612214
1966.67, 0.612432
1967.42, 0.612650
1968.17, 0.612360
1968.92, 0.612287
1969.66, 0.612578
1970.41, 0.612578
1971.16, 0.612505
1971.91, 0.612795
1972.66, 0.613013
1973.41, 0.613013
1974.16, 0.613086
1974.92, 0.613594
1975.67, 0.613740
1976.42, 0.613449
1977.18, 0.613377
1977.93, 0.613522
1978.69, 0.613885
1979.44, 0.613958
1980.2, 0.613958
1980.95, 0.614248
1981.71, 0.614394
1982.47, 0.614394
1983.23, 0.614684
1983.99, 0.614975
1984.74, 0.614757
1985.51, 0.614757
1986.27, 0.614757
1987.03, 0.614829
1987.79, 0.614757
1988.55, 0.614975
1989.32, 0.615338
1990.08, 0.615556
1990.84, 0.615628
1991.61, 0.615846
1992.37, 0.615701
1993.14, 0.615628
1993.9, 0.616064
1994.67, 0.616355
1995.44, 0.616210
1996.21, 0.616210
1996.98, 0.616427
1997.75, 0.616500
1998.52, 0.616500
1999.29, 0.616718
2000.06, 0.617009
2000.83, 0.617444
2001.6, 0.617444
2002.38, 0.617227
2003.15, 0.617299
2003.93, 0.617590
2004.7, 0.617735
2005.48, 0.617735
2006.25, 0.617590
2007.03, 0.617735
2007.81, 0.617953
2008.58, 0.618316
2009.36, 0.618461
2010.14, 0.618679
2010.92, 0.618897
2011.7, 0.618970
2012.48, 0.618897
2013.26, 0.618970
2014.05, 0.619115
2014.83, 0.619478
2015.61, 0.619769
2016.4, 0.619696
2017.18, 0.619624
2017.97, 0.619842
2018.75, 0.619987
2019.54, 0.620132
2020.32, 0.620205
2021.11, 0.620205
2021.9, 0.620568
2022.69, 0.620859
2023.48, 0.620786
2024.27, 0.620859
2025.06, 0.621149
2025.85, 0.621149
2026.64, 0.621294
2027.44, 0.621294
2028.23, 0.621585
2029.02, 0.621803
2029.82, 0.621803
2030.61, 0.622021
2031.41, 0.622093
2032.2, 0.622239
2033.0, 0.622457
2033.8, 0.622675
2034.6, 0.622747
2035.4, 0.622965
2036.2, 0.622965
2037.0, 0.622965
2037.8, 0.623183
2038.6, 0.623474
2039.4, 0.623619
2040.2, 0.623401
2041.01, 0.623619
2041.81, 0.623909
2042.61, 0.623982
2043.42, 0.624200
2044.22, 0.624563
2045.03, 0.624781
2045.84, 0.624563
2046.65, 0.624491
2047.46, 0.624636
2048.26, 0.624854
2049.07, 0.625072
2049.88, 0.625144
2050.69, 0.625144
2051.51, 0.625362
2052.32, 0.625508
2053.13, 0.625435
2053.94, 0.625580
2054.76, 0.625943
2055.57, 0.625580
2056.39, 0.625798
2057.2, 0.625943
2058.02, 0.625943
2058.84, 0.625943
2059.66, 0.626161
2060.48, 0.626161
2061.29, 0.626307
2062.11, 0.626525
2062.94, 0.626525
2063.76, 0.626670
2064.58, 0.626742
2065.4, 0.626742
2066.22, 0.626960
2067.05, 0.626815
2067.87, 0.626742
2068.7, 0.626960
2069.52, 0.627033
2070.35, 0.627106
2071.18, 0.627469
2072.0, 0.627614
2072.83, 0.627251
2073.66, 0.627106
2074.49, 0.627469
2075.32, 0.627614
2076.15, 0.627614
2076.98, 0.627469
2077.82, 0.627469
2078.65, 0.627469
2079.48, 0.627469
2080.32, 0.627396
2081.15, 0.627832
2081.99, 0.627905
2082.83, 0.627832
2083.66, 0.627832
2084.5, 0.627977
2085.34, 0.627832
2086.18, 0.627905
2087.02, 0.628123
2087.86, 0.627977
2088.7, 0.627832
2089.54, 0.628195
2090.39, 0.627977
2091.23, 0.627977
2092.07, 0.628195
2092.92, 0.628558
2093.76, 0.628558
2094.61, 0.628341
2095.45, 0.628123
2096.3, 0.628341
2097.15, 0.628486
2098.0, 0.628486
2098.85, 0.628341
2099.7, 0.628341
2100.55, 0.628486
2101.4, 0.628558
2102.25, 0.628631
2103.1, 0.628704
2103.96, 0.628994
2104.81, 0.629212
2105.67, 0.628994
2106.52, 0.628776
2107.38, 0.628994
2108.24, 0.629285
2109.09, 0.629140
2109.95, 0.629140
2110.81, 0.629285
2111.67, 0.629430
2112.53, 0.629430
2113.39, 0.629648
2114.25, 0.629648
2115.12, 0.629866
2115.98, 0.629721
2116.84, 0.629648
2117.71, 0.629866
2118.58, 0.630229
2119.44, 0.630302
2120.31, 0.630229
2121.18, 0.630229
2122.04, 0.630374
2122.91, 0.630447
2123.78, 0.630592
2124.65, 0.630665
2125.52, 0.630883
2126.4, 0.630883
2127.27, 0.630956
2128.14, 0.631173
2129.02, 0.631173
2129.89, 0.631028
2130.77, 0.631173
2131.64, 0.631319
2132.52, 0.631537
2133.4, 0.631682
2134.27, 0.631827
2135.15, 0.632045
2136.03, 0.632336
2136.91, 0.632190
2137.79, 0.632336
2138.68, 0.632336
2139.56, 0.632554
2140.44, 0.632772
2141.33, 0.632917
2142.21, 0.632844
2143.1, 0.632699
2143.99, 0.632699
2144.87, 0.632626
2145.76, 0.632772
2146.65, 0.632990
2147.54, 0.633280
2148.43, 0.633280
2149.32, 0.633135
2150.21, 0.633062
2151.1, 0.633135
2151.99, 0.633571
2152.89, 0.633571
2153.78, 0.633643
2154.68, 0.633789
2155.57, 0.633643
2156.47, 0.633425
2157.37, 0.633571
2158.27, 0.634365
2159.16, 0.634655
2160.06, 0.633932
2160.96, 0.634149
2161.86, 0.634438
2162.77, 0.634004
2163.67, 0.633498
2164.57, 0.633860
2165.48, 0.633787
2166.38, 0.633643
2167.29, 0.634221
2168.2, 0.634149
2169.1, 0.633715
2170.01, 0.634510
2170.92, 0.634871
2171.83, 0.634727
2172.74, 0.634510
2173.65, 0.634149
2174.56, 0.634149
2175.47, 0.634149
2176.39, 0.634004
2177.3, 0.634076
2178.22, 0.634510
2179.13, 0.634510
2180.05, 0.634076
2180.96, 0.634510
2181.88, 0.634727
2182.8, 0.634655
2183.72, 0.634799
2184.64, 0.634655
2185.56, 0.633932
2186.48, 0.633282
2187.41, 0.633426
2188.33, 0.633137
2189.25, 0.633137
2190.18, 0.633282
2191.1, 0.632848
2192.03, 0.632198
2192.96, 0.632198
2193.89, 0.632198
2194.82, 0.631547
2195.74, 0.631186
2196.68, 0.631475
2197.61, 0.631836
2198.54, 0.631764
2199.47, 0.631042
2200.4, 0.630753
2201.34, 0.631475
2202.28, 0.631331
2203.21, 0.631475
2204.15, 0.631547
2205.08, 0.631331
2206.02, 0.631114
2206.96, 0.631475
2207.9, 0.631042
2208.84, 0.631475
2209.78, 0.632342
2210.73, 0.631909
2211.67, 0.631692
2212.61, 0.632487
2213.56, 0.632848
2214.5, 0.632848
2215.45, 0.633065
2216.4, 0.633571
2217.35, 0.633571
2218.3, 0.632848
2219.24, 0.632848
2220.2, 0.633354
2221.15, 0.633498
2222.1, 0.633354
2223.05, 0.633065
2224.0, 0.633065
2224.96, 0.633065
2225.91, 0.632703
2226.87, 0.632559
2227.83, 0.632848
2228.79, 0.633282
2229.74, 0.633065
2230.7, 0.632920
2231.66, 0.633065
2232.63, 0.632776
2233.59, 0.633137
2234.55, 0.633137
2235.51, 0.633209
2236.48, 0.632848
2237.44, 0.633137
2238.41, 0.632920
2239.38, 0.632414
2240.34, 0.632125
2241.31, 0.631909
2242.28, 0.631981
2243.25, 0.632053
2244.22, 0.632125
2245.19, 0.632125
2246.17, 0.632053
2247.14, 0.632125
2248.12, 0.631836
2249.09, 0.631403
2250.07, 0.631836
2251.04, 0.632125
2252.02, 0.631692
2253.0, 0.631114
2253.98, 0.631547
2254.96, 0.631692
2255.94, 0.631475
2256.92, 0.631475
2257.91, 0.630753
2258.89, 0.630463
2259.88, 0.630174
2260.86, 0.630174
2261.85, 0.630174
2262.83, 0.629813
2263.82, 0.629596
2264.81, 0.629380
2265.8, 0.629163
2266.79, 0.628801
2267.78, 0.628513
2268.78, 0.628513
2269.77, 0.628368
2270.76, 0.627934
2271.76, 0.627645
2272.75, 0.627356
2273.75, 0.626417
2274.75, 0.626056
2275.75, 0.625550
2276.75, 0.625261
2277.75, 0.625478
2278.75, 0.624394
2279.75, 0.623093
2280.75, 0.622370
2281.76, 0.621214
2282.76, 0.619625
2283.77, 0.618179
2284.77, 0.617023
2285.78, 0.615722
2286.79, 0.614350
2287.8, 0.612832
2288.81, 0.611604
2289.82, 0.609725
2290.83, 0.607629
2291.84, 0.605823
2292.86, 0.604595
2293.87, 0.603800
2294.89, 0.602499
2295.91, 0.601415
2296.92, 0.599970
2297.94, 0.599031
2298.96, 0.598886
2299.98, 0.599103
2301.0, 0.599753
2302.02, 0.600042
2303.04, 0.600837
2304.07, 0.602282
2305.09, 0.604306
2306.12, 0.606257
2307.15, 0.607846
2308.17, 0.609002
2309.2, 0.610881
2310.23, 0.613483
2311.26, 0.615578
2312.29, 0.617168
2313.32, 0.618974
2314.35, 0.621142
2315.39, 0.622370
2316.42, 0.623599
2317.46, 0.624538
2318.5, 0.625333
2319.53, 0.626489
2320.57, 0.627501
2321.61, 0.628079
2322.65, 0.628874
2323.69, 0.629380
2324.73, 0.630174
2325.78, 0.630608
2326.82, 0.630753
2327.86, 0.630969
2328.91, 0.631331
2329.96, 0.631909
2331.01, 0.632414
2332.05, 0.632487
2333.1, 0.632342
2334.15, 0.632776
2335.21, 0.632776
2336.26, 0.632703
2337.31, 0.632776
2338.36, 0.633498
2339.42, 0.634004
2340.48, 0.634221
2341.53, 0.633932
2342.59, 0.633715
2343.65, 0.633354
2344.71, 0.633282
2345.77, 0.633354
2346.83, 0.633282
2347.9, 0.633643
2348.96, 0.633715
2350.02, 0.633571
2351.09, 0.633137
2352.16, 0.633354
2353.23, 0.633860
2354.29, 0.634004
2355.36, 0.634149
2356.43, 0.633932
2357.51, 0.633860
2358.58, 0.634221
2359.65, 0.634149
2360.73, 0.633787
2361.8, 0.633932
2362.88, 0.633643
2363.96, 0.633137
2365.03, 0.633137
2366.11, 0.633137
2367.19, 0.633137
2368.27, 0.633426
2369.36, 0.633426
2370.44, 0.633354
2371.53, 0.633209
2372.61, 0.632776
2373.7, 0.632559
2374.78, 0.632559
2375.87, 0.632920
2376.96, 0.632920
2378.05, 0.632776
2379.14, 0.632414
2380.24, 0.631836
2381.33, 0.631836
2382.42, 0.631836
2383.52, 0.631331
2384.61, 0.630825
2385.71, 0.630391
2386.81, 0.629958
2387.91, 0.629885
2389.01, 0.629885
2390.11, 0.629380
2391.22, 0.628874
2392.32, 0.628368
2393.42, 0.628151
2394.53, 0.628296
2395.64, 0.628440
2396.74, 0.628223
2397.85, 0.627645
2398.96, 0.627501
2400.07, 0.627718
2401.18, 0.628079
2402.3, 0.627862
2403.41, 0.627501
2404.52, 0.627356
2405.64, 0.627718
2406.76, 0.628007
2407.88, 0.628007
2408.99, 0.628007
2410.11, 0.628151
2411.23, 0.628007
2412.36, 0.627862
2413.48, 0.628007
2414.6, 0.628296
2415.73, 0.628151
2416.85, 0.628151
2417.98, 0.628368
2419.11, 0.628585
2420.24, 0.628657
2421.37, 0.628946
2422.5, 0.628729
2423.64, 0.628657
2424.77, 0.628440
2425.9, 0.627790
2427.04, 0.627573
2428.18, 0.627790
2429.31, 0.627790
2430.45, 0.627356
2431.59, 0.626778
2432.73, 0.626417
2433.88, 0.625911
2435.02, 0.625694
2436.16, 0.625622
2437.31, 0.625478
2438.45, 0.624972
2439.6, 0.624466
2440.75, 0.623743
2441.9, 0.622948
2443.05, 0.622732
2444.2, 0.622659
2445.35, 0.622081
2446.51, 0.621142
2447.67, 0.620419
2448.82, 0.620275
2449.98, 0.619769
2451.14, 0.618830
2452.3, 0.618107
2453.46, 0.617601
2454.62, 0.617457
2455.78, 0.616662
2456.94, 0.615795
2458.11, 0.615361
2459.28, 0.615289
2460.44, 0.614855
2461.61, 0.614350
2462.78, 0.613916
2463.95, 0.613483
2465.12, 0.613627
2466.3, 0.613410
2467.47, 0.613410
2468.65, 0.613410
2469.82, 0.613121
2471.0, 0.612904
2472.18, 0.612977
2473.36, 0.612904
2474.54, 0.612688
2475.72, 0.612760
2476.9, 0.613121
2478.08, 0.613193
2479.27, 0.612688
2480.46, 0.612326
2481.64, 0.612688
2482.83, 0.613049
2484.02, 0.612904
2485.21, 0.612615
2486.4, 0.612543
2487.6, 0.612977
2488.79, 0.612977
2489.99, 0.612760
2491.18, 0.612543
2492.38, 0.612543
2493.58, 0.612399
2494.78, 0.612182
2495.98, 0.612326
2497.18, 0.612543
2498.39, 0.612399
2499.59, 0.612615
2500.8, 0.612688
2502.01, 0.612543
2503.21, 0.612688
2504.42, 0.612543
2505.63, 0.612760
2506.84, 0.613483
2508.06, 0.613266
2509.27, 0.613410
2510.49, 0.613699
2511.7, 0.614061
2512.92, 0.614422
2514.14, 0.615000
2515.36, 0.615650
2516.58, 0.616012
2517.8, 0.616517
2519.03, 0.616734
2520.25, 0.617240
2521.48, 0.618035
2522.7, 0.618396
2523.93, 0.618757
2525.16, 0.619625
2526.39, 0.620203
2527.62, 0.620925
2528.86, 0.621431
2530.09, 0.621648
2531.33, 0.622154
2532.56, 0.622515
2533.8, 0.622587
2535.04, 0.622876
2536.28, 0.623599
2537.52, 0.624177
2538.76, 0.624321
2540.01, 0.624177
2541.25, 0.624538
2542.5, 0.624972
2543.75, 0.625333
2544.99, 0.625261
2546.24, 0.624972
2547.49, 0.624827
2548.75, 0.625261
2550.0, 0.625767
2551.26, 0.626200
2552.51, 0.626056
2553.77, 0.626128
2555.03, 0.626200
2556.29, 0.626345
2557.55, 0.626489
2558.81, 0.626056
2560.08, 0.624972
2561.34, 0.624827
2562.61, 0.624899
2563.88, 0.624899
2565.14, 0.625333
2566.41, 0.625550
2567.68, 0.625622
2568.96, 0.625044
2570.23, 0.624899
2571.51, 0.624827
2572.78, 0.624249
2574.06, 0.624105
2575.34, 0.624032
2576.62, 0.624032
2577.9, 0.624394
2579.18, 0.624177
2580.47, 0.623454
2581.75, 0.623382
2583.04, 0.622659
2584.32, 0.622370
2585.61, 0.622370
2586.9, 0.622081
2588.2, 0.622226
2589.49, 0.622226
2590.78, 0.622298
2592.08, 0.621937
2593.37, 0.619986
2594.67, 0.618468
2595.97, 0.619263
2597.27, 0.620925
2598.57, 0.621720
2599.88, 0.621142
2601.18, 0.620492
2602.49, 0.619914
2603.79, 0.618902
2605.1, 0.618396
2606.41, 0.618830
2607.72, 0.619480
2609.03, 0.619408
2610.35, 0.619408
2611.66, 0.619480
2612.98, 0.619046
2614.3, 0.618613
2615.62, 0.617746
2616.94, 0.617312
2618.26, 0.617457
2619.58, 0.616734
2620.91, 0.616951
2622.23, 0.617601
2623.56, 0.617818
2624.89, 0.617312
2626.22, 0.616156
2627.55, 0.615939
2628.88, 0.615506
2630.21, 0.614494
2631.55, 0.614855
2632.89, 0.615434
2634.22, 0.615434
2635.56, 0.615361
2636.9, 0.615072
2638.25, 0.614566
2639.59, 0.614061
2640.93, 0.613266
2642.28, 0.612615
2643.63, 0.612182
2644.98, 0.611315
2646.33, 0.611026
2647.68, 0.610953
2649.03, 0.610448
2650.39, 0.609364
2651.74, 0.608352
2653.1, 0.607485
2654.46, 0.606835
2655.82, 0.606257
2657.18, 0.605317
2658.54, 0.603872
2659.9, 0.602933
2661.27, 0.602138
2662.64, 0.601054
2664.01, 0.599175
2665.38, 0.597007
2666.74, 0.595418
2668.12, 0.594406
2669.49, 0.592021
2670.87, 0.590721
2672.24, 0.590649
2673.62, 0.589420
2675.0, 0.587108
2676.38, 0.584579
2677.76, 0.582266
2679.15, 0.580171
2680.54, 0.578437
2681.92, 0.575763
2683.31, 0.572584
2684.7, 0.569260
2686.09, 0.565285
2687.48, 0.560733
2688.88, 0.555530
2690.27, 0.549533
2691.67, 0.542162
2693.07, 0.533202
2694.47, 0.524025
2695.87, 0.515210
2697.27, 0.506177
2698.67, 0.496711
2700.08, 0.487173
2701.49, 0.479297
2702.9, 0.473950
2704.31, 0.470409
2705.72, 0.469253
2707.13, 0.468819
2708.54, 0.468675
2709.96, 0.468747
2711.38, 0.469397
2712.8, 0.470409
2714.22, 0.470481
2715.64, 0.469469
2717.06, 0.467085
2718.49, 0.463833
2719.91, 0.459931
2721.34, 0.456752
2722.77, 0.453500
2724.2, 0.449670
2725.63, 0.446635
2727.07, 0.443890
2728.5, 0.440855
2729.94, 0.437386
2731.38, 0.433701
2732.82, 0.430160
2734.26, 0.426403
2735.7, 0.423079
2737.15, 0.419899
2738.59, 0.415998
2740.04, 0.412529
2741.49, 0.410072
2742.94, 0.407832
2744.39, 0.404870
2745.84, 0.401907
2747.3, 0.398655
2748.76, 0.395187
2750.21, 0.391791
2751.67, 0.388250
2753.14, 0.384420
2754.6, 0.380085
2756.06, 0.376255
2757.53, 0.372570
2759.0, 0.368451
2760.46, 0.364838
2761.94, 0.362092
2763.41, 0.360936
2764.88, 0.360936
2766.36, 0.361442
2767.83, 0.361514
2769.31, 0.361008
2770.79, 0.360285
2772.27, 0.359202
2773.76, 0.357829
2775.24, 0.355661
2776.73, 0.353132
2778.22, 0.351109
2779.71, 0.349158
2781.2, 0.347640
2782.69, 0.346412
2784.18, 0.345111
2785.68, 0.343810
2787.18, 0.343088
2788.68, 0.342510
2790.18, 0.341498
2791.68, 0.340053
2793.19, 0.338752
2794.69, 0.337596
2796.2, 0.336368
2797.71, 0.335067
2799.22, 0.333983
2800.73, 0.332610
2802.24, 0.331454
2803.76, 0.330515
2805.28, 0.329647
2806.8, 0.328997
2808.32, 0.327986
2809.84, 0.326829
2811.36, 0.326107
2812.89, 0.325312
2814.42, 0.324373
2815.94, 0.323722
2817.48, 0.322927
2819.01, 0.322422
2820.54, 0.321916
2822.08, 0.320976
2823.61, 0.320182
2825.15, 0.319676
2826.69, 0.318809
2828.23, 0.317869
2829.78, 0.317147
2831.32, 0.316496
2832.87, 0.315485
2834.42, 0.314473
2835.97, 0.313967
2837.52, 0.313534
2839.08, 0.312811
2840.63, 0.311872
2842.19, 0.310788
2843.75, 0.309921
2845.31, 0.308620
2846.87, 0.307319
2848.44, 0.306091
2850.0, 0.304863
2851.57, 0.303345
2853.14, 0.301466
2854.71, 0.299804
2856.28, 0.298287
2857.86, 0.296336
2859.43, 0.294457
2861.01, 0.292651
2862.59, 0.290772
2864.17, 0.289254
2865.76, 0.288026
2867.34, 0.287014
2868.93, 0.285858
2870.52, 0.284774
2872.11, 0.284124
2873.7, 0.284052
2875.29, 0.284052
2876.89, 0.283763
2878.49, 0.283763
2880.08, 0.284124
2881.69, 0.284413
2883.29, 0.284341
2884.89, 0.284341
2886.5, 0.284269
2888.11, 0.284124
2889.72, 0.283690
2891.33, 0.283329
2892.94, 0.282896
2894.56, 0.282390
2896.17, 0.281812
2897.79, 0.281306
2899.42, 0.280511
2901.04, 0.279716
2902.66, 0.278994
2904.29, 0.278488
2905.92, 0.277837
2907.55, 0.277187
2909.18, 0.276465
2910.81, 0.275742
2912.45, 0.275019
2914.08, 0.274297
2915.72, 0.273357
2917.36, 0.272779
2919.01, 0.272274
2920.65, 0.271551
2922.3, 0.270612
2923.94, 0.269889
2925.59, 0.269383
2927.25, 0.268805
2928.9, 0.268227
2930.56, 0.267649
2932.21, 0.267360
2933.87, 0.266926
2935.53, 0.266204
2937.2, 0.265553
2938.86, 0.265048
2940.53, 0.264542
2942.2, 0.264108
2943.87, 0.263675
2945.54, 0.263313
2947.22, 0.262952
2948.89, 0.262157
2950.57, 0.261579
2952.25, 0.261001
2953.93, 0.260784
2955.62, 0.260784
2957.3, 0.260351
2958.99, 0.259917
2960.68, 0.259556
2962.37, 0.259050
2964.07, 0.258761
2965.76, 0.258761
2967.46, 0.258544
2969.16, 0.258255
2970.86, 0.257966
2972.56, 0.257677
2974.27, 0.257460
2975.98, 0.257171
2977.69, 0.256882
2979.4, 0.256376
2981.11, 0.255654
2982.83, 0.254859
2984.54, 0.253920
2986.26, 0.252763
2987.98, 0.251824
2989.71, 0.250234
2991.43, 0.248356
2993.16, 0.246260
2994.89, 0.243659
2996.62, 0.240696
2998.35, 0.237806
3000.09, 0.234410
3001.83, 0.230941
3003.57, 0.227328
3005.31, 0.223354
3007.05, 0.219380
3008.79, 0.215405
3010.54, 0.211070
3012.29, 0.206662
3014.04, 0.201532
3015.8, 0.196257
3017.55, 0.190909
3019.31, 0.185345
3021.07, 0.179781
3022.83, 0.174073
3024.59, 0.168581
3026.36, 0.163234
3028.13, 0.158465
3029.9, 0.154491
3031.67, 0.151383
3033.44, 0.149505
3035.22, 0.148060
3037.0, 0.147337
3038.78, 0.146831
3040.56, 0.146325
3042.34, 0.145675
3044.13, 0.145241
3045.92, 0.145169
3047.71, 0.145675
3049.5, 0.147048
3051.3, 0.149722
3053.09, 0.153551
3054.89, 0.158754
3056.69, 0.164824
3058.5, 0.171688
3060.3, 0.179131
3062.11, 0.186935
3063.92, 0.194739
3065.73, 0.202254
3067.55, 0.209336
3069.36, 0.216272
3071.18, 0.222631
3073.0, 0.228412
3074.82, 0.233831
3076.65, 0.238890
3078.48, 0.243659
3080.31, 0.248211
3082.14, 0.252258
3083.97, 0.256087
3085.8, 0.259700
3087.64, 0.262952
3089.48, 0.265915
3091.33, 0.268877
3093.17, 0.271479
3095.02, 0.273719
3096.87, 0.275886
3098.72, 0.278127
3100.57, 0.280294
3102.43, 0.282101
3104.28, 0.283835
3106.14, 0.285425
3108.01, 0.286942
3109.87, 0.288460
3111.74, 0.289688
3113.61, 0.290700
3115.48, 0.291856
3117.35, 0.292940
3119.23, 0.293951
3121.1, 0.294891
3122.98, 0.295975
3124.87, 0.296986
3126.75, 0.297709
3128.64, 0.298648
3130.53, 0.299515
3132.42, 0.300382
3134.31, 0.301250
3136.21, 0.302044
3138.11, 0.302839
3140.01, 0.303706
3141.91, 0.304429
3143.82, 0.305368
3145.73, 0.306235
3147.64, 0.307103
3149.55, 0.307825
3151.46, 0.308909
3153.38, 0.310065
3155.3, 0.311005
3157.22, 0.311727
3159.14, 0.312667
3161.07, 0.313678
3163.0, 0.314473
3164.93, 0.315340
3166.86, 0.316424
3168.8, 0.317219
3170.74, 0.318158
3172.68, 0.319387
3174.62, 0.320398
3176.56, 0.321482
3178.51, 0.322566
3180.46, 0.323361
3182.42, 0.324156
3184.37, 0.325095
3186.33, 0.326179
3188.29, 0.327118
3190.25, 0.328130
3192.21, 0.328780
3194.18, 0.329503
3196.15, 0.330515
3198.12, 0.331382
3200.09, 0.332032
3202.07, 0.332899
3204.05, 0.333766
3206.03, 0.334706
3208.02, 0.335573
3210.0, 0.336440
3211.99, 0.337307
3213.98, 0.338102
3215.98, 0.338969
3217.97, 0.339619
3219.97, 0.340559
3221.97, 0.341498
3223.98, 0.342365
3225.98, 0.343015
3227.99, 0.343594
3230.0, 0.344388
3232.02, 0.345400
3234.03, 0.346267
3236.05, 0.347062
3238.07, 0.348001
3240.1, 0.349013
3242.12, 0.350025
3244.15, 0.350964
3246.18, 0.352048
3248.22, 0.352987
3250.25, 0.354071
3252.29, 0.355011
3254.33, 0.355805
3256.38, 0.356889
3258.43, 0.358118
3260.47, 0.359202
3262.53, 0.360285
3264.58, 0.361297
3266.64, 0.362453
3268.7, 0.363682
3270.76, 0.364910
3272.82, 0.366066
3274.89, 0.367295
3276.96, 0.368668
3279.04, 0.369824
3281.11, 0.370980
3283.19, 0.372136
3285.27, 0.373364
3287.35, 0.374737
3289.44, 0.375894
3291.53, 0.377122
3293.62, 0.378350
3295.71, 0.379651
3297.81, 0.380952
3299.91, 0.382325
3302.01, 0.383698
3304.11, 0.385070
3306.22, 0.386371
3308.33, 0.387744
3310.44, 0.389117
3312.56, 0.390273
3314.68, 0.391357
3316.8, 0.392802
3318.92, 0.394103
3321.05, 0.395404
3323.18, 0.396487
3325.31, 0.397788
3327.44, 0.399089
3329.58, 0.400245
3331.72, 0.401473
3333.86, 0.402557
3336.01, 0.403497
3338.16, 0.404653
3340.31, 0.405809
3342.46, 0.406748
3344.61, 0.407615
3346.77, 0.408266
3348.94, 0.409133
3351.1, 0.410000
3353.27, 0.410795
3355.44, 0.411590
3357.61, 0.412240
3359.79, 0.412818
3361.97, 0.413396
3364.15, 0.413757
3366.33, 0.413974
3368.52, 0.414552
3370.71, 0.415275
3372.9, 0.415853
3375.1, 0.416503
3377.3, 0.417009
3379.5, 0.417443
3381.71, 0.418238
3383.91, 0.419321
3386.12, 0.420405
3388.34, 0.421489
3390.55, 0.422284
3392.77, 0.422862
3394.99, 0.423585
3397.22, 0.424163
3399.45, 0.424741
3401.68, 0.425247
3403.91, 0.425463
3406.15, 0.425680
3408.39, 0.425897
3410.63, 0.426042
3412.87, 0.426258
3415.12, 0.426909
3417.37, 0.427848
3419.63, 0.429149
3421.88, 0.430811
3424.14, 0.432256
3426.41, 0.433918
3428.67, 0.435797
3430.94, 0.437459
3433.21, 0.438976
3435.49, 0.440421
3437.77, 0.441650
3440.05, 0.442950
3442.33, 0.444179
3444.62, 0.445407
3446.91, 0.446708
3449.2, 0.448081
3451.5, 0.449237
3453.8, 0.450393
3456.1, 0.451477
3458.41, 0.452561
3460.72, 0.453500
3463.03, 0.454512
3465.34, 0.455307
3467.66, 0.456101
3469.98, 0.456680
3472.31, 0.457474
3474.63, 0.458197
3476.96, 0.458775
3479.3, 0.459209
3481.64, 0.459859
3483.97, 0.460582
3486.32, 0.461232
3488.66, 0.461738
3491.01, 0.462171
3493.36, 0.462605
3495.72, 0.462966
3498.08, 0.463327
3500.44, 0.464050
3502.81, 0.464917
3505.18, 0.466145
3507.55, 0.467880
3509.92, 0.469542
3512.3, 0.471131
3514.68, 0.472721
3517.06, 0.474600
3519.45, 0.476262
3521.84, 0.477635
3524.24, 0.479008
3526.64, 0.480308
3529.04, 0.481537
3531.44, 0.482621
3533.85, 0.483849
3536.26, 0.485005
3538.67, 0.486089
3541.09, 0.487173
3543.51, 0.488257
3545.93, 0.489196
3548.36, 0.490280
3550.79, 0.491509
3553.22, 0.492520
3555.66, 0.493387
3558.1, 0.494327
3560.54, 0.495194
3562.99, 0.496205
3565.44, 0.497073
3567.9, 0.497940
3570.35, 0.498951
3572.81, 0.499818
3575.28, 0.500758
3577.75, 0.501914
3580.22, 0.502637
3582.69, 0.503359
3585.17, 0.504443
3587.65, 0.505093
3590.14, 0.505816
3592.62, 0.506611
3595.11, 0.507478
3597.61, 0.508417
3600.11, 0.509284
3602.61, 0.510152
3605.11, 0.511019
3607.62, 0.511741
3610.14, 0.512608
3612.65, 0.513331
3615.17, 0.514054
3617.69, 0.514848
3620.22, 0.515571
3622.75, 0.516366
3625.28, 0.517161
3627.82, 0.517956
3630.36, 0.518678
3632.9, 0.519328
3635.45, 0.520123
3638.0, 0.520918
3640.56, 0.521641
3643.12, 0.522291
3645.68, 0.522869
3648.24, 0.523519
3650.81, 0.524242
3653.39, 0.524965
3655.96, 0.525687
3658.54, 0.526482
3661.13, 0.527133
3663.71, 0.527783
3666.3, 0.528433
3668.9, 0.529156
3671.5, 0.530023
3674.1, 0.530673
3676.7, 0.531251
3679.31, 0.531902
3681.93, 0.532696
3684.54, 0.533491
3687.17, 0.534142
3689.79, 0.534864
3692.42, 0.535659
3695.05, 0.536237
3697.69, 0.536671
3700.32, 0.537393
3702.97, 0.538116
3705.61, 0.538766
3708.27, 0.539417
3710.92, 0.540139
3713.58, 0.540862
3716.24, 0.541440
3718.91, 0.541946
3721.58, 0.542741
3724.25, 0.543463
3726.93, 0.544041
3729.61, 0.544619
3732.29, 0.545270
3734.98, 0.545775
3737.67, 0.546281
3740.37, 0.546715
3743.07, 0.547437
3745.78, 0.548160
3748.49, 0.548810
3751.2, 0.549316
3753.91, 0.549750
3756.63, 0.550183
3759.36, 0.550689
3762.09, 0.551339
3764.82, 0.551845
3767.55, 0.552423
3770.29, 0.552929
3773.04, 0.553290
3775.78, 0.553941
3778.54, 0.554302
3781.29, 0.554591
3784.05, 0.555025
3786.82, 0.555386
3789.59, 0.555675
3792.36, 0.556253
3795.13, 0.556759
3797.92, 0.557192
3800.7, 0.557626
3803.49, 0.557987
3806.28, 0.558349
3809.08, 0.558782
3811.88, 0.559143
3814.68, 0.559505
3817.49, 0.559938
3820.31, 0.560227
3823.12, 0.560444
3825.94, 0.560661
3828.77, 0.561094
3831.6, 0.561745
3834.43, 0.562178
3837.27, 0.562540
3840.11, 0.562973
3842.96, 0.563190
3845.81, 0.563407
3848.67, 0.563768
3851.53, 0.564057
3854.39, 0.564418
3857.26, 0.564852
3860.13, 0.565213
3863.01, 0.565502
3865.89, 0.565864
3868.77, 0.566153
3871.66, 0.566297
3874.55, 0.566442
3877.45, 0.566875
3880.35, 0.567309
3883.26, 0.567598
3886.17, 0.567959
3889.09, 0.568320
3892.01, 0.568682
3894.93, 0.569115
3897.86, 0.569332
3900.79, 0.569476
3903.73, 0.569693
3906.67, 0.570055
3909.62, 0.570344
3912.57, 0.570633
3915.52, 0.570922
3918.48, 0.571139
3921.45, 0.571211
3924.42, 0.571355
3927.39, 0.571572
3930.37, 0.571789
3933.35, 0.572078
3936.34, 0.572150
3939.33, 0.572222
3942.32, 0.572439
3945.32, 0.572728
3948.33, 0.572945
3951.34, 0.573162
3954.35, 0.573451
3957.37, 0.573595
3960.39, 0.573668
3963.42, 0.573957
3966.45, 0.574101
3969.49, 0.574390
3972.53, 0.574607
3975.58, 0.574607
3978.63, 0.574751
3981.68, 0.574896
3984.75, 0.575185
3987.81, 0.575474
3990.88, 0.575619
3993.95, 0.575619
3997.03, 0.575691
4000.12, 0.575980
4003.21, 0.576269
4006.3, 0.576341
4009.4, 0.576486
4012.5, 0.576630
4015.61, 0.576558
4018.72, 0.576847
4021.84, 0.577136
4024.96, 0.577208
4028.09, 0.577281
4031.22, 0.577281
4034.36, 0.577353
4037.5, 0.577425
4040.65, 0.577497
4043.8, 0.577642
4046.96, 0.577714
4050.12, 0.577859
4053.29, 0.577786
4056.46, 0.577786
4059.64, 0.577786
4062.82, 0.577786
4066.0, 0.577859
4069.19, 0.578003
4072.39, 0.577931
4075.59, 0.577786
4078.8, 0.577642
4082.01, 0.577642
4085.23, 0.577642
4088.45, 0.577642
4091.68, 0.577642
4094.91, 0.577570
4098.15, 0.577642
4101.39, 0.577714
4104.63, 0.577714
4107.89, 0.577714
4111.14, 0.577786
4114.41, 0.577859
4117.67, 0.577931
4120.95, 0.577859
4124.23, 0.577859
4127.51, 0.577859
4130.8, 0.577786
4134.09, 0.577786
4137.39, 0.577786
4140.7, 0.577714
4144.01, 0.577570
4147.32, 0.577642
4150.64, 0.577642
4153.97, 0.577570
4157.3, 0.577570
4160.64, 0.577497
4163.98, 0.577353
4167.33, 0.577136
4170.68, 0.576991
4174.04, 0.576847
4177.4, 0.576775
4180.77, 0.576630
4184.14, 0.576558
4187.52, 0.576269
4190.91, 0.575908
4194.3, 0.575546
4197.69, 0.575185
4201.1, 0.574751
4204.5, 0.574029
4207.92, 0.573089
4211.34, 0.572078
4214.76, 0.570849
4218.19, 0.569332
4221.62, 0.567887
4225.06, 0.566586
4228.51, 0.565358
4231.96, 0.564129
4235.42, 0.563262
4238.88, 0.562467
4242.35, 0.561745
4245.83, 0.560950
4249.31, 0.559577
4252.79, 0.557265
4256.28, 0.553652
4259.78, 0.548160
4263.29, 0.542018
4266.79, 0.538766
4270.31, 0.540862
4273.83, 0.546064
4277.35, 0.550834
4280.89, 0.554157
4284.42, 0.556398
4287.97, 0.557987
4291.52, 0.559360
4295.07, 0.560516
4298.63, 0.561600
4302.2, 0.562756
4305.78, 0.563696
4309.35, 0.564418
4312.94, 0.565069
4316.53, 0.565719
4320.13, 0.566369
4323.73, 0.566875
4327.34, 0.567236
4330.96, 0.567525
4334.58, 0.567742
4338.21, 0.567815
4341.84, 0.567959
4345.48, 0.568031
4349.12, 0.567959
4352.77, 0.567959
4356.43, 0.567887
4360.1, 0.567815
4363.76, 0.567670
4367.44, 0.567453
4371.12, 0.567236
4374.81, 0.567020
4378.51, 0.566947
4382.21, 0.566658
4385.92, 0.566442
4389.63, 0.566080
4393.35, 0.565864
4397.08, 0.565864
4400.81, 0.565574
4404.55, 0.565285
4408.29, 0.565069
4412.04, 0.564852
4415.8, 0.564491
4419.57, 0.564057
4423.34, 0.563768
4427.12, 0.563479
4430.9, 0.563190
4434.69, 0.562901
4438.49, 0.562612
4442.29, 0.562251
4446.1, 0.561745
4449.92, 0.561311
4453.74, 0.560950
4457.57, 0.560661
4461.41, 0.560300
4465.25, 0.559794
4469.1, 0.559360
4472.95, 0.558999
4476.82, 0.558565
4480.69, 0.558060
4484.56, 0.557626
4488.44, 0.557192
4492.33, 0.556831
4496.23, 0.556325
4500.13, 0.555675
4504.04, 0.555169
4507.96, 0.554880
4511.88, 0.554591
4515.81, 0.554085
4519.75, 0.553435
4523.69, 0.552929
4527.65, 0.552496
4531.6, 0.552062
4535.57, 0.551628
4539.54, 0.551050
4543.52, 0.550472
4547.5, 0.549966
4551.5, 0.549388
4555.5, 0.548810
4559.5, 0.548232
4563.52, 0.547654
4567.54, 0.547076
4571.56, 0.546643
4575.6, 0.545992
4579.64, 0.545342
4583.69, 0.544475
4587.75, 0.543680
4591.81, 0.543030
4595.88, 0.542307
4599.96, 0.541440
4604.04, 0.540645
4608.14, 0.539778
4612.24, 0.538911
4616.34, 0.537827
4620.46, 0.536743
4624.58, 0.535587
4628.71, 0.534358
4632.84, 0.533058
4636.99, 0.531829
4641.14, 0.530456
4645.3, 0.528939
4649.47, 0.527494
4653.64, 0.525976
4657.82, 0.524387
4662.01, 0.522725
4666.21, 0.520774
4670.41, 0.518823
4674.62, 0.516872
4678.84, 0.514776
4683.07, 0.512608
4687.3, 0.510368
4691.54, 0.508128
4695.79, 0.505960
4700.05, 0.503793
4704.31, 0.501769
4708.59, 0.499746
4712.87, 0.498229
4717.15, 0.496856
4721.45, 0.495844
4725.76, 0.495338
4730.07, 0.495411
4734.39, 0.495844
4738.72, 0.496639
4743.05, 0.497651
4747.39, 0.498807
4751.75, 0.500180
4756.1, 0.501553
4760.47, 0.502709
4764.85, 0.503793
4769.23, 0.504949
4773.62, 0.506177
4778.02, 0.507189
4782.43, 0.507911
4786.85, 0.508562
4791.27, 0.509212
4795.7, 0.509790
4800.14, 0.510296
4804.59, 0.510513
4809.05, 0.510730
4813.51, 0.510874
4817.99, 0.511019
4822.47, 0.510946
4826.96, 0.510802
4831.46, 0.510513
4835.96, 0.510224
4840.48, 0.509718
4845.0, 0.509212
4849.54, 0.508779
4854.08, 0.508056
4858.63, 0.507406
4863.18, 0.506828
4867.75, 0.506249
4872.33, 0.505527
4876.91, 0.504732
4881.5, 0.503937
4886.1, 0.503142
4890.71, 0.502347
4895.33, 0.501480
4899.96, 0.500758
4904.59, 0.499963
4909.24, 0.499168
4913.89, 0.498445
4918.55, 0.497723
4923.22, 0.496928
4927.9, 0.496061
4932.59, 0.495338
4937.29, 0.494399
4942.0, 0.493387
4946.71, 0.492303
4951.44, 0.491364
4956.17, 0.490280
4960.91, 0.489124
4965.67, 0.488040
4970.43, 0.487029
4975.2, 0.485945
4979.98, 0.484716
4984.76, 0.483488
4989.56, 0.482259
4994.37, 0.481103
4999.18, 0.479947
5004.01, 0.478935
5008.84, 0.477996
5013.69, 0.476984
5018.54, 0.475973
5023.4, 0.475178
5028.28, 0.474383
5033.16, 0.473661
5038.05, 0.472793
5042.95, 0.472071
5047.86, 0.471565
5052.78, 0.471059
5057.71, 0.470409
5062.65, 0.469975
5067.6, 0.469469
5072.56, 0.468819
5077.53, 0.468169
5082.5, 0.467591
5087.49, 0.466940
5092.49, 0.466362
5097.5, 0.465640
5102.51, 0.464773
5107.54, 0.463978
5112.58, 0.463111
5117.62, 0.462244
5122.68, 0.461376
5127.75, 0.460437
5132.82, 0.459425
5137.91, 0.458486
5143.01, 0.457402
5148.12, 0.456246
5153.23, 0.455162
5158.36, 0.454006
5163.5, 0.452850
5168.65, 0.451621
5173.81, 0.450321
5178.98, 0.448731
5184.15, 0.447286
5189.34, 0.445841
5194.54, 0.444323
5199.75, 0.442661
5204.98, 0.441072
5210.21, 0.439265
5215.45, 0.437603
5220.7, 0.436158
5225.96, 0.434496
5231.23, 0.432689
5236.52, 0.430955
5241.81, 0.429293
5247.12, 0.427559
5252.44, 0.425680
5257.76, 0.423802
5263.1, 0.421995
5268.45, 0.420189
5273.81, 0.418310
5279.18, 0.416503
5284.56, 0.414625
5289.95, 0.412674
5295.36, 0.411012
5300.77, 0.409494
5306.2, 0.407760
5311.63, 0.406098
5317.08, 0.404436
5322.54, 0.402774
5328.01, 0.401184
5333.49, 0.399595
5338.98, 0.397860
5344.49, 0.395909
5350.0, 0.393814
5355.53, 0.392296
5361.07, 0.390923
5366.62, 0.389406
5372.18, 0.387744
5377.75, 0.386154
5383.34, 0.384637
5388.93, 0.383336
5394.54, 0.382108
5400.16, 0.380952
5405.79, 0.379579
5411.44, 0.378278
5417.09, 0.376833
5422.76, 0.375677
5428.43, 0.374954
5434.12, 0.374087
5439.83, 0.372931
5445.54, 0.371775
5451.26, 0.370763
5457.0, 0.369679
5462.75, 0.368451
5468.52, 0.367367
5474.29, 0.366283
5480.08, 0.365055
5485.88, 0.364187
5491.69, 0.363176
5497.51, 0.362020
5503.35, 0.360864
5509.2, 0.359707
5515.06, 0.358407
5520.93, 0.357034
5526.82, 0.355878
5532.71, 0.354505
5538.63, 0.353060
5544.55, 0.351542
5550.49, 0.349880
5556.44, 0.348218
5562.4, 0.346773
5568.37, 0.345256
5574.36, 0.343305
5580.36, 0.341715
5586.37, 0.340703
5592.4, 0.339475
5598.44, 0.337813
5604.49, 0.336295
5610.56, 0.334850
5616.63, 0.333116
5622.73, 0.331454
5628.83, 0.329792
5634.95, 0.327552
5641.08, 0.325167
5647.23, 0.323794
5653.39, 0.322494
5659.56, 0.320976
5665.74, 0.319387
5671.94, 0.317363
5678.15, 0.315557
5684.38, 0.314039
5690.62, 0.312305
5696.87, 0.310788
5703.14, 0.308837
5709.42, 0.306669
5715.72, 0.304935
5722.03, 0.303345
5728.35, 0.301755
5734.69, 0.300093
5741.03, 0.298215
5747.4, 0.296336
5753.78, 0.294891
5760.17, 0.292795
5766.58, 0.290772
5773.0, 0.289977
5779.44, 0.288893
5785.88, 0.287520
5792.35, 0.286220
5798.83, 0.284991
5805.32, 0.283618
5811.83, 0.281956
5818.35, 0.280005
5824.89, 0.278632
5831.45, 0.277837
5838.01, 0.276970
5844.59, 0.275597
5851.19, 0.274008
5857.8, 0.272274
5864.43, 0.270539
5871.07, 0.268877
5877.73, 0.266204
5884.4, 0.264469
5891.09, 0.263169
5897.79, 0.261290
5904.5, 0.260206
5911.23, 0.258544
5917.98, 0.256665
5924.75, 0.254642
5931.53, 0.251896
5938.32, 0.249656
5945.13, 0.248572
5951.96, 0.246838
5958.8, 0.244815
5965.65, 0.242503
5972.53, 0.240479
5979.42, 0.238601
5986.32, 0.236433
5993.24, 0.234626
6000.18, 0.233109
6007.13, 0.230797
6014.1, 0.228484
6021.08, 0.226895
6028.09, 0.225377
6035.1, 0.223571
6042.14, 0.220825
6049.19, 0.218440
6056.25, 0.217862
6063.34, 0.216706
6070.44, 0.214972
6077.55, 0.213743
6084.69, 0.212949
6091.84, 0.211720
6099.0, 0.210492
6106.19, 0.208974
6113.39, 0.207674
6120.61, 0.207168
6127.84, 0.206662
6135.09, 0.205795
6142.36, 0.204928
6149.65, 0.204133
6156.95, 0.203194
6164.27, 0.202688
6171.61, 0.202326
6178.97, 0.201315
6186.34, 0.200520
6193.73, 0.200448
6201.14, 0.200014
6208.57, 0.199291
6216.01, 0.198641
6223.47, 0.198063
6230.95, 0.197557
6238.45, 0.196979
6245.97, 0.196329
6253.5, 0.195679
6261.06, 0.195028
6268.63, 0.194233
6276.21, 0.193366
6283.82, 0.192716
6291.45, 0.191921
6299.1, 0.191054
6306.76, 0.190331
6314.44, 0.189753
6322.14, 0.189103
6329.86, 0.188380
6337.6, 0.187296
6345.35, 0.186429
6353.13, 0.186357
6360.92, 0.185779
6368.74, 0.184551
6376.57, 0.183900
6384.43, 0.183394
6392.3, 0.182744
6400.19, 0.181877
6408.1, 0.180287
6416.03, 0.179276
6423.98, 0.179203
6431.95, 0.178770
6439.94, 0.178119
6447.95, 0.177325
6455.98, 0.176457
6464.03, 0.175663
6472.1, 0.174651
6480.19, 0.173423
6488.31, 0.172050
6496.44, 0.171255
6504.59, 0.171038
6512.76, 0.170243
6520.95, 0.169159
6529.16, 0.168437
6537.4, 0.167570
6545.65, 0.166558
6553.92, 0.165474
6562.22, 0.164390
6570.54, 0.163162
6578.88, 0.162511
6587.23, 0.161717
6595.61, 0.160705
6604.02, 0.159766
6612.44, 0.158682
6620.89, 0.157815
6629.35, 0.156442
6637.84, 0.155069
6646.35, 0.154635
6654.88, 0.154129
6663.44, 0.153045
6672.01, 0.151817
6680.61, 0.150661
6689.23, 0.149794
6697.88, 0.148854
6706.54, 0.147626
6715.23, 0.146614
6723.94, 0.145747
6732.67, 0.144736
6741.42, 0.143579
6750.2, 0.142640
6759.0, 0.141556
6767.82, 0.140400
6776.67, 0.139244
6785.54, 0.138015
6794.44, 0.137004
6803.35, 0.136209
6812.29, 0.135197
6821.26, 0.133897
6830.24, 0.132741
6839.25, 0.131873
6848.29, 0.130573
6857.35, 0.129055
6866.43, 0.127971
6875.54, 0.127321
6884.67, 0.126382
6893.82, 0.125298
6903.0, 0.124069
6912.2, 0.123058
6921.43, 0.122118
6930.69, 0.121251
6939.96, 0.120312
6949.27, 0.119156
6958.59, 0.117855
6967.95, 0.117060
6977.33, 0.116338
6986.73, 0.115398
6996.16, 0.114314
7005.61, 0.113447
7015.09, 0.112436
7024.6, 0.111569
7034.13, 0.110629
7043.69, 0.109618
7053.27, 0.108967
7062.88, 0.108172
7072.52, 0.107377
7082.18, 0.106872
7091.87, 0.106005
7101.58, 0.105065
7111.32, 0.104270
7121.09, 0.103475
7130.88, 0.102825
7140.71, 0.102103
7150.56, 0.101380
7160.43, 0.100730
7170.33, 0.0999350
7180.27, 0.0992840
7190.23, 0.0984900
7200.21, 0.0976220
7210.23, 0.0969720
7220.27, 0.0963220
7230.34, 0.0955990
7240.44, 0.0949490
7250.56, 0.0942260
7260.72, 0.0935040
7270.9, 0.0927810
7281.12, 0.0920580
7291.36, 0.0914080
7301.63, 0.0907580
7311.93, 0.0900350
7322.25, 0.0893130
7332.61, 0.0885180
7343.0, 0.0877950
7353.41, 0.0870730
7363.86, 0.0863500
7374.33, 0.0855550
7384.83, 0.0847600
7395.37, 0.0839650
7405.93, 0.0833150
7416.53, 0.0825200
7427.15, 0.0818700
7437.81, 0.0812920
7448.5, 0.0805690
7459.22, 0.0797740
7469.96, 0.0790520
7480.74, 0.0781120
7491.55, 0.0772450
7502.39, 0.0765230
7513.27, 0.0758720
7524.17, 0.0750780
7535.11, 0.0740660
7546.08, 0.0732710
7557.08, 0.0725480
7568.11, 0.0718260
7579.17, 0.0711030
7590.27, 0.0702360
7601.4, 0.0693690
7612.56, 0.0686460
7623.76, 0.0679960
7634.98, 0.0671290
7646.24, 0.0664060
7657.54, 0.0656120
7668.87, 0.0648170
7680.23, 0.0640220
7691.62, 0.0632990
7703.05, 0.0625040
7714.51, 0.0617100
7726.01, 0.0611310
7737.54, 0.0605530
7749.11, 0.0599030
7760.71, 0.0592530
7772.35, 0.0584580
7784.02, 0.0578800
7795.72, 0.0573740
7807.46, 0.0567240
7819.23, 0.0561460
7831.04, 0.0557120
7842.89, 0.0552780
7854.77, 0.0547000
7866.69, 0.0541950
7878.65, 0.0537610
7890.64, 0.0533270
7902.67, 0.0529660
7914.74, 0.0526770
7926.84, 0.0526050
7938.98, 0.0522440
7951.16, 0.0518100
7963.37, 0.0514490
7975.62, 0.0511600
7987.91, 0.0508710
8000.24, 0.0504370
8012.6, 0.0500760
8025.01, 0.0497870
8037.45, 0.0495700
8049.93, 0.0494980
8062.45, 0.0492810
8075.01, 0.0489920
8087.61, 0.0487750
8100.24, 0.0487750
8112.91, 0.0487030
8125.63, 0.0484140
8138.39, 0.0482690
8151.18, 0.0481970
8164.02, 0.0478360
8176.9, 0.0475470
8189.81, 0.0474740
8202.77, 0.0473300
8215.77, 0.0471130
8228.82, 0.0468960
8241.9, 0.0466070
8255.02, 0.0464630
8268.19, 0.0462460
8281.39, 0.0461020
8294.65, 0.0460290
8307.94, 0.0459570
8321.28, 0.0458120
8334.66, 0.0455960
8348.08, 0.0453790
8361.54, 0.0453070
8375.05, 0.0450180
8388.6, 0.0447290
8402.2, 0.0444400
8415.84, 0.0443670
8429.52, 0.0442230
8443.25, 0.0439340
8457.02, 0.0437890
8470.84, 0.0435720
8484.7, 0.0434280
8498.61, 0.0432830
8512.57, 0.0432830
8526.57, 0.0431390
8540.62, 0.0429220
8554.71, 0.0427050
8568.85, 0.0424160
8583.04, 0.0423440
8597.27, 0.0422720
8611.55, 0.0419100
8625.88, 0.0416940
8640.26, 0.0416210
8654.68, 0.0414770
8669.16, 0.0414050
8683.68, 0.0414050
8698.25, 0.0413320
8712.87, 0.0410430
8727.53, 0.0410430
8742.25, 0.0411160
8757.02, 0.0408270
8771.83, 0.0405380
8786.7, 0.0404650
8801.62, 0.0404650
8816.59, 0.0403930
8831.61, 0.0400320
8846.68, 0.0396700
8861.8, 0.0395260
8876.97, 0.0393810
8892.2, 0.0392370
8907.48, 0.0390200
8922.81, 0.0387310
8938.2, 0.0387310
8953.63, 0.0385870
8969.13, 0.0382250
8984.67, 0.0377190
9000.27, 0.0376470
9015.92, 0.0373580
9031.63, 0.0369250
9047.39, 0.0367080
9063.21, 0.0367080
9079.08, 0.0365630
9095.01, 0.0366360
9111.0, 0.0364910
9127.04, 0.0364910
9143.13, 0.0365630
9159.28, 0.0367080
9175.49, 0.0366360
9191.76, 0.0365630
9208.09, 0.0365630
9224.47, 0.0365630
9240.92, 0.0364910
9257.42, 0.0364190
9273.98, 0.0366360
9290.6, 0.0369970
9307.28, 0.0369970
9324.02, 0.0369250
9340.82, 0.0369250
9357.68, 0.0367800
9374.6, 0.0369970
9391.58, 0.0372140
9408.62, 0.0373580
9425.73, 0.0375030
9442.9, 0.0375750
9460.13, 0.0379360
9477.42, 0.0381530
9494.78, 0.0383700
9512.2, 0.0385140
9529.69, 0.0388760
9547.24, 0.0392370
9564.86, 0.0396700
9582.54, 0.0401040
9600.28, 0.0405380
9618.1, 0.0408270
9635.97, 0.0408990
9653.92, 0.0411160
9671.93, 0.0414050
9690.01, 0.0413320
9708.16, 0.0411880
9726.37, 0.0413320
9744.65, 0.0413320
9763.0, 0.0411160
9781.43, 0.0411160
9799.92, 0.0408270
9818.48, 0.0406820
9837.1, 0.0407540
9855.8, 0.0408270
9874.58, 0.0407540
9893.42, 0.0408990
9912.34, 0.0411880
9931.33, 0.0415490
9950.39, 0.0419830
9969.52, 0.0421990
9988.74, 0.0421270
10008.0, 0.0421270
10027.4, 0.0418380
10046.8, 0.0414050
10066.3, 0.0409710
10085.9, 0.0400320
10105.6, 0.0395980
10125.3, 0.0395260
10145.1, 0.0390920
10165.0, 0.0383700
10185.0, 0.0375750
10205.0, 0.0369970
10225.2, 0.0364190
10245.4, 0.0360570
10265.7, 0.0357680
10286.0, 0.0351180
10306.5, 0.0344680
10327.0, 0.0341060
10347.6, 0.0337450
10368.3, 0.0332390
10389.1, 0.0325890
10409.9, 0.0324440
10430.9, 0.0322280
10451.9, 0.0317940
10473.0, 0.0312880
10494.2, 0.0309270
10515.5, 0.0307100
10536.9, 0.0302770
10558.4, 0.0296990
10579.9, 0.0292650
10601.5, 0.0288320
10623.3, 0.0285420
10645.1, 0.0284700
10667.0, 0.0284700
10689.0, 0.0283260
10711.1, 0.0283980
10733.2, 0.0282530
10755.5, 0.0279640
10777.9, 0.0278920
10800.3, 0.0276750
10822.9, 0.0272420
10845.5, 0.0270970
10868.2, 0.0268080
10891.1, 0.0266640
10914.0, 0.0265910
10937.0, 0.0266640
10960.2, 0.0265910
10983.4, 0.0269530
11006.7, 0.0273860
11030.1, 0.0273860
11053.6, 0.0272420
11077.3, 0.0273860
11101.0, 0.0273860
11124.8, 0.0270250
11148.7, 0.0265910
11172.7, 0.0262300
11196.9, 0.0257240
11221.1, 0.0252190
11245.4, 0.0245680
11269.9, 0.0244960
11294.4, 0.0246400
11319.1, 0.0255800
11343.9, 0.0263750
11368.8, 0.0270250
11393.7, 0.0275310
11418.8, 0.0283260
11444.0, 0.0290480
11469.4, 0.0295540
11494.8, 0.0300600
11520.3, 0.0308550
11546.0, 0.0312880
11571.8, 0.0317940
11597.7, 0.0325170
11623.7, 0.0331670
11649.8, 0.0341790
11676.0, 0.0353350
11702.4, 0.0364190
11728.9, 0.0377920
11755.5, 0.0388760
11782.2, 0.0403930
11809.0, 0.0422720
11836.0, 0.0441510
11863.0, 0.0461740
11890.3, 0.0485580
11917.6, 0.0510150
11945.0, 0.0537610
11972.6, 0.0562900
12000.4, 0.0593970
12028.2, 0.0625040
12056.2, 0.0656120
12084.3, 0.0690800
12112.5, 0.0725480
12140.9, 0.0757280
12169.4, 0.0794130
12198.0, 0.0833150
12226.8, 0.0872170
12255.7, 0.0906130
12284.7, 0.0936480
12313.9, 0.0972610
12343.2, 0.101308
12372.7, 0.105065
12402.3, 0.109112
12432.0, 0.112725
12461.9, 0.116265
12491.9, 0.120240
12522.1, 0.124142
12552.4, 0.127827
12582.9, 0.131873
12613.5, 0.135992
12644.3, 0.140039
12675.2, 0.144374
12706.3, 0.148710
12737.5, 0.152684
12768.9, 0.156586
12800.4, 0.160705
12832.1, 0.164896
12863.9, 0.168943
12895.9, 0.172917
12928.1, 0.176530
12960.4, 0.179854
12992.9, 0.182961
13025.5, 0.185996
13058.3, 0.188814
13091.3, 0.191993
13124.4, 0.194522
13157.8, 0.196690
13191.2, 0.198858
13224.9, 0.201459
13258.7, 0.203844
13292.7, 0.205650
13326.9, 0.207240
13361.2, 0.209119
13395.7, 0.211214
13430.4, 0.212804
13465.3, 0.214321
13500.4, 0.216200
13535.7, 0.217718
13571.1, 0.218729
13606.7, 0.219596
13642.5, 0.220391
13678.5, 0.221114
13714.7, 0.222125
13751.1, 0.222920
13787.6, 0.223715
13824.4, 0.224510
13861.4, 0.225016
13898.5, 0.225377
13935.9, 0.226100
13973.5, 0.226027
14011.2, 0.226244
14049.2, 0.226533
14087.4, 0.226606
14125.8, 0.227328
14164.3, 0.228051
14203.2, 0.228484
14242.2, 0.228773
14281.4, 0.229207
14320.9, 0.229785
14360.5, 0.230002
14400.4, 0.230291
14440.5, 0.230941
14480.9, 0.231302
14521.4, 0.231591
14562.2, 0.232314
14603.3, 0.233109
14644.5, 0.234193
14686.0, 0.234699
14727.7, 0.235204
14769.7, 0.235999
14811.9, 0.236433
14854.3, 0.237228
14897.0, 0.237517
14939.9, 0.237661
14983.1, 0.238528
15026.5, 0.239757
15070.2, 0.240479
15114.2, 0.240913
15158.3, 0.242069
15202.8, 0.243225
15247.5, 0.243587
15292.5, 0.244020
15337.7, 0.244815
15383.2, 0.245827
15429.0, 0.246549
15475.1, 0.246983
15521.4, 0.247561
15568.0, 0.248211
15614.9, 0.248500
15662.1, 0.249006
15709.6, 0.249584
15757.3, 0.250162
15805.4, 0.250523
15853.7, 0.250451
15902.3, 0.250379
15951.2, 0.250957
16000.5, 0.251752
16050.0, 0.251318
16099.8, 0.250812
16150.0, 0.250307
16200.5, 0.250307
16251.3, 0.249945
16302.4, 0.250018
16353.8, 0.249873
16405.5, 0.249873
16457.6, 0.249512
16510.0, 0.249367
16562.8, 0.249223
16615.9, 0.250162
16669.3, 0.249729
16723.1, 0.248428
16777.2, 0.248428
16831.7, 0.249006
16886.5, 0.249295
16941.7, 0.249584
16997.2, 0.249945
17053.1, 0.250451
17109.4, 0.250379
17166.1, 0.250523
17223.1, 0.250668
17280.5, 0.250740
17338.3, 0.251607
17396.5, 0.252619
17455.1, 0.252185
17514.0, 0.252041
17573.4, 0.252474
17633.2, 0.252980
17693.4, 0.252763
17754.0, 0.252980
17815.0, 0.253847
17876.4, 0.254714
17938.3, 0.255726
18000.5, 0.256882
18063.3, 0.257966
18126.4, 0.258327
18190.0, 0.259484
18254.1, 0.260857
18318.6, 0.262446
18383.5, 0.264614
18449.0, 0.265770
18514.9, 0.266782
18581.2, 0.268371
18648.0, 0.268877
18715.4, 0.268733
18783.2, 0.270395
18851.5, 0.271551
18920.3, 0.270828
18989.6, 0.270973
19059.4, 0.271695
19129.7, 0.272057
19200.6, 0.273068
19272.0, 0.273935
19343.9, 0.274369
19416.3, 0.273574
19489.3, 0.272996
19562.8, 0.274080
19637.0, 0.274441
19711.6, 0.272563
19786.8, 0.269600
19862.6, 0.265337
19939.0, 0.260206
20016.0, 0.255365
20093.6, 0.250307
20171.8, 0.244959
20250.6, 0.240696
20330.0, 0.236288
20410.0, 0.231953
20490.7, 0.227473
20572.0, 0.222559
20654.0, 0.218440
20736.6, 0.215116
20819.9, 0.210347
20903.8, 0.206373
20988.5, 0.202110
21073.8, 0.200086
21159.8, 0.197340
21246.5, 0.192427
21334.0, 0.188597
21422.1, 0.184840
21511.0, 0.179709
21600.7, 0.174796
21691.0, 0.168437
21782.1, 0.164607
21874.0, 0.162150
21966.7, 0.158465
22060.2, 0.156442
22154.5, 0.155502
22249.6, 0.153551
22345.5, 0.154057
22442.2, 0.157526
22539.8, 0.161717
22638.2, 0.164535
22737.5, 0.165668
22837.7, 0.172539
22938.7, 0.180537
23040.7, 0.190050
23143.5, 0.199387
23247.3, 0.208407
23352.1, 0.216405
23457.7, 0.224227
23564.4, 0.232225
23672.0, 0.238884
23780.5, 0.245191
23890.1, 0.250264
24000.7, 0.255126
24112.3, 0.260412
24225.0, 0.263970
24338.7, 0.265767
24453.5, 0.267317
24569.4, 0.267423
24686.4, 0.266366
24804.5, 0.265520
24923.8, 0.263477
25044.2, 0.258861
25165.8, 0.253400
25288.6, 0.250440
25412.5, 0.249313
25537.7, 0.247974
25664.1, 0.246353
25791.8, 0.245120
25920.8, 0.243957
26051.1, 0.241315
26182.6, 0.237263
26315.5, 0.229829
26449.8, 0.221056
26585.4, 0.214819
26722.5, 0.205658
26860.9, 0.194313
27000.8, 0.183391
27142.1, 0.173314
27285.0, 0.168628
27429.4, 0.174301
27575.3, 0.191600
27722.7, 0.216863
27871.8, 0.241738
28022.4, 0.261962
28174.7, 0.275668
28328.7, 0.284582
28484.4, 0.291382
28641.7, 0.296244
28800.9, 0.300789
28961.8, 0.304313
29124.5, 0.307413
29289.0, 0.310373
29455.4, 0.312275
29623.8, 0.314037
29794.0, 0.315587
29966.3, 0.315728
30140.5, 0.316503
30316.7, 0.317349
30495.1, 0.316961
30675.5, 0.316045
30858.1, 0.316961
31042.8, 0.317878
31229.8, 0.320661
31419.1, 0.322141
31610.7, 0.322916
31804.6, 0.324360
32000.9, 0.324959
32199.7, 0.325699
32400.9, 0.327320
32604.8, 0.328518
32811.1, 0.329011
33020.1, 0.326756
33231.8, 0.324678
33446.2, 0.329892
33663.4, 0.333063
33883.4, 0.333874
34106.3, 0.335177
34332.1, 0.334966
34561.0, 0.333838
34792.9, 0.333909
35028.0, 0.335107
35266.3, 0.335671
35507.8, 0.334226
35752.7, 0.333345
36001.0, 0.331900
36252.8, 0.331231
36508.1, 0.336833
36767.0, 0.340110
37029.7, 0.340603
37296.1, 0.340709
37566.3, 0.341625
37840.5, 0.341801
38118.8, 0.344197
38401.2, 0.346522
38687.8, 0.346769
38978.6, 0.346241
39273.9, 0.345923
39573.7, 0.342471
39878.1, 0.344902
40187.3, 0.349024
40501.2, 0.346135
40820.0, 0.344972
41144.0, 0.348989
41473.2, 0.353640
41807.6, 0.355930
42147.5, 0.356775
42493.0, 0.358467
42844.2, 0.360087
43201.2, 0.360017
43564.3, 0.358608
43933.5, 0.357621
44309.0, 0.353710
44691.0, 0.356458
45079.6, 0.358396
45475.0, 0.357903
45877.5, 0.358361
46287.1, 0.358854
46704.2, 0.356916
47128.7, 0.354943
47561.1, 0.354450
48001.5, 0.352794
48450.1, 0.348284
48907.2, 0.348918
49373.0, 0.344655
49847.7, 0.336622
50331.5, 0.339018
50825.0, 0.340674
51328.2, 0.337009
51841.5, 0.332147
52365.1, 0.329575
52899.4, 0.327743
53444.8, 0.322070
54001.5, 0.319393
54570.1, 0.316433
55150.6, 0.311007
55743.6, 0.303115
56349.5, 0.297336
56968.7, 0.286907
57601.7, 0.286097
58248.9, 0.286202
58910.9, 0.279825
59588.1, 0.274893
60281.0, 0.274012
60990.2, 0.271581
61716.3, 0.270101
62459.8, 0.265133
63221.6, 0.266049
64002.1, 0.254563
64802.1, 0.254950
65622.1, 0.258896
66463.4, 0.251039
67326.6, 0.246565
68212.4, 0.247586
69121.9, 0.251321
70056.0, 0.252202
71015.7, 0.245578
72002.0, 0.240187
73016.3, 0.240117
74059.4, 0.240223
75132.7, 0.240963
76237.6, 0.239307
77375.5, 0.236981
78547.9, 0.234162
79756.3, 0.229970
81002.5, 0.229617
82288.5, 0.228631
83615.7, 0.223346
84986.5, 0.225565
86402.9, 0.231837
87867.4, 0.234515
89382.4, 0.230533
90950.5, 0.228631
92574.6, 0.230745
94257.2, 0.227820
96002.7, 0.225248
97814.1, 0.226164
99695.1, 0.224015
101650.0, 0.218906
103683.0, 0.219999
105799.0, 0.218554
108003.0, 0.214220
110301.0, 0.215665
112699.0, 0.217039
115204.0, 0.217779
117822.0, 0.217744
120562.0, 0.215313
123433.0, 0.213868
126443.0, 0.218589
129604.0, 0.221655
132926.0, 0.221549
136424.0, 0.220527
140111.0, 0.221408
144003.0, 0.231661
148118.0, 0.240786
152474.0, 0.236312
157095.0, 0.232048
162004.0, 0.231309
167231.0, 0.226200
172805.0, 0.230498
178764.0, 0.239130
185148.0, 0.235360
192005.0, 0.230498
199390.0, 0.248397
207366.0, 0.271440
216006.0, 0.266331
