Database of Origin, USGS Spectral Database
Sample Description, See USGS database for additional info
Date Added,2016-07-23 06:20:19.821729

Data ID,USGS_lep11          
Sample ID, lepidolite_nmnh88526-1
Mineral Name, lepidolite
Material Class,Phyllosilicate

Wavelength
1374.74, 0.649374
1375.11, 0.648682
1375.47, 0.648162
1375.84, 0.649201
1376.2, 0.649547
1376.57, 0.648682
1376.93, 0.648682
1377.3, 0.649028
1377.67, 0.648508
1378.03, 0.647469
1378.4, 0.646950
1378.76, 0.647296
1379.13, 0.646604
1379.5, 0.644699
1379.87, 0.642448
1380.23, 0.641582
1380.6, 0.640196
1380.97, 0.637945
1381.34, 0.635175
1381.7, 0.632923
1382.07, 0.631192
1382.44, 0.629460
1382.81, 0.626689
1383.18, 0.624611
1383.55, 0.623399
1383.92, 0.622533
1384.29, 0.620802
1384.66, 0.620629
1385.03, 0.618897
1385.4, 0.618377
1385.77, 0.619070
1386.14, 0.619416
1386.51, 0.620282
1386.88, 0.620975
1387.25, 0.622360
1387.62, 0.622360
1387.99, 0.622187
1388.36, 0.622014
1388.74, 0.621494
1389.11, 0.622014
1389.48, 0.622533
1389.85, 0.622533
1390.23, 0.622533
1390.6, 0.623226
1390.97, 0.622533
1391.35, 0.622014
1391.72, 0.620629
1392.09, 0.619416
1392.47, 0.619936
1392.84, 0.620455
1393.21, 0.619936
1393.59, 0.618724
1393.96, 0.617165
1394.34, 0.614395
1394.71, 0.613182
1395.09, 0.612490
1395.46, 0.611104
1395.84, 0.609200
1396.22, 0.606948
1396.59, 0.605044
1396.97, 0.602966
1397.35, 0.601580
1397.72, 0.600541
1398.1, 0.598290
1398.48, 0.597424
1398.85, 0.596732
1399.23, 0.594307
1399.61, 0.592229
1399.99, 0.590844
1400.37, 0.589805
1400.74, 0.589632
1401.12, 0.588420
1401.5, 0.588420
1401.88, 0.588073
1402.26, 0.586342
1402.64, 0.585649
1403.02, 0.585303
1403.4, 0.585303
1403.78, 0.584783
1404.16, 0.583917
1404.54, 0.582878
1404.92, 0.582186
1405.3, 0.582186
1405.68, 0.582186
1406.06, 0.581320
1406.44, 0.580800
1406.83, 0.580281
1407.21, 0.580281
1407.59, 0.579242
1407.97, 0.577337
1408.35, 0.576298
1408.74, 0.575605
1409.12, 0.575086
1409.5, 0.573181
1409.89, 0.572488
1410.27, 0.572315
1410.65, 0.572661
1411.04, 0.572488
1411.42, 0.572142
1411.81, 0.573700
1412.19, 0.575432
1412.58, 0.574739
1412.96, 0.575432
1413.35, 0.577683
1413.73, 0.579588
1414.12, 0.581666
1414.5, 0.584264
1414.89, 0.586861
1415.28, 0.589632
1415.66, 0.592749
1416.05, 0.595346
1416.44, 0.598463
1416.82, 0.601753
1417.21, 0.605563
1417.6, 0.609373
1417.98, 0.611797
1418.37, 0.614395
1418.76, 0.616126
1419.15, 0.618551
1419.54, 0.622014
1419.93, 0.624958
1420.32, 0.627555
1420.71, 0.629633
1421.09, 0.632404
1421.48, 0.634309
1421.88, 0.635521
1422.27, 0.637253
1422.66, 0.639331
1423.05, 0.641755
1423.44, 0.642448
1423.83, 0.643660
1424.22, 0.645045
1424.61, 0.646430
1425.0, 0.646604
1425.39, 0.647989
1425.78, 0.649374
1426.18, 0.649894
1426.57, 0.650413
1426.96, 0.650760
1427.36, 0.652318
1427.75, 0.653877
1428.14, 0.654223
1428.54, 0.654223
1428.93, 0.654569
1429.32, 0.656128
1429.72, 0.656647
1430.11, 0.657513
1430.51, 0.659072
1430.9, 0.659418
1431.3, 0.659072
1431.69, 0.659937
1432.09, 0.659764
1432.48, 0.660630
1432.88, 0.661496
1433.28, 0.661496
1433.67, 0.661669
1434.07, 0.662535
1434.46, 0.663228
1434.86, 0.662881
1435.26, 0.662535
1435.66, 0.663054
1436.05, 0.664267
1436.45, 0.664786
1436.85, 0.664613
1437.25, 0.664440
1437.65, 0.665132
1438.05, 0.666171
1438.44, 0.666691
1438.84, 0.667037
1439.24, 0.667383
1439.64, 0.667557
1440.04, 0.668076
1440.44, 0.668942
1440.84, 0.669288
1441.24, 0.669288
1441.65, 0.668942
1442.05, 0.669115
1442.45, 0.669635
1442.85, 0.669808
1443.25, 0.669635
1443.65, 0.669635
1444.05, 0.670154
1444.46, 0.670501
1444.86, 0.670674
1445.26, 0.670501
1445.67, 0.670327
1446.07, 0.670674
1446.47, 0.671020
1446.88, 0.671540
1447.28, 0.671020
1447.68, 0.671193
1448.09, 0.671713
1448.49, 0.671540
1448.9, 0.671540
1449.3, 0.671713
1449.71, 0.671366
1450.11, 0.671713
1450.52, 0.671020
1450.93, 0.671366
1451.33, 0.671713
1451.74, 0.671886
1452.14, 0.672752
1452.55, 0.672925
1452.96, 0.673098
1453.36, 0.672752
1453.77, 0.673098
1454.18, 0.672752
1454.59, 0.672059
1455.0, 0.671713
1455.41, 0.671366
1455.81, 0.672059
1456.22, 0.673098
1456.63, 0.673271
1457.04, 0.673271
1457.45, 0.674137
1457.86, 0.674310
1458.27, 0.673098
1458.68, 0.672752
1459.09, 0.673617
1459.5, 0.674483
1459.91, 0.674310
1460.32, 0.673964
1460.74, 0.673791
1461.15, 0.673791
1461.56, 0.673791
1461.97, 0.673617
1462.39, 0.673617
1462.8, 0.673444
1463.21, 0.674483
1463.62, 0.675003
1464.04, 0.675349
1464.45, 0.675695
1464.86, 0.674656
1465.28, 0.673791
1465.69, 0.673617
1466.11, 0.674310
1466.52, 0.674137
1466.94, 0.674137
1467.35, 0.674830
1467.77, 0.675522
1468.18, 0.675176
1468.6, 0.673791
1469.02, 0.674483
1469.43, 0.675695
1469.85, 0.675869
1470.27, 0.675522
1470.68, 0.675349
1471.1, 0.675349
1471.52, 0.675349
1471.94, 0.675349
1472.35, 0.675522
1472.77, 0.675695
1473.19, 0.676042
1473.61, 0.675869
1474.03, 0.675522
1474.45, 0.675695
1474.87, 0.675695
1475.29, 0.675522
1475.71, 0.675176
1476.13, 0.675003
1476.55, 0.675003
1476.97, 0.675695
1477.39, 0.676734
1477.81, 0.676908
1478.23, 0.676561
1478.65, 0.675522
1479.07, 0.674656
1479.5, 0.674483
1479.92, 0.675176
1480.34, 0.675522
1480.76, 0.675176
1481.19, 0.675003
1481.61, 0.675695
1482.03, 0.676215
1482.46, 0.676042
1482.88, 0.675176
1483.31, 0.674483
1483.73, 0.675349
1484.16, 0.676908
1484.58, 0.676388
1485.01, 0.675695
1485.43, 0.674830
1485.86, 0.674656
1486.28, 0.675869
1486.71, 0.676215
1487.14, 0.676561
1487.56, 0.675869
1487.99, 0.675522
1488.42, 0.675869
1488.84, 0.675869
1489.27, 0.675349
1489.7, 0.675869
1490.13, 0.676561
1490.56, 0.676215
1490.98, 0.676561
1491.41, 0.677254
1491.84, 0.676561
1492.27, 0.676388
1492.7, 0.676561
1493.13, 0.676042
1493.56, 0.675522
1493.99, 0.675695
1494.42, 0.676388
1494.85, 0.676734
1495.29, 0.677254
1495.72, 0.677081
1496.15, 0.676734
1496.58, 0.676561
1497.01, 0.676561
1497.44, 0.676734
1497.88, 0.677427
1498.31, 0.678120
1498.74, 0.677773
1499.18, 0.676908
1499.61, 0.677081
1500.04, 0.677081
1500.48, 0.677427
1500.91, 0.677600
1501.35, 0.676908
1501.78, 0.676908
1502.22, 0.677773
1502.65, 0.678293
1503.09, 0.678120
1503.53, 0.677773
1503.96, 0.678120
1504.4, 0.678466
1504.83, 0.678120
1505.27, 0.678120
1505.71, 0.678120
1506.15, 0.677947
1506.58, 0.678293
1507.02, 0.678293
1507.46, 0.678986
1507.9, 0.679505
1508.34, 0.679852
1508.78, 0.680371
1509.21, 0.679852
1509.66, 0.678986
1510.09, 0.679332
1510.53, 0.679852
1510.97, 0.680025
1511.42, 0.680198
1511.86, 0.679678
1512.3, 0.679332
1512.74, 0.679505
1513.18, 0.680198
1513.62, 0.680544
1514.06, 0.680544
1514.51, 0.680891
1514.95, 0.680717
1515.39, 0.680717
1515.83, 0.679852
1516.28, 0.679852
1516.72, 0.681064
1517.16, 0.682103
1517.61, 0.681929
1518.05, 0.681583
1518.5, 0.681756
1518.94, 0.681756
1519.39, 0.681410
1519.83, 0.681410
1520.28, 0.681237
1520.73, 0.681410
1521.17, 0.681756
1521.62, 0.682103
1522.07, 0.682276
1522.51, 0.682449
1522.96, 0.682103
1523.41, 0.682103
1523.85, 0.682449
1524.3, 0.682795
1524.75, 0.682449
1525.2, 0.682968
1525.65, 0.684007
1526.1, 0.683661
1526.55, 0.683661
1527.0, 0.683661
1527.45, 0.683488
1527.9, 0.682968
1528.35, 0.683142
1528.8, 0.682795
1529.25, 0.682795
1529.7, 0.684181
1530.15, 0.684700
1530.6, 0.684181
1531.05, 0.683315
1531.51, 0.683142
1531.96, 0.683661
1532.41, 0.683834
1532.87, 0.684527
1533.32, 0.685046
1533.77, 0.684700
1534.23, 0.684354
1534.68, 0.684527
1535.14, 0.684527
1535.59, 0.684873
1536.05, 0.684700
1536.5, 0.684700
1536.96, 0.685220
1537.41, 0.684700
1537.87, 0.684181
1538.32, 0.684873
1538.78, 0.685220
1539.24, 0.685393
1539.7, 0.685393
1540.15, 0.685220
1540.61, 0.685566
1541.07, 0.686085
1541.53, 0.686085
1541.98, 0.686259
1542.44, 0.685566
1542.9, 0.685393
1543.36, 0.686432
1543.82, 0.686605
1544.28, 0.686085
1544.74, 0.685739
1545.2, 0.685739
1545.66, 0.686085
1546.12, 0.686605
1546.59, 0.686951
1547.05, 0.687471
1547.51, 0.687471
1547.97, 0.687125
1548.43, 0.686951
1548.9, 0.687471
1549.36, 0.687471
1549.82, 0.687644
1550.29, 0.687644
1550.75, 0.687471
1551.21, 0.687298
1551.68, 0.687471
1552.14, 0.687471
1552.61, 0.687125
1553.07, 0.686951
1553.54, 0.687471
1554.0, 0.687644
1554.47, 0.688337
1554.93, 0.688510
1555.4, 0.688337
1555.87, 0.687990
1556.34, 0.688856
1556.8, 0.689203
1557.27, 0.688337
1557.74, 0.689029
1558.21, 0.689549
1558.68, 0.688856
1559.14, 0.689203
1559.61, 0.689722
1560.08, 0.689722
1560.55, 0.689029
1561.02, 0.688856
1561.49, 0.689203
1561.96, 0.689895
1562.43, 0.689895
1562.9, 0.689895
1563.38, 0.690761
1563.85, 0.690934
1564.32, 0.690415
1564.79, 0.689895
1565.26, 0.690588
1565.74, 0.691800
1566.21, 0.691627
1566.68, 0.691280
1567.16, 0.691107
1567.63, 0.690761
1568.1, 0.690934
1568.58, 0.692146
1569.05, 0.692839
1569.53, 0.691973
1570.0, 0.692146
1570.48, 0.692666
1570.96, 0.693012
1571.43, 0.693358
1571.91, 0.692839
1572.39, 0.692839
1572.86, 0.693705
1573.34, 0.694224
1573.82, 0.694051
1574.3, 0.694398
1574.77, 0.694224
1575.25, 0.694224
1575.73, 0.694398
1576.21, 0.694571
1576.69, 0.695090
1577.17, 0.694744
1577.65, 0.694398
1578.13, 0.694571
1578.61, 0.694917
1579.09, 0.695610
1579.57, 0.695956
1580.05, 0.696129
1580.54, 0.695956
1581.02, 0.695956
1581.5, 0.696476
1581.98, 0.697168
1582.47, 0.697341
1582.95, 0.697341
1583.43, 0.697168
1583.92, 0.697168
1584.4, 0.697341
1584.88, 0.697688
1585.37, 0.697861
1585.85, 0.697861
1586.34, 0.698207
1586.82, 0.698207
1587.31, 0.698034
1587.8, 0.697861
1588.28, 0.697861
1588.77, 0.697514
1589.26, 0.698553
1589.74, 0.699419
1590.23, 0.699246
1590.72, 0.699246
1591.21, 0.699419
1591.7, 0.699419
1592.19, 0.699592
1592.67, 0.699939
1593.16, 0.700631
1593.65, 0.700805
1594.14, 0.700458
1594.63, 0.699939
1595.12, 0.700285
1595.61, 0.700805
1596.11, 0.701324
1596.6, 0.701844
1597.09, 0.701670
1597.58, 0.701670
1598.08, 0.701844
1598.57, 0.701670
1599.06, 0.702190
1599.55, 0.702017
1600.05, 0.701670
1600.54, 0.702017
1601.04, 0.702363
1601.53, 0.702363
1602.03, 0.702536
1602.52, 0.703056
1603.02, 0.703229
1603.51, 0.703056
1604.01, 0.703056
1604.5, 0.703229
1605.0, 0.703575
1605.5, 0.703402
1606.0, 0.703229
1606.49, 0.703402
1606.99, 0.703575
1607.49, 0.703922
1607.99, 0.703922
1608.49, 0.704268
1608.99, 0.704095
1609.49, 0.703749
1609.99, 0.703402
1610.49, 0.703575
1610.99, 0.704268
1611.49, 0.705307
1611.99, 0.705480
1612.49, 0.705307
1612.99, 0.704961
1613.49, 0.705307
1614.0, 0.704961
1614.5, 0.704961
1615.0, 0.705134
1615.51, 0.704961
1616.01, 0.705826
1616.51, 0.706000
1617.02, 0.705653
1617.52, 0.706173
1618.03, 0.706346
1618.53, 0.706000
1619.04, 0.706346
1619.54, 0.706692
1620.05, 0.706346
1620.55, 0.706865
1621.06, 0.707385
1621.57, 0.707558
1622.08, 0.706865
1622.58, 0.707039
1623.09, 0.707904
1623.6, 0.707904
1624.11, 0.707904
1624.62, 0.707904
1625.13, 0.707731
1625.64, 0.708078
1626.15, 0.707904
1626.66, 0.708251
1627.17, 0.708424
1627.68, 0.708424
1628.19, 0.708597
1628.7, 0.709290
1629.21, 0.709809
1629.72, 0.709463
1630.24, 0.709290
1630.75, 0.710329
1631.26, 0.710675
1631.78, 0.710675
1632.29, 0.710848
1632.8, 0.711021
1633.32, 0.710848
1633.83, 0.711195
1634.35, 0.711714
1634.86, 0.711714
1635.38, 0.711541
1635.9, 0.711714
1636.41, 0.712061
1636.93, 0.712061
1637.45, 0.712407
1637.96, 0.712753
1638.48, 0.712926
1639.0, 0.713099
1639.52, 0.713619
1640.04, 0.713619
1640.56, 0.713446
1641.08, 0.713792
1641.59, 0.713792
1642.11, 0.713273
1642.63, 0.713099
1643.16, 0.714138
1643.68, 0.714485
1644.2, 0.714312
1644.72, 0.714831
1645.24, 0.715177
1645.76, 0.715351
1646.29, 0.714658
1646.81, 0.714312
1647.33, 0.715004
1647.86, 0.715351
1648.38, 0.715870
1648.9, 0.716390
1649.43, 0.716043
1649.95, 0.716216
1650.48, 0.716216
1651.0, 0.716216
1651.53, 0.716563
1652.06, 0.716909
1652.58, 0.717255
1653.11, 0.717429
1653.64, 0.717082
1654.17, 0.716563
1654.69, 0.717082
1655.22, 0.717429
1655.75, 0.717602
1656.28, 0.717775
1656.81, 0.717602
1657.34, 0.717775
1657.87, 0.717602
1658.4, 0.717429
1658.93, 0.717775
1659.46, 0.718121
1659.99, 0.718814
1660.52, 0.718814
1661.05, 0.718814
1661.59, 0.718468
1662.12, 0.718641
1662.65, 0.719333
1663.19, 0.719333
1663.72, 0.718987
1664.26, 0.719160
1664.79, 0.719507
1665.32, 0.719160
1665.86, 0.718814
1666.39, 0.719160
1666.93, 0.719853
1667.47, 0.720372
1668.0, 0.720026
1668.54, 0.719160
1669.08, 0.719333
1669.61, 0.720199
1670.15, 0.720026
1670.69, 0.719853
1671.23, 0.720372
1671.77, 0.721065
1672.31, 0.721411
1672.85, 0.721065
1673.39, 0.720546
1673.93, 0.720546
1674.47, 0.720546
1675.01, 0.720546
1675.55, 0.721065
1676.09, 0.721411
1676.64, 0.721585
1677.18, 0.721931
1677.72, 0.721238
1678.26, 0.720719
1678.81, 0.720719
1679.35, 0.721411
1679.89, 0.721931
1680.44, 0.721411
1680.98, 0.720892
1681.53, 0.721411
1682.07, 0.722104
1682.62, 0.722450
1683.17, 0.722104
1683.71, 0.721758
1684.26, 0.721585
1684.81, 0.722450
1685.36, 0.722277
1685.9, 0.721585
1686.45, 0.721585
1687.0, 0.722450
1687.55, 0.722624
1688.1, 0.722624
1688.65, 0.722797
1689.2, 0.723489
1689.75, 0.723489
1690.3, 0.723489
1690.85, 0.723836
1691.41, 0.724009
1691.96, 0.723836
1692.51, 0.724009
1693.06, 0.724009
1693.61, 0.724702
1694.17, 0.724875
1694.72, 0.724528
1695.28, 0.724528
1695.83, 0.724355
1696.39, 0.724355
1696.94, 0.724528
1697.5, 0.724702
1698.05, 0.725394
1698.61, 0.725567
1699.17, 0.725394
1699.72, 0.725567
1700.28, 0.726087
1700.84, 0.726780
1701.4, 0.727299
1701.95, 0.726780
1702.51, 0.726433
1703.07, 0.726953
1703.63, 0.727472
1704.19, 0.727472
1704.75, 0.727299
1705.31, 0.727472
1705.88, 0.727992
1706.44, 0.728165
1707.0, 0.728338
1707.56, 0.728511
1708.12, 0.728511
1708.69, 0.728338
1709.25, 0.728511
1709.81, 0.728858
1710.38, 0.729204
1710.94, 0.729550
1711.51, 0.729550
1712.07, 0.729723
1712.64, 0.730416
1713.2, 0.730243
1713.77, 0.729897
1714.34, 0.729897
1714.9, 0.730589
1715.47, 0.730762
1716.04, 0.731109
1716.61, 0.730762
1717.18, 0.730589
1717.74, 0.731109
1718.31, 0.731282
1718.88, 0.731455
1719.45, 0.731975
1720.02, 0.732494
1720.59, 0.732148
1721.17, 0.732321
1721.74, 0.733014
1722.31, 0.733533
1722.88, 0.733706
1723.45, 0.733706
1724.03, 0.733879
1724.6, 0.734399
1725.18, 0.734572
1725.75, 0.734572
1726.33, 0.734745
1726.9, 0.734918
1727.48, 0.735092
1728.05, 0.735265
1728.63, 0.736131
1729.2, 0.736131
1729.78, 0.735784
1730.36, 0.736131
1730.94, 0.736477
1731.51, 0.736131
1732.09, 0.736477
1732.67, 0.736477
1733.25, 0.736996
1733.83, 0.736996
1734.41, 0.737343
1734.99, 0.736996
1735.57, 0.736996
1736.15, 0.737170
1736.73, 0.737516
1737.32, 0.737516
1737.9, 0.738382
1738.48, 0.738901
1739.07, 0.738728
1739.65, 0.737689
1740.23, 0.737689
1740.82, 0.738901
1741.4, 0.739074
1741.99, 0.738728
1742.57, 0.738901
1743.16, 0.739421
1743.74, 0.739594
1744.33, 0.738728
1744.92, 0.739074
1745.51, 0.739594
1746.09, 0.739767
1746.68, 0.739940
1747.27, 0.739248
1747.86, 0.739248
1748.45, 0.739940
1749.04, 0.739940
1749.63, 0.739594
1750.22, 0.739940
1750.81, 0.739940
1751.4, 0.739594
1751.99, 0.739940
1752.59, 0.739940
1753.18, 0.739767
1753.77, 0.739594
1754.37, 0.739248
1754.96, 0.739767
1755.56, 0.740460
1756.15, 0.740460
1756.74, 0.740460
1757.34, 0.740113
1757.94, 0.739940
1758.53, 0.740287
1759.13, 0.740633
1759.73, 0.740287
1760.32, 0.740287
1760.92, 0.740806
1761.52, 0.740979
1762.12, 0.740633
1762.72, 0.740460
1763.32, 0.740633
1763.92, 0.740633
1764.52, 0.740979
1765.12, 0.740979
1765.72, 0.740979
1766.32, 0.740979
1766.92, 0.740806
1767.53, 0.740979
1768.13, 0.741152
1768.73, 0.740806
1769.34, 0.740806
1769.94, 0.741152
1770.55, 0.740979
1771.15, 0.740806
1771.76, 0.741152
1772.36, 0.741326
1772.97, 0.741152
1773.57, 0.741152
1774.18, 0.741672
1774.79, 0.742365
1775.4, 0.742365
1776.0, 0.742191
1776.61, 0.742538
1777.22, 0.742711
1777.83, 0.742538
1778.44, 0.742711
1779.05, 0.742538
1779.66, 0.742711
1780.27, 0.742711
1780.88, 0.743057
1781.5, 0.743057
1782.11, 0.742884
1782.72, 0.742884
1783.33, 0.743404
1783.95, 0.744096
1784.56, 0.744096
1785.18, 0.743923
1785.79, 0.743923
1786.41, 0.743923
1787.02, 0.744443
1787.64, 0.744443
1788.26, 0.744616
1788.87, 0.744962
1789.49, 0.744789
1790.11, 0.744443
1790.73, 0.744616
1791.35, 0.745135
1791.96, 0.745308
1792.58, 0.745655
1793.21, 0.746001
1793.83, 0.745828
1794.45, 0.745482
1795.07, 0.745482
1795.69, 0.745482
1796.31, 0.745655
1796.93, 0.746001
1797.56, 0.746174
1798.18, 0.746347
1798.8, 0.746521
1799.43, 0.746521
1800.05, 0.746694
1800.68, 0.747040
1801.3, 0.747213
1801.93, 0.746867
1802.56, 0.747040
1803.18, 0.747386
1803.81, 0.747560
1804.44, 0.747906
1805.07, 0.747906
1805.7, 0.747733
1806.33, 0.748079
1806.95, 0.748599
1807.58, 0.748599
1808.22, 0.748599
1808.85, 0.748945
1809.48, 0.748945
1810.11, 0.749464
1810.74, 0.749464
1811.38, 0.749291
1812.01, 0.749118
1812.64, 0.749118
1813.28, 0.749464
1813.91, 0.749984
1814.55, 0.749638
1815.18, 0.749811
1815.82, 0.750330
1816.45, 0.750850
1817.09, 0.750850
1817.73, 0.750503
1818.36, 0.750677
1819.0, 0.750677
1819.64, 0.750850
1820.28, 0.750850
1820.92, 0.750850
1821.56, 0.751023
1822.2, 0.751023
1822.84, 0.750850
1823.48, 0.750850
1824.12, 0.751023
1824.76, 0.751196
1825.41, 0.751023
1826.05, 0.751023
1826.69, 0.751196
1827.34, 0.751196
1827.98, 0.750503
1828.63, 0.750850
1829.27, 0.751196
1829.92, 0.751023
1830.56, 0.751023
1831.21, 0.751369
1831.86, 0.751542
1832.5, 0.751369
1833.15, 0.751369
1833.8, 0.751716
1834.45, 0.751369
1835.1, 0.751369
1835.75, 0.751369
1836.4, 0.751542
1837.05, 0.751369
1837.7, 0.751716
1838.35, 0.752235
1839.01, 0.751889
1839.66, 0.751542
1840.31, 0.751716
1840.96, 0.751889
1841.62, 0.751369
1842.27, 0.751542
1842.93, 0.752062
1843.58, 0.752235
1844.24, 0.752581
1844.9, 0.752581
1845.55, 0.752408
1846.21, 0.752062
1846.87, 0.752235
1847.53, 0.752062
1848.18, 0.752062
1848.84, 0.752235
1849.5, 0.752581
1850.16, 0.752581
1850.82, 0.752581
1851.48, 0.752408
1852.14, 0.752408
1852.81, 0.752755
1853.47, 0.752755
1854.13, 0.752755
1854.8, 0.752928
1855.46, 0.752755
1856.12, 0.752581
1856.79, 0.752755
1857.45, 0.753101
1858.12, 0.753274
1858.79, 0.752928
1859.45, 0.752408
1860.12, 0.752581
1860.79, 0.753101
1861.46, 0.753274
1862.12, 0.753620
1862.79, 0.753967
1863.46, 0.754140
1864.13, 0.754140
1864.8, 0.754140
1865.48, 0.754313
1866.15, 0.754313
1866.82, 0.754140
1867.49, 0.753274
1868.16, 0.753274
1868.84, 0.753967
1869.51, 0.754486
1870.19, 0.754313
1870.86, 0.753794
1871.54, 0.754140
1872.21, 0.754486
1872.89, 0.754313
1873.56, 0.754140
1874.24, 0.754140
1874.92, 0.754486
1875.6, 0.754833
1876.28, 0.754833
1876.96, 0.755006
1877.64, 0.755352
1878.32, 0.755525
1879.0, 0.755352
1879.68, 0.755525
1880.36, 0.755179
1881.04, 0.755006
1881.73, 0.755179
1882.41, 0.755179
1883.09, 0.755006
1883.78, 0.755179
1884.46, 0.755698
1885.15, 0.755698
1885.83, 0.755179
1886.52, 0.755698
1887.21, 0.756045
1887.89, 0.755872
1888.58, 0.755872
1889.27, 0.755352
1889.96, 0.755179
1890.65, 0.755698
1891.34, 0.755698
1892.03, 0.755525
1892.72, 0.755698
1893.41, 0.755352
1894.1, 0.755352
1894.79, 0.755352
1895.49, 0.755352
1896.18, 0.755352
1896.87, 0.755006
1897.57, 0.754833
1898.26, 0.754486
1898.96, 0.754140
1899.65, 0.753967
1900.35, 0.754313
1901.05, 0.754486
1901.74, 0.754140
1902.44, 0.753967
1903.14, 0.753967
1903.84, 0.753794
1904.54, 0.754140
1905.24, 0.754486
1905.94, 0.754659
1906.64, 0.754659
1907.34, 0.754833
1908.04, 0.754659
1908.75, 0.754833
1909.45, 0.755352
1910.15, 0.755872
1910.86, 0.755525
1911.56, 0.755179
1912.27, 0.755698
1912.97, 0.756045
1913.68, 0.755872
1914.39, 0.756045
1915.09, 0.756045
1915.8, 0.756045
1916.51, 0.756737
1917.22, 0.757603
1917.93, 0.757430
1918.64, 0.757430
1919.35, 0.757430
1920.06, 0.757257
1920.77, 0.757257
1921.48, 0.757603
1922.19, 0.758123
1922.91, 0.758642
1923.62, 0.758296
1924.33, 0.758296
1925.05, 0.758815
1925.76, 0.758642
1926.48, 0.758469
1927.19, 0.758642
1927.91, 0.759335
1928.63, 0.759681
1929.35, 0.759681
1930.07, 0.759681
1930.78, 0.760028
1931.5, 0.759854
1932.22, 0.759854
1932.94, 0.760374
1933.66, 0.760547
1934.39, 0.760547
1935.11, 0.760547
1935.83, 0.760893
1936.55, 0.761067
1937.28, 0.761586
1938.0, 0.761413
1938.73, 0.761067
1939.45, 0.761413
1940.18, 0.761759
1940.9, 0.762106
1941.63, 0.761932
1942.36, 0.761586
1943.09, 0.761759
1943.81, 0.761759
1944.54, 0.761759
1945.27, 0.761932
1946.0, 0.762106
1946.73, 0.762106
1947.47, 0.762279
1948.2, 0.762279
1948.93, 0.762452
1949.66, 0.762971
1950.4, 0.762971
1951.13, 0.762798
1951.86, 0.762798
1952.6, 0.762971
1953.34, 0.763145
1954.07, 0.763318
1954.81, 0.762971
1955.55, 0.763145
1956.29, 0.763491
1957.02, 0.763491
1957.76, 0.763318
1958.5, 0.762971
1959.24, 0.763145
1959.98, 0.763145
1960.72, 0.762971
1961.47, 0.763318
1962.21, 0.763145
1962.95, 0.763491
1963.7, 0.763664
1964.44, 0.763664
1965.18, 0.763145
1965.93, 0.763318
1966.67, 0.763318
1967.42, 0.763837
1968.17, 0.763664
1968.92, 0.763664
1969.66, 0.763837
1970.41, 0.764357
1971.16, 0.764184
1971.91, 0.763837
1972.66, 0.763837
1973.41, 0.764184
1974.16, 0.764010
1974.92, 0.764184
1975.67, 0.764357
1976.42, 0.764010
1977.18, 0.763664
1977.93, 0.764010
1978.69, 0.763837
1979.44, 0.763837
1980.2, 0.764010
1980.95, 0.764357
1981.71, 0.764703
1982.47, 0.764357
1983.23, 0.764357
1983.99, 0.764530
1984.74, 0.764357
1985.51, 0.764184
1986.27, 0.764357
1987.03, 0.764876
1987.79, 0.765049
1988.55, 0.764876
1989.32, 0.764876
1990.08, 0.765049
1990.84, 0.764876
1991.61, 0.764876
1992.37, 0.765049
1993.14, 0.765223
1993.9, 0.765223
1994.67, 0.764876
1995.44, 0.765049
1996.21, 0.765049
1996.98, 0.765396
1997.75, 0.765569
1998.52, 0.765742
1999.29, 0.766088
2000.06, 0.765569
2000.83, 0.765223
2001.6, 0.764876
2002.38, 0.764876
2003.15, 0.765049
2003.93, 0.765396
2004.7, 0.765742
2005.48, 0.765569
2006.25, 0.765569
2007.03, 0.765742
2007.81, 0.765569
2008.58, 0.765569
2009.36, 0.765223
2010.14, 0.765396
2010.92, 0.765223
2011.7, 0.765049
2012.48, 0.764876
2013.26, 0.765049
2014.05, 0.765569
2014.83, 0.765742
2015.61, 0.765396
2016.4, 0.765569
2017.18, 0.765915
2017.97, 0.765742
2018.75, 0.765396
2019.54, 0.765569
2020.32, 0.765569
2021.11, 0.765396
2021.9, 0.765569
2022.69, 0.765915
2023.48, 0.765915
2024.27, 0.765396
2025.06, 0.765396
2025.85, 0.765569
2026.64, 0.765396
2027.44, 0.765049
2028.23, 0.765223
2029.02, 0.766088
2029.82, 0.765915
2030.61, 0.765569
2031.41, 0.765396
2032.2, 0.765742
2033.0, 0.765742
2033.8, 0.765569
2034.6, 0.765569
2035.4, 0.765915
2036.2, 0.765569
2037.0, 0.765049
2037.8, 0.765223
2038.6, 0.765396
2039.4, 0.765915
2040.2, 0.766088
2041.01, 0.765569
2041.81, 0.765049
2042.61, 0.764876
2043.42, 0.765223
2044.22, 0.765223
2045.03, 0.765223
2045.84, 0.765223
2046.65, 0.765569
2047.46, 0.765742
2048.26, 0.765049
2049.07, 0.765223
2049.88, 0.765396
2050.69, 0.765396
2051.51, 0.764703
2052.32, 0.764530
2053.13, 0.765049
2053.94, 0.764876
2054.76, 0.764703
2055.57, 0.765049
2056.39, 0.765223
2057.2, 0.765223
2058.02, 0.764876
2058.84, 0.764530
2059.66, 0.764703
2060.48, 0.764530
2061.29, 0.764357
2062.11, 0.763837
2062.94, 0.764184
2063.76, 0.764357
2064.58, 0.764010
2065.4, 0.763837
2066.22, 0.763318
2067.05, 0.763145
2067.87, 0.762971
2068.7, 0.763145
2069.52, 0.763145
2070.35, 0.762798
2071.18, 0.762106
2072.0, 0.761932
2072.83, 0.761586
2073.66, 0.760893
2074.49, 0.760893
2075.32, 0.761067
2076.15, 0.760893
2076.98, 0.760374
2077.82, 0.759854
2078.65, 0.759508
2079.48, 0.759508
2080.32, 0.759508
2081.15, 0.759162
2081.99, 0.758815
2082.83, 0.758815
2083.66, 0.758469
2084.5, 0.758469
2085.34, 0.758469
2086.18, 0.758123
2087.02, 0.757776
2087.86, 0.757257
2088.7, 0.756737
2089.54, 0.756911
2090.39, 0.757084
2091.23, 0.756218
2092.07, 0.755352
2092.92, 0.755179
2093.76, 0.755179
2094.61, 0.754833
2095.45, 0.754140
2096.3, 0.753620
2097.15, 0.753620
2098.0, 0.753101
2098.85, 0.752408
2099.7, 0.751542
2100.55, 0.751196
2101.4, 0.751196
2102.25, 0.751023
2103.1, 0.750677
2103.96, 0.750503
2104.81, 0.749811
2105.67, 0.749464
2106.52, 0.749291
2107.38, 0.749118
2108.24, 0.748945
2109.09, 0.748599
2109.95, 0.748252
2110.81, 0.748079
2111.67, 0.747560
2112.53, 0.747386
2113.39, 0.746867
2114.25, 0.746347
2115.12, 0.746174
2115.98, 0.746001
2116.84, 0.745308
2117.71, 0.745308
2118.58, 0.745135
2119.44, 0.744616
2120.31, 0.744789
2121.18, 0.744789
2122.04, 0.744616
2122.91, 0.744616
2123.78, 0.745482
2124.65, 0.745482
2125.52, 0.745308
2126.4, 0.745308
2127.27, 0.745482
2128.14, 0.746001
2129.02, 0.746521
2129.89, 0.746347
2130.77, 0.746174
2131.64, 0.746174
2132.52, 0.746347
2133.4, 0.746174
2134.27, 0.746001
2135.15, 0.746001
2136.03, 0.746001
2136.91, 0.745655
2137.79, 0.745655
2138.68, 0.745828
2139.56, 0.745482
2140.44, 0.744962
2141.33, 0.744616
2142.21, 0.744443
2143.1, 0.743923
2143.99, 0.743404
2144.87, 0.742711
2145.76, 0.742538
2146.65, 0.742191
2147.54, 0.741672
2148.43, 0.740979
2149.32, 0.740113
2150.21, 0.739074
2151.1, 0.738209
2151.99, 0.737343
2152.89, 0.736650
2153.78, 0.735784
2154.68, 0.734572
2155.57, 0.733360
2156.47, 0.732148
2157.37, 0.731455
2158.27, 0.730070
2159.16, 0.728684
2160.06, 0.727299
2160.96, 0.725914
2161.86, 0.724009
2162.77, 0.722277
2163.67, 0.720199
2164.57, 0.717948
2165.48, 0.715870
2166.38, 0.713619
2167.29, 0.710329
2168.2, 0.707385
2169.1, 0.704614
2170.01, 0.701497
2170.92, 0.697861
2171.83, 0.694224
2172.74, 0.690241
2173.65, 0.685393
2174.56, 0.680198
2175.47, 0.675176
2176.39, 0.669808
2177.3, 0.664093
2178.22, 0.658552
2179.13, 0.652664
2180.05, 0.646777
2180.96, 0.640196
2181.88, 0.634136
2182.8, 0.627902
2183.72, 0.621148
2184.64, 0.614741
2185.56, 0.608507
2186.48, 0.602446
2187.41, 0.596558
2188.33, 0.590844
2189.25, 0.585303
2190.18, 0.580281
2191.1, 0.575778
2192.03, 0.571622
2192.96, 0.567813
2193.89, 0.564349
2194.82, 0.561579
2195.74, 0.559155
2196.68, 0.556903
2197.61, 0.555172
2198.54, 0.553613
2199.47, 0.552401
2200.4, 0.552055
2201.34, 0.552401
2202.28, 0.553267
2203.21, 0.554479
2204.15, 0.556730
2205.08, 0.559674
2206.02, 0.563310
2206.96, 0.567466
2207.9, 0.572661
2208.84, 0.578203
2209.78, 0.583744
2210.73, 0.589805
2211.67, 0.596212
2212.61, 0.602792
2213.56, 0.609200
2214.5, 0.615780
2215.45, 0.622187
2216.4, 0.628075
2217.35, 0.634309
2218.3, 0.640543
2219.24, 0.646084
2220.2, 0.651279
2221.15, 0.656301
2222.1, 0.660976
2223.05, 0.665132
2224.0, 0.669461
2224.96, 0.673271
2225.91, 0.676561
2226.87, 0.679852
2227.83, 0.682622
2228.79, 0.685220
2229.74, 0.687990
2230.7, 0.690241
2231.66, 0.692146
2232.63, 0.694398
2233.59, 0.696302
2234.55, 0.698034
2235.51, 0.699939
2236.48, 0.701670
2237.44, 0.703056
2238.41, 0.704614
2239.38, 0.705826
2240.34, 0.707212
2241.31, 0.708597
2242.28, 0.709463
2243.25, 0.710156
2244.22, 0.710848
2245.19, 0.711714
2246.17, 0.712580
2247.14, 0.713273
2248.12, 0.713446
2249.09, 0.714138
2250.07, 0.714658
2251.04, 0.715524
2252.02, 0.715870
2253.0, 0.716216
2253.98, 0.716390
2254.96, 0.716909
2255.94, 0.717255
2256.92, 0.717602
2257.91, 0.718121
2258.89, 0.718641
2259.88, 0.719160
2260.86, 0.719507
2261.85, 0.719853
2262.83, 0.719853
2263.82, 0.719680
2264.81, 0.719853
2265.8, 0.720372
2266.79, 0.720546
2267.78, 0.720719
2268.78, 0.720372
2269.77, 0.720199
2270.76, 0.720199
2271.76, 0.719853
2272.75, 0.719853
2273.75, 0.719680
2274.75, 0.719507
2275.75, 0.719333
2276.75, 0.718987
2277.75, 0.718987
2278.75, 0.718987
2279.75, 0.718468
2280.75, 0.717948
2281.76, 0.717429
2282.76, 0.717082
2283.77, 0.716909
2284.77, 0.716563
2285.78, 0.716043
2286.79, 0.715697
2287.8, 0.715004
2288.81, 0.714312
2289.82, 0.713792
2290.83, 0.713099
2291.84, 0.712061
2292.86, 0.711541
2293.87, 0.710675
2294.89, 0.709809
2295.91, 0.709117
2296.92, 0.708078
2297.94, 0.706692
2298.96, 0.705480
2299.98, 0.704441
2301.0, 0.703056
2302.02, 0.701670
2303.04, 0.700112
2304.07, 0.698727
2305.09, 0.697341
2306.12, 0.695610
2307.15, 0.693705
2308.17, 0.691800
2309.2, 0.690068
2310.23, 0.688164
2311.26, 0.686085
2312.29, 0.684007
2313.32, 0.681756
2314.35, 0.679159
2315.39, 0.676734
2316.42, 0.674830
2317.46, 0.672579
2318.5, 0.670327
2319.53, 0.667730
2320.57, 0.664786
2321.61, 0.662362
2322.65, 0.659937
2323.69, 0.657340
2324.73, 0.654742
2325.78, 0.652491
2326.82, 0.650240
2327.86, 0.647643
2328.91, 0.645218
2329.96, 0.643313
2331.01, 0.640889
2332.05, 0.638465
2333.1, 0.636387
2334.15, 0.634482
2335.21, 0.632577
2336.26, 0.630499
2337.31, 0.628594
2338.36, 0.626863
2339.42, 0.624785
2340.48, 0.622880
2341.53, 0.621148
2342.59, 0.619416
2343.65, 0.617858
2344.71, 0.616473
2345.77, 0.614914
2346.83, 0.613702
2347.9, 0.613356
2348.96, 0.613009
2350.02, 0.612663
2351.09, 0.612836
2352.16, 0.613356
2353.23, 0.613875
2354.29, 0.614221
2355.36, 0.615434
2356.43, 0.616819
2357.51, 0.618204
2358.58, 0.619243
2359.65, 0.620455
2360.73, 0.621494
2361.8, 0.622360
2362.88, 0.623399
2363.96, 0.624265
2365.03, 0.624958
2366.11, 0.625650
2367.19, 0.626343
2368.27, 0.626689
2369.36, 0.627036
2370.44, 0.627382
2371.53, 0.627555
2372.61, 0.627902
2373.7, 0.627555
2374.78, 0.627036
2375.87, 0.626689
2376.96, 0.626516
2378.05, 0.626343
2379.14, 0.626689
2380.24, 0.626863
2381.33, 0.626689
2382.42, 0.626170
2383.52, 0.626170
2384.61, 0.626343
2385.71, 0.626516
2386.81, 0.626516
2387.91, 0.626863
2389.01, 0.627036
2390.11, 0.627036
2391.22, 0.627036
2392.32, 0.627036
2393.42, 0.626863
2394.53, 0.627036
2395.64, 0.627555
2396.74, 0.627555
2397.85, 0.627036
2398.96, 0.626516
2400.07, 0.625650
2401.18, 0.624611
2402.3, 0.623746
2403.41, 0.623053
2404.52, 0.621841
2405.64, 0.620455
2406.76, 0.619070
2407.88, 0.617512
2408.99, 0.615780
2410.11, 0.614221
2411.23, 0.612490
2412.36, 0.610412
2413.48, 0.608853
2414.6, 0.607295
2415.73, 0.605563
2416.85, 0.603831
2417.98, 0.601927
2419.11, 0.600368
2420.24, 0.598636
2421.37, 0.596732
2422.5, 0.595173
2423.64, 0.593615
2424.77, 0.591883
2425.9, 0.590151
2427.04, 0.588593
2428.18, 0.587034
2429.31, 0.585649
2430.45, 0.584264
2431.59, 0.583051
2432.73, 0.581839
2433.88, 0.580973
2435.02, 0.580281
2436.16, 0.579761
2437.31, 0.579761
2438.45, 0.579415
2439.6, 0.579242
2440.75, 0.579588
2441.9, 0.579934
2443.05, 0.580627
2444.2, 0.581147
2445.35, 0.581666
2446.51, 0.582532
2447.67, 0.583571
2448.82, 0.584264
2449.98, 0.585303
2451.14, 0.586515
2452.3, 0.587554
2453.46, 0.588420
2454.62, 0.589112
2455.78, 0.590324
2456.94, 0.591537
2458.11, 0.592402
2459.28, 0.593615
2460.44, 0.595000
2461.61, 0.596212
2462.78, 0.597424
2463.95, 0.598463
2465.12, 0.599675
2466.3, 0.600888
2467.47, 0.601927
2468.65, 0.602792
2469.82, 0.603485
2471.0, 0.604178
2472.18, 0.605044
2473.36, 0.606429
2474.54, 0.607295
2475.72, 0.607987
2476.9, 0.608853
2478.08, 0.609719
2479.27, 0.610239
2480.46, 0.610931
2481.64, 0.611797
2482.83, 0.612490
2484.02, 0.613182
2485.21, 0.613356
2486.4, 0.613875
2487.6, 0.614568
2488.79, 0.615087
2489.99, 0.615434
2491.18, 0.615780
2492.38, 0.616126
2493.58, 0.616646
2494.78, 0.617685
2495.98, 0.618551
2497.18, 0.619070
2498.39, 0.619763
2499.59, 0.620455
2500.8, 0.620975
2502.01, 0.621841
2503.21, 0.622533
2504.42, 0.622880
2505.63, 0.623226
2506.84, 0.624092
2508.06, 0.624958
2509.27, 0.625477
2510.49, 0.626343
2511.7, 0.626863
2512.92, 0.627209
2514.14, 0.627382
2515.36, 0.627382
2516.58, 0.627902
2517.8, 0.628594
2519.03, 0.629114
2520.25, 0.629460
2521.48, 0.629287
2522.7, 0.629460
2523.93, 0.629980
2525.16, 0.630499
2526.39, 0.630845
2527.62, 0.631365
2528.86, 0.631884
2530.09, 0.632231
2531.33, 0.632404
2532.56, 0.632404
2533.8, 0.633097
2535.04, 0.633097
2536.28, 0.633097
2537.52, 0.633097
2538.76, 0.633443
2540.01, 0.633616
2541.25, 0.633097
2542.5, 0.632577
2543.75, 0.632750
2544.99, 0.632577
2546.24, 0.632058
2547.49, 0.631884
2548.75, 0.631884
2550.0, 0.631538
2551.26, 0.631019
2552.51, 0.630672
2553.77, 0.630845
2555.03, 0.630845
2556.29, 0.630499
2557.55, 0.630499
2558.81, 0.629806
2560.08, 0.628594
2561.34, 0.627555
2562.61, 0.627209
2563.88, 0.627036
2565.14, 0.627209
2566.41, 0.627555
2567.68, 0.627036
2568.96, 0.625824
2570.23, 0.626170
2571.51, 0.626516
2572.78, 0.625304
2574.06, 0.625824
2575.34, 0.626343
2576.62, 0.625997
2577.9, 0.626516
2579.18, 0.626516
2580.47, 0.625997
2581.75, 0.625997
2583.04, 0.624958
2584.32, 0.625131
2585.61, 0.625824
2586.9, 0.625477
2588.2, 0.625650
2589.49, 0.625650
2590.78, 0.625477
2592.08, 0.624265
2593.37, 0.620109
2594.67, 0.617165
2595.97, 0.619416
2597.27, 0.621321
2598.57, 0.621148
2599.88, 0.619590
2601.18, 0.618204
2602.49, 0.617338
2603.79, 0.615607
2605.1, 0.613529
2606.41, 0.614221
2607.72, 0.615087
2609.03, 0.614741
2610.35, 0.614741
2611.66, 0.614741
2612.98, 0.614395
2614.3, 0.613875
2615.62, 0.612143
2616.94, 0.611451
2618.26, 0.611797
2619.58, 0.610585
2620.91, 0.611278
2622.23, 0.612836
2623.56, 0.613009
2624.89, 0.612143
2626.22, 0.610931
2627.55, 0.611451
2628.88, 0.610412
2630.21, 0.609200
2631.55, 0.610412
2632.89, 0.610931
2634.22, 0.611104
2635.56, 0.611797
2636.9, 0.611797
2638.25, 0.611104
2639.59, 0.610239
2640.93, 0.609546
2642.28, 0.608853
2643.63, 0.607987
2644.98, 0.606429
2646.33, 0.605563
2647.68, 0.604870
2649.03, 0.603658
2650.39, 0.602100
2651.74, 0.599675
2653.1, 0.598117
2654.46, 0.596385
2655.82, 0.594654
2657.18, 0.592922
2658.54, 0.590498
2659.9, 0.588766
2661.27, 0.586688
2662.64, 0.584437
2664.01, 0.580973
2665.38, 0.577856
2666.74, 0.576298
2668.12, 0.575086
2669.49, 0.570930
2670.87, 0.568679
2672.24, 0.568505
2673.62, 0.566081
2675.0, 0.562445
2676.38, 0.559155
2677.76, 0.556730
2679.15, 0.554306
2680.54, 0.552055
2681.92, 0.548591
2683.31, 0.544955
2684.7, 0.541838
2686.09, 0.538201
2687.48, 0.533699
2688.88, 0.527465
2690.27, 0.518460
2691.67, 0.505127
2693.07, 0.485212
2694.47, 0.460969
2695.87, 0.434475
2697.27, 0.406768
2698.67, 0.379408
2700.08, 0.355338
2701.49, 0.335770
2702.9, 0.321224
2704.31, 0.309795
2705.72, 0.300617
2707.13, 0.293171
2708.54, 0.285898
2709.96, 0.278105
2711.38, 0.270659
2712.8, 0.262347
2714.22, 0.252130
2715.64, 0.240355
2717.06, 0.228233
2718.49, 0.215592
2719.91, 0.202778
2721.34, 0.191695
2722.77, 0.181305
2724.2, 0.171954
2725.63, 0.164335
2727.07, 0.157581
2728.5, 0.151694
2729.94, 0.146672
2731.38, 0.143382
2732.82, 0.140438
2734.26, 0.138360
2735.7, 0.137148
2737.15, 0.135936
2738.59, 0.134204
2740.04, 0.133338
2741.49, 0.132646
2742.94, 0.131953
2744.39, 0.131433
2745.84, 0.130914
2747.3, 0.129875
2748.76, 0.128836
2750.21, 0.127450
2751.67, 0.126065
2753.14, 0.125026
2754.6, 0.124680
2756.06, 0.125546
2757.53, 0.127277
2759.0, 0.129182
2760.46, 0.131433
2761.94, 0.133858
2763.41, 0.137321
2764.88, 0.141477
2766.36, 0.145633
2767.83, 0.150135
2769.31, 0.154984
2770.79, 0.160352
2772.27, 0.166240
2773.76, 0.172474
2775.24, 0.178881
2776.73, 0.185115
2778.22, 0.191349
2779.71, 0.197756
2781.2, 0.203817
2782.69, 0.209531
2784.18, 0.215246
2785.68, 0.221307
2787.18, 0.227194
2788.68, 0.233428
2790.18, 0.239489
2791.68, 0.245550
2793.19, 0.253343
2794.69, 0.262694
2796.2, 0.272045
2797.71, 0.281222
2799.22, 0.289707
2800.73, 0.297500
2802.24, 0.303214
2803.76, 0.307370
2805.28, 0.311873
2806.8, 0.320531
2808.32, 0.334904
2809.84, 0.352740
2811.36, 0.370057
2812.89, 0.384949
2814.42, 0.397244
2815.94, 0.407288
2817.48, 0.414734
2819.01, 0.420621
2820.54, 0.425470
2822.08, 0.429280
2823.61, 0.431877
2825.15, 0.433782
2826.69, 0.435167
2828.23, 0.436379
2829.78, 0.437245
2831.32, 0.437418
2832.87, 0.437245
2834.42, 0.437765
2835.97, 0.438631
2837.52, 0.439843
2839.08, 0.441574
2840.63, 0.443652
2842.19, 0.445557
2843.75, 0.447289
2845.31, 0.449194
2846.87, 0.451099
2848.44, 0.452657
2850.0, 0.454389
2851.57, 0.455601
2853.14, 0.456986
2854.71, 0.458198
2856.28, 0.459064
2857.86, 0.459930
2859.43, 0.461142
2861.01, 0.462528
2862.59, 0.463740
2864.17, 0.464952
2865.76, 0.465818
2867.34, 0.466510
2868.93, 0.467723
2870.52, 0.468935
2872.11, 0.469801
2873.7, 0.470666
2875.29, 0.472052
2876.89, 0.473091
2878.49, 0.473957
2880.08, 0.475169
2881.69, 0.476035
2883.29, 0.477420
2884.89, 0.478459
2886.5, 0.479671
2888.11, 0.480883
2889.72, 0.481922
2891.33, 0.483308
2892.94, 0.484347
2894.56, 0.485212
2896.17, 0.486078
2897.79, 0.487290
2899.42, 0.488676
2901.04, 0.490061
2902.66, 0.491446
2904.29, 0.493005
2905.92, 0.494563
2907.55, 0.495949
2909.18, 0.497680
2910.81, 0.499412
2912.45, 0.501144
2914.08, 0.502702
2915.72, 0.504261
2917.36, 0.505819
2919.01, 0.507378
2920.65, 0.509283
2922.3, 0.511187
2923.94, 0.512919
2925.59, 0.514304
2927.25, 0.516209
2928.9, 0.517768
2930.56, 0.519153
2932.21, 0.520712
2933.87, 0.522270
2935.53, 0.523655
2937.2, 0.525214
2938.86, 0.526599
2940.53, 0.527984
2942.2, 0.529370
2943.87, 0.530928
2945.54, 0.532314
2947.22, 0.533526
2948.89, 0.534565
2950.57, 0.535431
2952.25, 0.536643
2953.93, 0.537682
2955.62, 0.538548
2957.3, 0.539760
2958.99, 0.540972
2960.68, 0.542011
2962.37, 0.543223
2964.07, 0.543916
2965.76, 0.544782
2967.46, 0.545648
2969.16, 0.546686
2970.86, 0.547899
2972.56, 0.548764
2974.27, 0.549457
2975.98, 0.550496
2977.69, 0.551535
2979.4, 0.552574
2981.11, 0.553613
2982.83, 0.554306
2984.54, 0.554825
2986.26, 0.555691
2987.98, 0.556557
2989.71, 0.557250
2991.43, 0.557942
2993.16, 0.558808
2994.89, 0.559501
2996.62, 0.560193
2998.35, 0.560886
3000.09, 0.561233
3001.83, 0.561752
3003.57, 0.562445
3005.31, 0.563137
3007.05, 0.563657
3008.79, 0.564176
3010.54, 0.564696
3012.29, 0.565215
3014.04, 0.565735
3015.8, 0.566081
3017.55, 0.566601
3019.31, 0.566947
3021.07, 0.567466
3022.83, 0.567986
3024.59, 0.568505
3026.36, 0.568852
3028.13, 0.569198
3029.9, 0.570064
3031.67, 0.570583
3033.44, 0.570930
3035.22, 0.571103
3037.0, 0.572142
3038.78, 0.572835
3040.56, 0.573527
3042.34, 0.573874
3044.13, 0.574913
3045.92, 0.575952
3047.71, 0.576471
3049.5, 0.577337
3051.3, 0.578030
3053.09, 0.578722
3054.89, 0.579588
3056.69, 0.580800
3058.5, 0.581666
3060.3, 0.582186
3062.11, 0.582878
3063.92, 0.583917
3065.73, 0.584956
3067.55, 0.585995
3069.36, 0.587034
3071.18, 0.588073
3073.0, 0.588939
3074.82, 0.589632
3076.65, 0.590324
3078.48, 0.591537
3080.31, 0.592576
3082.14, 0.593441
3083.97, 0.594480
3085.8, 0.595346
3087.64, 0.596039
3089.48, 0.596905
3091.33, 0.597944
3093.17, 0.598810
3095.02, 0.599849
3096.87, 0.601234
3098.72, 0.602273
3100.57, 0.603139
3102.43, 0.604005
3104.28, 0.605044
3106.14, 0.605736
3108.01, 0.606429
3109.87, 0.607641
3111.74, 0.608680
3113.61, 0.609892
3115.48, 0.610931
3117.35, 0.611970
3119.23, 0.613182
3121.1, 0.614221
3122.98, 0.615260
3124.87, 0.616299
3126.75, 0.617512
3128.64, 0.618551
3130.53, 0.619590
3132.42, 0.621148
3134.31, 0.622360
3136.21, 0.623226
3138.11, 0.623746
3140.01, 0.624785
3141.91, 0.625997
3143.82, 0.627209
3145.73, 0.628075
3147.64, 0.628941
3149.55, 0.630153
3151.46, 0.631192
3153.38, 0.632231
3155.3, 0.633097
3157.22, 0.634309
3159.14, 0.635175
3161.07, 0.636040
3163.0, 0.637253
3164.93, 0.638292
3166.86, 0.639331
3168.8, 0.640716
3170.74, 0.641755
3172.68, 0.642794
3174.62, 0.643660
3176.56, 0.644526
3178.51, 0.645391
3180.46, 0.646430
3182.42, 0.647643
3184.37, 0.648682
3186.33, 0.649547
3188.29, 0.650586
3190.25, 0.651625
3192.21, 0.652664
3194.18, 0.653703
3196.15, 0.654916
3198.12, 0.655955
3200.09, 0.656820
3202.07, 0.657859
3204.05, 0.658898
3206.03, 0.660110
3208.02, 0.660976
3210.0, 0.662189
3211.99, 0.663054
3213.98, 0.664093
3215.98, 0.664786
3217.97, 0.665825
3219.97, 0.667037
3221.97, 0.668076
3223.98, 0.669115
3225.98, 0.670154
3227.99, 0.670847
3230.0, 0.671540
3232.02, 0.672752
3234.03, 0.673964
3236.05, 0.674830
3238.07, 0.675349
3240.1, 0.676042
3242.12, 0.676908
3244.15, 0.677947
3246.18, 0.678986
3248.22, 0.679678
3250.25, 0.680025
3252.29, 0.680891
3254.33, 0.681929
3256.38, 0.682622
3258.43, 0.683488
3260.47, 0.684181
3262.53, 0.684873
3264.58, 0.685393
3266.64, 0.686259
3268.7, 0.686778
3270.76, 0.687125
3272.82, 0.687817
3274.89, 0.688683
3276.96, 0.689376
3279.04, 0.690068
3281.11, 0.690761
3283.19, 0.691627
3285.27, 0.692146
3287.35, 0.692666
3289.44, 0.693012
3291.53, 0.693878
3293.62, 0.694571
3295.71, 0.694917
3297.81, 0.695263
3299.91, 0.696129
3302.01, 0.696476
3304.11, 0.697168
3306.22, 0.697861
3308.33, 0.698553
3310.44, 0.699073
3312.56, 0.699419
3314.68, 0.699592
3316.8, 0.699939
3318.92, 0.700458
3321.05, 0.700978
3323.18, 0.700978
3325.31, 0.701324
3327.44, 0.701670
3329.58, 0.701670
3331.72, 0.702017
3333.86, 0.702883
3336.01, 0.703575
3338.16, 0.703749
3340.31, 0.703922
3342.46, 0.703922
3344.61, 0.703575
3346.77, 0.703575
3348.94, 0.703402
3351.1, 0.702883
3353.27, 0.702536
3355.44, 0.701844
3357.61, 0.700631
3359.79, 0.699246
3361.97, 0.697688
3364.15, 0.695956
3366.33, 0.693878
3368.52, 0.691973
3370.71, 0.690588
3372.9, 0.689895
3375.1, 0.690241
3377.3, 0.691107
3379.5, 0.692319
3381.71, 0.693532
3383.91, 0.694744
3386.12, 0.696129
3388.34, 0.697168
3390.55, 0.697861
3392.77, 0.698207
3394.99, 0.698207
3397.22, 0.697341
3399.45, 0.696649
3401.68, 0.695956
3403.91, 0.695437
3406.15, 0.694398
3408.39, 0.693878
3410.63, 0.693532
3412.87, 0.693532
3415.12, 0.693705
3417.37, 0.694051
3419.63, 0.695263
3421.88, 0.696995
3424.14, 0.698727
3426.41, 0.700805
3428.67, 0.702536
3430.94, 0.704268
3433.21, 0.705653
3435.49, 0.707039
3437.77, 0.708770
3440.05, 0.710156
3442.33, 0.711368
3444.62, 0.712234
3446.91, 0.713446
3449.2, 0.714138
3451.5, 0.714831
3453.8, 0.715870
3456.1, 0.716563
3458.41, 0.716909
3460.72, 0.717255
3463.03, 0.717429
3465.34, 0.717602
3467.66, 0.717429
3469.98, 0.716563
3472.31, 0.716043
3474.63, 0.715524
3476.96, 0.715351
3479.3, 0.715351
3481.64, 0.715524
3483.97, 0.715524
3486.32, 0.715697
3488.66, 0.715524
3491.01, 0.715177
3493.36, 0.714658
3495.72, 0.713965
3498.08, 0.713273
3500.44, 0.713446
3502.81, 0.713619
3505.18, 0.714658
3507.55, 0.716043
3509.92, 0.717255
3512.3, 0.718814
3514.68, 0.720546
3517.06, 0.722104
3519.45, 0.723663
3521.84, 0.724355
3524.24, 0.725048
3526.64, 0.725741
3529.04, 0.726433
3531.44, 0.726953
3533.85, 0.727472
3536.26, 0.727819
3538.67, 0.727992
3541.09, 0.728165
3543.51, 0.728684
3545.93, 0.729031
3548.36, 0.729550
3550.79, 0.729897
3553.22, 0.730243
3555.66, 0.730589
3558.1, 0.730936
3560.54, 0.731282
3562.99, 0.731801
3565.44, 0.731975
3567.9, 0.732321
3570.35, 0.733014
3572.81, 0.733360
3575.28, 0.733360
3577.75, 0.733533
3580.22, 0.733533
3582.69, 0.733879
3585.17, 0.734226
3587.65, 0.734572
3590.14, 0.734745
3592.62, 0.734745
3595.11, 0.734572
3597.61, 0.734399
3600.11, 0.734918
3602.61, 0.735092
3605.11, 0.734745
3607.62, 0.734572
3610.14, 0.734572
3612.65, 0.734572
3615.17, 0.734226
3617.69, 0.733879
3620.22, 0.733706
3622.75, 0.733360
3625.28, 0.733360
3627.82, 0.733360
3630.36, 0.733187
3632.9, 0.732840
3635.45, 0.732494
3638.0, 0.732148
3640.56, 0.732321
3643.12, 0.732148
3645.68, 0.731975
3648.24, 0.732321
3650.81, 0.732321
3653.39, 0.731975
3655.96, 0.731801
3658.54, 0.731975
3661.13, 0.731801
3663.71, 0.731628
3666.3, 0.731455
3668.9, 0.731282
3671.5, 0.731109
3674.1, 0.731109
3676.7, 0.731109
3679.31, 0.731282
3681.93, 0.731455
3684.54, 0.731455
3687.17, 0.731455
3689.79, 0.731455
3692.42, 0.731109
3695.05, 0.730762
3697.69, 0.730416
3700.32, 0.730243
3702.97, 0.729897
3705.61, 0.729723
3708.27, 0.729897
3710.92, 0.730070
3713.58, 0.730243
3716.24, 0.730243
3718.91, 0.730416
3721.58, 0.730762
3724.25, 0.730762
3726.93, 0.731109
3729.61, 0.731628
3732.29, 0.731801
3734.98, 0.732321
3737.67, 0.732840
3740.37, 0.733533
3743.07, 0.734399
3745.78, 0.735611
3748.49, 0.736477
3751.2, 0.736996
3753.91, 0.737516
3756.63, 0.738555
3759.36, 0.739074
3762.09, 0.739248
3764.82, 0.739594
3767.55, 0.739940
3770.29, 0.740113
3773.04, 0.739940
3775.78, 0.740113
3778.54, 0.740113
3781.29, 0.740287
3784.05, 0.740287
3786.82, 0.740460
3789.59, 0.740287
3792.36, 0.740113
3795.13, 0.739594
3797.92, 0.739594
3800.7, 0.739594
3803.49, 0.739248
3806.28, 0.739074
3809.08, 0.738901
3811.88, 0.738728
3814.68, 0.738382
3817.49, 0.737862
3820.31, 0.737516
3823.12, 0.737170
3825.94, 0.736477
3828.77, 0.736131
3831.6, 0.735784
3834.43, 0.735265
3837.27, 0.734745
3840.11, 0.734226
3842.96, 0.734053
3845.81, 0.733706
3848.67, 0.733014
3851.53, 0.732667
3854.39, 0.731455
3857.26, 0.730936
3860.13, 0.730936
3863.01, 0.730589
3865.89, 0.730070
3868.77, 0.729550
3871.66, 0.729550
3874.55, 0.729204
3877.45, 0.728511
3880.35, 0.727992
3883.26, 0.727472
3886.17, 0.726780
3889.09, 0.726087
3892.01, 0.725914
3894.93, 0.725567
3897.86, 0.725394
3900.79, 0.725394
3903.73, 0.725048
3906.67, 0.724182
3909.62, 0.723316
3912.57, 0.722797
3915.52, 0.722797
3918.48, 0.722450
3921.45, 0.721931
3924.42, 0.721411
3927.39, 0.721065
3930.37, 0.720719
3933.35, 0.720199
3936.34, 0.719853
3939.33, 0.719680
3942.32, 0.719507
3945.32, 0.719507
3948.33, 0.719160
3951.34, 0.718641
3954.35, 0.718294
3957.37, 0.718294
3960.39, 0.718294
3963.42, 0.718468
3966.45, 0.718294
3969.49, 0.717948
3972.53, 0.717602
3975.58, 0.717602
3978.63, 0.717775
3981.68, 0.717775
3984.75, 0.717775
3987.81, 0.717602
3990.88, 0.717255
3993.95, 0.716909
3997.03, 0.716563
4000.12, 0.716563
4003.21, 0.716736
4006.3, 0.716563
4009.4, 0.716216
4012.5, 0.716043
4015.61, 0.716043
4018.72, 0.716043
4021.84, 0.716043
4024.96, 0.716043
4028.09, 0.715697
4031.22, 0.715524
4034.36, 0.715351
4037.5, 0.715351
4040.65, 0.715524
4043.8, 0.715351
4046.96, 0.715004
4050.12, 0.714831
4053.29, 0.715004
4056.46, 0.715524
4059.64, 0.715524
4062.82, 0.715697
4066.0, 0.715697
4069.19, 0.715524
4072.39, 0.715697
4075.59, 0.715870
4078.8, 0.715524
4082.01, 0.715870
4085.23, 0.715870
4088.45, 0.716043
4091.68, 0.716216
4094.91, 0.715870
4098.15, 0.716043
4101.39, 0.716216
4104.63, 0.716043
4107.89, 0.716563
4111.14, 0.716909
4114.41, 0.716736
4117.67, 0.716909
4120.95, 0.716909
4124.23, 0.716909
4127.51, 0.716909
4130.8, 0.716736
4134.09, 0.716909
4137.39, 0.717082
4140.7, 0.717082
4144.01, 0.716909
4147.32, 0.717255
4150.64, 0.717255
4153.97, 0.717082
4157.3, 0.716563
4160.64, 0.716043
4163.98, 0.715870
4167.33, 0.716216
4170.68, 0.716390
4174.04, 0.716563
4177.4, 0.716736
4180.77, 0.716563
4184.14, 0.716216
4187.52, 0.715870
4190.91, 0.715697
4194.3, 0.715524
4197.69, 0.715524
4201.1, 0.716043
4204.5, 0.716043
4207.92, 0.715004
4211.34, 0.714831
4214.76, 0.714658
4218.19, 0.714485
4221.62, 0.713965
4225.06, 0.713965
4228.51, 0.714312
4231.96, 0.713965
4235.42, 0.713446
4238.88, 0.713099
4242.35, 0.712926
4245.83, 0.712580
4249.31, 0.712926
4252.79, 0.713446
4256.28, 0.713273
4259.78, 0.712926
4263.29, 0.712580
4266.79, 0.712407
4270.31, 0.712061
4273.83, 0.711887
4277.35, 0.711541
4280.89, 0.711021
4284.42, 0.710675
4287.97, 0.710675
4291.52, 0.710156
4295.07, 0.709290
4298.63, 0.709117
4302.2, 0.709117
4305.78, 0.708770
4309.35, 0.708251
4312.94, 0.707731
4316.53, 0.706692
4320.13, 0.705826
4323.73, 0.705826
4327.34, 0.704961
4330.96, 0.703922
4334.58, 0.703922
4338.21, 0.703402
4341.84, 0.702536
4345.48, 0.701324
4349.12, 0.700458
4352.77, 0.699073
4356.43, 0.697861
4360.1, 0.696995
4363.76, 0.695956
4367.44, 0.694224
4371.12, 0.692319
4374.81, 0.690241
4378.51, 0.688683
4382.21, 0.686432
4385.92, 0.684007
4389.63, 0.680891
4393.35, 0.678293
4397.08, 0.675003
4400.81, 0.672059
4404.55, 0.668596
4408.29, 0.665132
4412.04, 0.662535
4415.8, 0.659072
4419.57, 0.655608
4423.34, 0.653011
4427.12, 0.650067
4430.9, 0.645911
4434.69, 0.641928
4438.49, 0.638118
4442.29, 0.635175
4446.1, 0.632058
4449.92, 0.628075
4453.74, 0.624611
4457.57, 0.621494
4461.41, 0.617685
4465.25, 0.614048
4469.1, 0.610585
4472.95, 0.606775
4476.82, 0.603312
4480.69, 0.599675
4484.56, 0.596385
4488.44, 0.593095
4492.33, 0.589632
4496.23, 0.586168
4500.13, 0.584264
4504.04, 0.581147
4507.96, 0.577164
4511.88, 0.573874
4515.81, 0.570583
4519.75, 0.566947
4523.69, 0.563830
4527.65, 0.561233
4531.6, 0.558981
4535.57, 0.556903
4539.54, 0.554133
4543.52, 0.550496
4547.5, 0.547725
4551.5, 0.544435
4555.5, 0.540972
4559.5, 0.537855
4563.52, 0.535777
4567.54, 0.533180
4571.56, 0.530236
4575.6, 0.527465
4579.64, 0.524694
4583.69, 0.522270
4587.75, 0.520538
4591.81, 0.516902
4595.88, 0.512746
4599.96, 0.510148
4604.04, 0.508244
4608.14, 0.505473
4612.24, 0.501836
4616.34, 0.498893
4620.46, 0.495776
4624.58, 0.491966
4628.71, 0.488329
4632.84, 0.485732
4636.99, 0.482269
4641.14, 0.477939
4645.3, 0.474476
4649.47, 0.471532
4653.64, 0.468762
4657.82, 0.465645
4662.01, 0.462701
4666.21, 0.459064
4670.41, 0.455601
4674.62, 0.453177
4678.84, 0.450752
4683.07, 0.447635
4687.3, 0.444865
4691.54, 0.442440
4695.79, 0.439843
4700.05, 0.437072
4704.31, 0.434128
4708.59, 0.430838
4712.87, 0.427721
4717.15, 0.424777
4721.45, 0.423219
4725.76, 0.421660
4730.07, 0.419409
4734.39, 0.417504
4738.72, 0.414907
4743.05, 0.412483
4747.39, 0.410231
4751.75, 0.407461
4756.1, 0.406422
4760.47, 0.404517
4764.85, 0.402785
4769.23, 0.401400
4773.62, 0.399841
4778.02, 0.398456
4782.43, 0.398976
4786.85, 0.398802
4791.27, 0.397244
4795.7, 0.396551
4800.14, 0.395512
4804.59, 0.394993
4809.05, 0.395685
4813.51, 0.395512
4817.99, 0.395512
4822.47, 0.395166
4826.96, 0.394127
4831.46, 0.394300
4835.96, 0.392915
4840.48, 0.391876
4845.0, 0.392915
4849.54, 0.392915
4854.08, 0.392395
4858.63, 0.391703
4863.18, 0.392049
4867.75, 0.391876
4872.33, 0.391183
4876.91, 0.390837
4881.5, 0.390664
4886.1, 0.390837
4890.71, 0.390144
4895.33, 0.388932
4899.96, 0.389105
4904.59, 0.389798
4909.24, 0.389625
4913.89, 0.390317
4918.55, 0.392049
4923.22, 0.393261
4927.9, 0.392742
4932.59, 0.391529
4937.29, 0.392915
4942.0, 0.394127
4946.71, 0.394127
4951.44, 0.393261
4956.17, 0.392568
4960.91, 0.390837
4965.67, 0.390664
4970.43, 0.391529
4975.2, 0.392049
4979.98, 0.391876
4984.76, 0.391876
4989.56, 0.392395
4994.37, 0.392568
4999.18, 0.391703
5004.01, 0.392222
5008.84, 0.392915
5013.69, 0.393088
5018.54, 0.394127
5023.4, 0.395512
5028.28, 0.395859
5033.16, 0.395685
5038.05, 0.395859
5042.95, 0.396378
5047.86, 0.395512
5052.78, 0.396032
5057.71, 0.397417
5062.65, 0.396551
5067.6, 0.395339
5072.56, 0.394993
5077.53, 0.394300
5082.5, 0.393088
5087.49, 0.391876
5092.49, 0.391529
5097.5, 0.389451
5102.51, 0.387373
5107.54, 0.385122
5112.58, 0.384256
5117.62, 0.382352
5122.68, 0.378888
5127.75, 0.375771
5132.82, 0.371788
5137.91, 0.367113
5143.01, 0.363476
5148.12, 0.358801
5153.23, 0.352913
5158.36, 0.347891
5163.5, 0.341484
5168.65, 0.335250
5173.81, 0.329709
5178.98, 0.323994
5184.15, 0.317241
5189.34, 0.310834
5194.54, 0.305812
5199.75, 0.300617
5204.98, 0.294902
5210.21, 0.289881
5215.45, 0.285205
5220.7, 0.281222
5225.96, 0.277586
5231.23, 0.272045
5236.52, 0.267196
5241.81, 0.264252
5247.12, 0.260962
5252.44, 0.258018
5257.76, 0.253862
5263.1, 0.249879
5268.45, 0.246589
5273.81, 0.243645
5279.18, 0.241394
5284.56, 0.238970
5289.95, 0.236372
5295.36, 0.234121
5300.77, 0.231870
5306.2, 0.229792
5311.63, 0.228926
5317.08, 0.227368
5322.54, 0.225290
5328.01, 0.223385
5333.49, 0.221999
5338.98, 0.221653
5344.49, 0.220614
5350.0, 0.220095
5355.53, 0.219748
5361.07, 0.219056
5366.62, 0.218017
5372.18, 0.216978
5377.75, 0.216631
5383.34, 0.216978
5388.93, 0.215765
5394.54, 0.213514
5400.16, 0.212995
5405.79, 0.212475
5411.44, 0.211263
5417.09, 0.209185
5422.76, 0.208146
5428.43, 0.207453
5434.12, 0.206241
5439.83, 0.204510
5445.54, 0.202778
5451.26, 0.201566
5457.0, 0.201393
5462.75, 0.200700
5468.52, 0.199315
5474.29, 0.198276
5480.08, 0.197063
5485.88, 0.195505
5491.69, 0.195505
5497.51, 0.194812
5503.35, 0.193946
5509.2, 0.192388
5515.06, 0.191868
5520.93, 0.192042
5526.82, 0.191349
5532.71, 0.190829
5538.63, 0.189964
5544.55, 0.189444
5550.49, 0.189098
5556.44, 0.188925
5562.4, 0.188751
5568.37, 0.187886
5574.36, 0.186327
5580.36, 0.185634
5586.37, 0.185115
5592.4, 0.185115
5598.44, 0.184942
5604.49, 0.184595
5610.56, 0.183903
5616.63, 0.181998
5622.73, 0.181305
5628.83, 0.181478
5634.95, 0.180439
5641.08, 0.178708
5647.23, 0.178708
5653.39, 0.178708
5659.56, 0.179227
5665.74, 0.179574
5671.94, 0.178535
5678.15, 0.177842
5684.38, 0.177149
5690.62, 0.178015
5696.87, 0.180093
5703.14, 0.180093
5709.42, 0.180786
5715.72, 0.180613
5722.03, 0.180439
5728.35, 0.181305
5734.69, 0.182344
5741.03, 0.182517
5747.4, 0.182517
5753.78, 0.183037
5760.17, 0.183383
5766.58, 0.183037
5773.0, 0.183210
5779.44, 0.184249
5785.88, 0.184595
5792.35, 0.184076
5798.83, 0.183730
5805.32, 0.183037
5811.83, 0.183037
5818.35, 0.182344
5824.89, 0.181652
5831.45, 0.180786
5838.01, 0.179574
5844.59, 0.178708
5851.19, 0.178535
5857.8, 0.176457
5864.43, 0.174552
5871.07, 0.174205
5877.73, 0.173859
5884.4, 0.172647
5891.09, 0.170396
5897.79, 0.169010
5904.5, 0.169357
5911.23, 0.169184
5917.98, 0.168145
5924.75, 0.166759
5931.53, 0.165893
5938.32, 0.165893
5945.13, 0.165893
5951.96, 0.166240
5958.8, 0.167625
5965.65, 0.167971
5972.53, 0.167452
5979.42, 0.167971
5986.32, 0.168664
5993.24, 0.170223
6000.18, 0.171954
6007.13, 0.172647
6014.1, 0.173859
6021.08, 0.175764
6028.09, 0.176630
6035.1, 0.177669
6042.14, 0.178881
6049.19, 0.179920
6056.25, 0.182691
6063.34, 0.184076
6070.44, 0.184769
6077.55, 0.187366
6084.69, 0.189444
6091.84, 0.190656
6099.0, 0.192734
6106.19, 0.193946
6113.39, 0.195332
6120.61, 0.197756
6127.84, 0.198449
6135.09, 0.198449
6142.36, 0.200007
6149.65, 0.201739
6156.95, 0.203124
6164.27, 0.204163
6171.61, 0.205029
6178.97, 0.205375
6186.34, 0.205722
6193.73, 0.207107
6201.14, 0.208319
6208.57, 0.208839
6216.01, 0.209358
6223.47, 0.209705
6230.95, 0.209878
6238.45, 0.209358
6245.97, 0.208666
6253.5, 0.207973
6261.06, 0.207973
6268.63, 0.209012
6276.21, 0.209358
6283.82, 0.207800
6291.45, 0.206761
6299.1, 0.207107
6306.76, 0.206588
6314.44, 0.205029
6322.14, 0.203471
6329.86, 0.203297
6337.6, 0.202085
6345.35, 0.200180
6353.13, 0.199661
6360.92, 0.200007
6368.74, 0.198968
6376.57, 0.197756
6384.43, 0.198102
6392.3, 0.197237
6400.19, 0.195505
6408.1, 0.195159
6416.03, 0.194985
6423.98, 0.195678
6431.95, 0.194639
6439.94, 0.191868
6447.95, 0.190483
6455.98, 0.190310
6464.03, 0.189790
6472.1, 0.188925
6480.19, 0.187366
6488.31, 0.186847
6496.44, 0.186673
6504.59, 0.185981
6512.76, 0.184769
6520.95, 0.183383
6529.16, 0.183210
6537.4, 0.182864
6545.65, 0.182171
6553.92, 0.180786
6562.22, 0.180613
6570.54, 0.179747
6578.88, 0.179400
6587.23, 0.179227
6595.61, 0.179400
6604.02, 0.179054
6612.44, 0.178015
6620.89, 0.176976
6629.35, 0.176110
6637.84, 0.175418
6646.35, 0.175071
6654.88, 0.174725
6663.44, 0.174898
6672.01, 0.174552
6680.61, 0.172647
6689.23, 0.171608
6697.88, 0.170742
6706.54, 0.169184
6715.23, 0.168664
6723.94, 0.166759
6732.67, 0.164854
6741.42, 0.163642
6750.2, 0.162430
6759.0, 0.161045
6767.82, 0.158794
6776.67, 0.157235
6785.54, 0.155850
6794.44, 0.154291
6803.35, 0.153252
6812.29, 0.151867
6821.26, 0.150482
6830.24, 0.148923
6839.25, 0.147711
6848.29, 0.146845
6857.35, 0.144940
6866.43, 0.143209
6875.54, 0.141823
6884.67, 0.141131
6893.82, 0.140611
6903.0, 0.139918
6912.2, 0.138187
6921.43, 0.136282
6930.69, 0.135416
6939.96, 0.133511
6949.27, 0.131433
6958.59, 0.130221
6967.95, 0.129529
6977.33, 0.128143
6986.73, 0.127277
6996.16, 0.126065
7005.61, 0.124680
7015.09, 0.123295
7024.6, 0.122256
7034.13, 0.121043
7043.69, 0.119485
7053.27, 0.117753
7062.88, 0.116714
7072.52, 0.115848
7082.18, 0.115329
7091.87, 0.115156
7101.58, 0.114117
7111.32, 0.112212
7121.09, 0.110480
7130.88, 0.109961
7140.71, 0.109614
7150.56, 0.108402
7160.43, 0.107710
7170.33, 0.106844
7180.27, 0.105805
7190.23, 0.104766
7200.21, 0.104766
7210.23, 0.104246
7220.27, 0.102861
7230.34, 0.101995
7240.44, 0.101822
7250.56, 0.101129
7260.72, 0.100437
7270.9, 0.0997440
7281.12, 0.0983590
7291.36, 0.0968000
7301.63, 0.0959340
7311.93, 0.0948950
7322.25, 0.0931640
7332.61, 0.0922980
7343.0, 0.0924710
7353.41, 0.0922980
7363.86, 0.0914320
7374.33, 0.0903930
7384.83, 0.0900470
7395.37, 0.0890080
7405.93, 0.0879690
7416.53, 0.0869300
7427.15, 0.0858910
7437.81, 0.0848520
7448.5, 0.0836390
7459.22, 0.0820810
7469.96, 0.0817350
7480.74, 0.0815610
7491.55, 0.0808690
7502.39, 0.0803490
7513.27, 0.0798300
7524.17, 0.0787910
7535.11, 0.0775790
7546.08, 0.0772320
7557.08, 0.0758470
7568.11, 0.0741150
7579.17, 0.0734230
7590.27, 0.0730760
7601.4, 0.0720370
7612.56, 0.0708250
7623.76, 0.0709980
7634.98, 0.0706520
7646.24, 0.0703060
7657.54, 0.0689200
7668.87, 0.0678810
7680.23, 0.0670150
7691.62, 0.0659760
7703.05, 0.0654570
7714.51, 0.0654570
7726.01, 0.0647640
7737.54, 0.0635520
7749.11, 0.0628590
7760.71, 0.0628590
7772.35, 0.0628590
7784.02, 0.0619940
7795.72, 0.0613010
7807.46, 0.0616470
7819.23, 0.0609550
7831.04, 0.0607810
7842.89, 0.0602620
7854.77, 0.0593960
7866.69, 0.0590500
7878.65, 0.0590500
7890.64, 0.0583570
7902.67, 0.0574910
7914.74, 0.0562790
7926.84, 0.0557600
7938.98, 0.0559330
7951.16, 0.0557600
7963.37, 0.0562790
7975.62, 0.0559330
7987.91, 0.0555860
8000.24, 0.0557600
8012.6, 0.0550670
8025.01, 0.0543740
8037.45, 0.0543740
8049.93, 0.0550670
8062.45, 0.0557600
8075.01, 0.0554130
8087.61, 0.0536820
8100.24, 0.0529890
8112.91, 0.0540280
8125.63, 0.0547210
8138.39, 0.0550670
8151.18, 0.0533350
8164.02, 0.0516040
8176.9, 0.0524690
8189.81, 0.0528160
8202.77, 0.0531620
8215.77, 0.0529890
8228.82, 0.0540280
8241.9, 0.0548940
8255.02, 0.0548940
8268.19, 0.0540280
8281.39, 0.0536820
8294.65, 0.0545470
8307.94, 0.0554130
8321.28, 0.0555860
8334.66, 0.0567990
8348.08, 0.0595690
8361.54, 0.0618200
8375.05, 0.0647640
8388.6, 0.0687470
8402.2, 0.0718640
8415.84, 0.0777520
8429.52, 0.0851980
8443.25, 0.0921250
8457.02, 0.0988780
8470.84, 0.107536
8484.7, 0.117407
8498.61, 0.128836
8512.57, 0.142689
8526.57, 0.156196
8540.62, 0.171435
8554.71, 0.187886
8568.85, 0.204856
8583.04, 0.222865
8597.27, 0.241394
8611.55, 0.261481
8625.88, 0.282954
8640.26, 0.304773
8654.68, 0.327111
8669.16, 0.348930
8683.68, 0.369018
8698.25, 0.387720
8712.87, 0.405209
8727.53, 0.420102
8742.25, 0.428933
8757.02, 0.435860
8771.83, 0.442960
8786.7, 0.449021
8801.62, 0.451099
8816.59, 0.453523
8831.61, 0.459237
8846.68, 0.464606
8861.8, 0.468415
8876.97, 0.472225
8892.2, 0.476554
8907.48, 0.481576
8922.81, 0.485039
8938.2, 0.486598
8953.63, 0.487290
8969.13, 0.486944
8984.67, 0.485732
9000.27, 0.484520
9015.92, 0.480883
9031.63, 0.477074
9047.39, 0.474303
9063.21, 0.469108
9079.08, 0.462701
9095.01, 0.458545
9111.0, 0.453177
9127.04, 0.445904
9143.13, 0.439843
9159.28, 0.436899
9175.49, 0.433436
9191.76, 0.430838
9208.09, 0.432916
9224.47, 0.438631
9240.92, 0.447116
9257.42, 0.458718
9273.98, 0.470666
9290.6, 0.483654
9307.28, 0.496815
9324.02, 0.510148
9340.82, 0.521231
9357.68, 0.530755
9374.6, 0.538028
9391.58, 0.542531
9408.62, 0.546686
9425.73, 0.552401
9442.9, 0.557250
9460.13, 0.562271
9477.42, 0.569718
9494.78, 0.580108
9512.2, 0.593441
9529.69, 0.610065
9547.24, 0.625131
9564.86, 0.635694
9582.54, 0.640889
9600.28, 0.642448
9618.1, 0.639157
9635.97, 0.630672
9653.92, 0.617858
9671.93, 0.602619
9690.01, 0.584956
9708.16, 0.564349
9726.37, 0.542011
9744.65, 0.522270
9763.0, 0.504434
9781.43, 0.487464
9799.92, 0.474649
9818.48, 0.463220
9837.1, 0.454735
9855.8, 0.450060
9874.58, 0.444518
9893.42, 0.439323
9912.34, 0.435860
9931.33, 0.434994
9950.39, 0.433089
9969.52, 0.430319
9988.74, 0.427894
10008.0, 0.423046
10027.4, 0.414387
10046.8, 0.405209
10066.3, 0.395685
10085.9, 0.383564
10105.6, 0.371962
10125.3, 0.360706
10145.1, 0.350316
10165.0, 0.341657
10185.0, 0.335077
10205.0, 0.329709
10225.2, 0.324514
10245.4, 0.321570
10265.7, 0.317241
10286.0, 0.314297
10306.5, 0.313951
10327.0, 0.312046
10347.6, 0.307717
10368.3, 0.301656
10389.1, 0.295076
10409.9, 0.290227
10430.9, 0.283820
10451.9, 0.275335
10473.0, 0.266503
10494.2, 0.259057
10515.5, 0.250052
10536.9, 0.243299
10558.4, 0.236719
10579.9, 0.229272
10601.5, 0.223904
10623.3, 0.220787
10645.1, 0.218709
10667.0, 0.215939
10689.0, 0.211609
10711.1, 0.209185
10733.2, 0.207453
10755.5, 0.205375
10777.9, 0.202258
10800.3, 0.198276
10822.9, 0.197237
10845.5, 0.194639
10868.2, 0.191003
10891.1, 0.190483
10914.0, 0.189098
10937.0, 0.189098
10960.2, 0.188578
10983.4, 0.186154
11006.7, 0.183210
11030.1, 0.181825
11053.6, 0.180786
11077.3, 0.178881
11101.0, 0.176803
11124.8, 0.173859
11148.7, 0.171262
11172.7, 0.168837
11196.9, 0.166067
11221.1, 0.164854
11245.4, 0.161911
11269.9, 0.160352
11294.4, 0.159486
11319.1, 0.156716
11343.9, 0.152386
11368.8, 0.149962
11393.7, 0.150828
11418.8, 0.149789
11444.0, 0.147538
11469.4, 0.146845
11494.8, 0.145979
11520.3, 0.145113
11546.0, 0.144767
11571.8, 0.144421
11597.7, 0.144421
11623.7, 0.143901
11649.8, 0.143209
11676.0, 0.143728
11702.4, 0.143728
11728.9, 0.143209
11755.5, 0.143209
11782.2, 0.143555
11809.0, 0.144074
11836.0, 0.144594
11863.0, 0.143555
11890.3, 0.143035
11917.6, 0.144074
11945.0, 0.145460
11972.6, 0.144248
12000.4, 0.143382
12028.2, 0.143728
12056.2, 0.143555
12084.3, 0.142343
12112.5, 0.141650
12140.9, 0.140784
12169.4, 0.140784
12198.0, 0.139745
12226.8, 0.137148
12255.7, 0.135243
12284.7, 0.136109
12313.9, 0.135589
12343.2, 0.132819
12372.7, 0.131780
12402.3, 0.131953
12432.0, 0.132299
12461.9, 0.131780
12491.9, 0.132126
12522.1, 0.132819
12552.4, 0.133685
12582.9, 0.135762
12613.5, 0.136628
12644.3, 0.135416
12675.2, 0.135416
12706.3, 0.137148
12737.5, 0.137148
12768.9, 0.136282
12800.4, 0.135936
12832.1, 0.136109
12863.9, 0.134897
12895.9, 0.134897
12928.1, 0.135589
12960.4, 0.134550
12992.9, 0.135762
13025.5, 0.136628
13058.3, 0.137667
13091.3, 0.138014
13124.4, 0.138533
13157.8, 0.140611
13191.2, 0.144074
13224.9, 0.145806
13258.7, 0.146152
13292.7, 0.147538
13326.9, 0.148750
13361.2, 0.149096
13395.7, 0.150308
13430.4, 0.149789
13465.3, 0.150482
13500.4, 0.153079
13535.7, 0.153252
13571.1, 0.152906
13606.7, 0.153425
13642.5, 0.154811
13678.5, 0.152906
13714.7, 0.151521
13751.1, 0.152213
13787.6, 0.151694
13824.4, 0.150308
13861.4, 0.150308
13898.5, 0.151001
13935.9, 0.152213
13973.5, 0.151694
14011.2, 0.151867
14049.2, 0.153945
14087.4, 0.155157
14125.8, 0.153425
14164.3, 0.151867
14203.2, 0.151867
14242.2, 0.152386
14281.4, 0.152213
14320.9, 0.152906
14360.5, 0.154118
14400.4, 0.154118
14440.5, 0.153079
14480.9, 0.155157
14521.4, 0.156716
14562.2, 0.154811
14603.3, 0.153252
14644.5, 0.156542
14686.0, 0.157755
14727.7, 0.156023
14769.7, 0.157408
14811.9, 0.157235
14854.3, 0.155330
14897.0, 0.157581
14939.9, 0.160006
14983.1, 0.161218
15026.5, 0.162776
15070.2, 0.163815
15114.2, 0.163815
15158.3, 0.162950
15202.8, 0.165201
15247.5, 0.167452
15292.5, 0.164854
15337.7, 0.164335
15383.2, 0.164681
15429.0, 0.163469
15475.1, 0.161911
15521.4, 0.163469
15568.0, 0.165374
15614.9, 0.166413
15662.1, 0.167625
15709.6, 0.168491
15757.3, 0.170396
15805.4, 0.172993
15853.7, 0.176457
15902.3, 0.179920
15951.2, 0.181305
16000.5, 0.184595
16050.0, 0.187366
16099.8, 0.190483
16150.0, 0.195159
16200.5, 0.201566
16251.3, 0.206761
16302.4, 0.212648
16353.8, 0.218190
16405.5, 0.226675
16457.6, 0.236026
16510.0, 0.245896
16562.8, 0.255074
16615.9, 0.263386
16669.3, 0.270659
16723.1, 0.279317
16777.2, 0.289015
16831.7, 0.296807
16886.5, 0.303214
16941.7, 0.308236
16997.2, 0.309275
17053.1, 0.308583
17109.4, 0.310314
17166.1, 0.313085
17223.1, 0.316029
17280.5, 0.317760
17338.3, 0.321570
17396.5, 0.330055
17455.1, 0.341138
17514.0, 0.350489
17573.4, 0.358628
17633.2, 0.365554
17693.4, 0.370749
17754.0, 0.377676
17815.0, 0.384603
17876.4, 0.387720
17938.3, 0.391703
18000.5, 0.393954
18063.3, 0.392742
18126.4, 0.394646
18190.0, 0.398629
18254.1, 0.398629
18318.6, 0.395859
18383.5, 0.394646
18449.0, 0.394993
18514.9, 0.394993
18581.2, 0.388412
18648.0, 0.384603
18715.4, 0.382005
18783.2, 0.378715
18851.5, 0.369884
18920.3, 0.364862
18989.6, 0.363476
19059.4, 0.360013
19129.7, 0.353260
19200.6, 0.350489
19272.0, 0.351528
19343.9, 0.351008
19416.3, 0.348757
19489.3, 0.345294
19562.8, 0.346506
19637.0, 0.347026
19711.6, 0.346160
19786.8, 0.348065
19862.6, 0.346852
19939.0, 0.355164
20016.0, 0.367979
20093.6, 0.370923
20171.8, 0.374386
20250.6, 0.381313
20330.0, 0.387893
20410.0, 0.399322
20490.7, 0.404344
20572.0, 0.408500
20654.0, 0.411790
20736.6, 0.412656
20819.9, 0.410751
20903.8, 0.407980
20988.5, 0.411790
21073.8, 0.416985
21159.8, 0.419582
21246.5, 0.421833
21334.0, 0.417158
21422.1, 0.415253
21511.0, 0.421141
21600.7, 0.424777
21691.0, 0.428933
21782.1, 0.433782
21874.0, 0.430492
21966.7, 0.436379
22060.2, 0.446769
22154.5, 0.451445
22249.6, 0.440016
22345.5, 0.425124
22442.2, 0.436206
22539.8, 0.446943
22638.2, 0.454042
22737.5, 0.464086
22837.7, 0.468069
22938.7, 0.467723
23040.7, 0.465298
23143.5, 0.471532
23247.3, 0.472225
23352.1, 0.472918
23457.7, 0.478113
23564.4, 0.482095
23672.0, 0.482095
23780.5, 0.484000
23890.1, 0.488156
24000.7, 0.491620
24112.3, 0.495256
24225.0, 0.499412
24338.7, 0.500971
24453.5, 0.504088
24569.4, 0.504953
24686.4, 0.507724
24804.5, 0.506166
24923.8, 0.507897
