Database of Origin,USGS Spectral Database
Sample Description,See USGS database for additional info
Date Added,2017-02-22 02:49:14.728544

Data ID,USGS_top10          
Sample ID,topaz_15.22841
Mineral Name,topaz

Wavelength
1378.03, 0.741730
1378.4, 0.741151
1378.76, 0.741035
1379.13, 0.741324
1379.5, 0.741962
1379.87, 0.741556
1380.23, 0.742367
1380.6, 0.743004
1380.97, 0.742541
1381.34, 0.742251
1381.7, 0.742541
1382.07, 0.743178
1382.44, 0.744510
1382.81, 0.743815
1383.18, 0.743352
1383.55, 0.743526
1383.92, 0.742946
1384.29, 0.742309
1384.66, 0.742773
1385.03, 0.743294
1385.4, 0.743236
1385.77, 0.742830
1386.14, 0.742367
1386.51, 0.742309
1386.88, 0.742309
1387.25, 0.742309
1387.62, 0.743062
1387.99, 0.743120
1388.36, 0.743178
1388.74, 0.742425
1389.11, 0.742020
1389.48, 0.742367
1389.85, 0.742599
1390.23, 0.742483
1390.6, 0.741846
1390.97, 0.742193
1391.35, 0.742135
1391.72, 0.742135
1392.09, 0.742425
1392.47, 0.742193
1392.84, 0.741266
1393.21, 0.741209
1393.59, 0.741498
1393.96, 0.740977
1394.34, 0.740224
1394.71, 0.740282
1395.09, 0.740166
1395.46, 0.739934
1395.84, 0.739992
1396.22, 0.739645
1396.59, 0.738544
1396.97, 0.737733
1397.35, 0.736749
1397.72, 0.735996
1398.1, 0.735185
1398.48, 0.733505
1398.85, 0.732231
1399.23, 0.731073
1399.61, 0.728582
1399.99, 0.725744
1400.37, 0.723485
1400.74, 0.719604
1401.12, 0.714565
1401.5, 0.709005
1401.88, 0.702807
1402.26, 0.696031
1402.64, 0.688906
1403.02, 0.681377
1403.4, 0.675411
1403.78, 0.671067
1404.16, 0.669851
1404.54, 0.671878
1404.92, 0.675874
1405.3, 0.680740
1405.68, 0.687111
1406.06, 0.693308
1406.44, 0.699332
1406.83, 0.704429
1407.21, 0.708773
1407.59, 0.712075
1407.97, 0.715318
1408.35, 0.718793
1408.74, 0.720936
1409.12, 0.722616
1409.5, 0.723717
1409.89, 0.724875
1410.27, 0.726671
1410.65, 0.727134
1411.04, 0.728003
1411.42, 0.728872
1411.81, 0.729740
1412.19, 0.730493
1412.58, 0.731420
1412.96, 0.731652
1413.35, 0.732057
1413.73, 0.732926
1414.12, 0.733100
1414.5, 0.732868
1414.89, 0.733216
1415.28, 0.733621
1415.66, 0.734084
1416.05, 0.734258
1416.44, 0.733969
1416.82, 0.733969
1417.21, 0.734258
1417.6, 0.734548
1417.98, 0.734548
1418.37, 0.734374
1418.76, 0.734664
1419.15, 0.735069
1419.54, 0.734837
1419.93, 0.734895
1420.32, 0.734837
1420.71, 0.734316
1421.09, 0.733911
1421.48, 0.733911
1421.88, 0.734142
1422.27, 0.734374
1422.66, 0.734548
1423.05, 0.734432
1423.44, 0.734606
1423.83, 0.734258
1424.22, 0.734200
1424.61, 0.734432
1425.0, 0.734432
1425.39, 0.734664
1425.78, 0.734722
1426.18, 0.734490
1426.57, 0.734606
1426.96, 0.734722
1427.36, 0.734780
1427.75, 0.734316
1428.14, 0.734142
1428.54, 0.734374
1428.93, 0.734548
1429.32, 0.734432
1429.72, 0.734200
1430.11, 0.734027
1430.51, 0.734027
1430.9, 0.733737
1431.3, 0.733911
1431.69, 0.733447
1432.09, 0.733447
1432.48, 0.733563
1432.88, 0.733447
1433.28, 0.733389
1433.67, 0.733216
1434.07, 0.733216
1434.46, 0.733737
1434.86, 0.733389
1435.26, 0.733331
1435.66, 0.733042
1436.05, 0.732810
1436.45, 0.732694
1436.85, 0.732926
1437.25, 0.732984
1437.65, 0.732636
1438.05, 0.732521
1438.44, 0.732578
1438.84, 0.732578
1439.24, 0.732463
1439.64, 0.732405
1440.04, 0.732347
1440.44, 0.732115
1440.84, 0.732463
1441.24, 0.732231
1441.65, 0.732231
1442.05, 0.732347
1442.45, 0.732115
1442.85, 0.731652
1443.25, 0.731652
1443.65, 0.731999
1444.05, 0.731710
1444.46, 0.731304
1444.86, 0.732057
1445.26, 0.732405
1445.67, 0.731941
1446.07, 0.731246
1446.47, 0.731826
1446.88, 0.731652
1447.28, 0.731362
1447.68, 0.731073
1448.09, 0.731478
1448.49, 0.731304
1448.9, 0.731246
1449.3, 0.730899
1449.71, 0.730551
1450.11, 0.730378
1450.52, 0.730667
1450.93, 0.730841
1451.33, 0.730841
1451.74, 0.730609
1452.14, 0.730551
1452.55, 0.730609
1452.96, 0.730899
1453.36, 0.730320
1453.77, 0.730146
1454.18, 0.729914
1454.59, 0.729856
1455.0, 0.729914
1455.41, 0.730030
1455.81, 0.729682
1456.22, 0.729451
1456.63, 0.729335
1457.04, 0.729451
1457.45, 0.729451
1457.86, 0.729509
1458.27, 0.729277
1458.68, 0.729161
1459.09, 0.728814
1459.5, 0.728872
1459.91, 0.729161
1460.32, 0.729451
1460.74, 0.728930
1461.15, 0.728582
1461.56, 0.728698
1461.97, 0.728582
1462.39, 0.728524
1462.8, 0.728350
1463.21, 0.728524
1463.62, 0.728698
1464.04, 0.728292
1464.45, 0.728061
1464.86, 0.728177
1465.28, 0.728234
1465.69, 0.728061
1466.11, 0.727829
1466.52, 0.727887
1466.94, 0.728061
1467.35, 0.728003
1467.77, 0.727713
1468.18, 0.727655
1468.6, 0.727597
1469.02, 0.727539
1469.43, 0.727597
1469.85, 0.727366
1470.27, 0.727308
1470.68, 0.726902
1471.1, 0.727134
1471.52, 0.727424
1471.94, 0.727539
1472.35, 0.727018
1472.77, 0.727018
1473.19, 0.727250
1473.61, 0.727424
1474.03, 0.727308
1474.45, 0.727018
1474.87, 0.726786
1475.29, 0.727250
1475.71, 0.727481
1476.13, 0.727134
1476.55, 0.726671
1476.97, 0.726497
1477.39, 0.727018
1477.81, 0.727424
1478.23, 0.727250
1478.65, 0.727250
1479.07, 0.727192
1479.5, 0.727250
1479.92, 0.727134
1480.34, 0.727250
1480.76, 0.727366
1481.19, 0.727655
1481.61, 0.727481
1482.03, 0.727308
1482.46, 0.727134
1482.88, 0.727076
1483.31, 0.726786
1483.73, 0.727018
1484.16, 0.727481
1484.58, 0.727829
1485.01, 0.727771
1485.43, 0.727424
1485.86, 0.727424
1486.28, 0.727713
1486.71, 0.728003
1487.14, 0.728119
1487.56, 0.728061
1487.99, 0.728177
1488.42, 0.727945
1488.84, 0.728119
1489.27, 0.727887
1489.7, 0.727713
1490.13, 0.727655
1490.56, 0.727829
1490.98, 0.727887
1491.41, 0.727887
1491.84, 0.728119
1492.27, 0.728234
1492.7, 0.728119
1493.13, 0.728292
1493.56, 0.728292
1493.99, 0.728292
1494.42, 0.728408
1494.85, 0.728466
1495.29, 0.728292
1495.72, 0.728408
1496.15, 0.728466
1496.58, 0.728756
1497.01, 0.728524
1497.44, 0.728524
1497.88, 0.728408
1498.31, 0.728756
1498.74, 0.728814
1499.18, 0.728524
1499.61, 0.728640
1500.04, 0.728930
1500.48, 0.728872
1500.91, 0.729045
1501.35, 0.729161
1501.78, 0.729335
1502.22, 0.729161
1502.65, 0.729045
1503.09, 0.729103
1503.53, 0.729045
1503.96, 0.728872
1504.4, 0.729451
1504.83, 0.729277
1505.27, 0.729509
1505.71, 0.729103
1506.15, 0.729335
1506.58, 0.729509
1507.02, 0.729740
1507.46, 0.729682
1507.9, 0.729625
1508.34, 0.729625
1508.78, 0.729625
1509.21, 0.729682
1509.66, 0.729740
1510.09, 0.729509
1510.53, 0.729451
1510.97, 0.729509
1511.42, 0.729798
1511.86, 0.729972
1512.3, 0.730030
1512.74, 0.730146
1513.18, 0.729798
1513.62, 0.729856
1514.06, 0.729972
1514.51, 0.730030
1514.95, 0.730146
1515.39, 0.729798
1515.83, 0.729972
1516.28, 0.730204
1516.72, 0.730030
1517.16, 0.730378
1517.61, 0.730609
1518.05, 0.730609
1518.5, 0.730378
1518.94, 0.730493
1519.39, 0.730378
1519.83, 0.730146
1520.28, 0.730378
1520.73, 0.730378
1521.17, 0.730435
1521.62, 0.730204
1522.07, 0.730088
1522.51, 0.730320
1522.96, 0.730493
1523.41, 0.730493
1523.85, 0.730667
1524.3, 0.730667
1524.75, 0.730378
1525.2, 0.729972
1525.65, 0.730262
1526.1, 0.730204
1526.55, 0.730146
1527.0, 0.730493
1527.45, 0.730667
1527.9, 0.730667
1528.35, 0.730667
1528.8, 0.730841
1529.25, 0.730899
1529.7, 0.730957
1530.15, 0.731188
1530.6, 0.731188
1531.05, 0.731246
1531.51, 0.731188
1531.96, 0.731304
1532.41, 0.731246
1532.87, 0.731131
1533.32, 0.731188
1533.77, 0.731304
1534.23, 0.731594
1534.68, 0.731478
1535.14, 0.731420
1535.59, 0.731710
1536.05, 0.731768
1536.5, 0.731826
1536.96, 0.731883
1537.41, 0.732057
1537.87, 0.732521
1538.32, 0.732810
1538.78, 0.732521
1539.24, 0.732636
1539.7, 0.733042
1540.15, 0.733042
1540.61, 0.732694
1541.07, 0.732926
1541.53, 0.733274
1541.98, 0.733505
1542.44, 0.733447
1542.9, 0.733389
1543.36, 0.733621
1543.82, 0.733737
1544.28, 0.733911
1544.74, 0.733969
1545.2, 0.733969
1545.66, 0.734316
1546.12, 0.734316
1546.59, 0.734490
1547.05, 0.734490
1547.51, 0.734664
1547.97, 0.734664
1548.43, 0.735011
1548.9, 0.734780
1549.36, 0.734722
1549.82, 0.734837
1550.29, 0.735011
1550.75, 0.735127
1551.21, 0.735417
1551.68, 0.735764
1552.14, 0.735880
1552.61, 0.735880
1553.07, 0.736227
1553.54, 0.736286
1554.0, 0.736401
1554.47, 0.736227
1554.93, 0.736517
1555.4, 0.736807
1555.87, 0.736980
1556.34, 0.736923
1556.8, 0.736980
1557.27, 0.736865
1557.74, 0.737212
1558.21, 0.737328
1558.68, 0.737676
1559.14, 0.737849
1559.61, 0.737965
1560.08, 0.737965
1560.55, 0.738081
1561.02, 0.738255
1561.49, 0.738428
1561.96, 0.738197
1562.43, 0.738428
1562.9, 0.738544
1563.38, 0.738544
1563.85, 0.738428
1564.32, 0.738371
1564.79, 0.738544
1565.26, 0.738892
1565.74, 0.738718
1566.21, 0.738950
1566.68, 0.739124
1567.16, 0.739124
1567.63, 0.739008
1568.1, 0.738950
1568.58, 0.738892
1569.05, 0.739413
1569.53, 0.739645
1570.0, 0.739529
1570.48, 0.739587
1570.96, 0.739645
1571.43, 0.739819
1571.91, 0.740050
1572.39, 0.740108
1572.86, 0.740050
1573.34, 0.739934
1573.82, 0.740050
1574.3, 0.739819
1574.77, 0.739876
1575.25, 0.739876
1575.73, 0.740166
1576.21, 0.740282
1576.69, 0.740340
1577.17, 0.740803
1577.65, 0.740919
1578.13, 0.740803
1578.61, 0.740861
1579.09, 0.740745
1579.57, 0.740745
1580.05, 0.741035
1580.54, 0.741035
1581.02, 0.741035
1581.5, 0.741093
1581.98, 0.741209
1582.47, 0.741266
1582.95, 0.741151
1583.43, 0.741266
1583.92, 0.741324
1584.4, 0.741556
1584.88, 0.741614
1585.37, 0.741672
1585.85, 0.741846
1586.34, 0.741730
1586.82, 0.741904
1587.31, 0.741788
1587.8, 0.741846
1588.28, 0.741904
1588.77, 0.742020
1589.26, 0.742193
1589.74, 0.742251
1590.23, 0.742193
1590.72, 0.742251
1591.21, 0.742367
1591.7, 0.742251
1592.19, 0.742251
1592.67, 0.742193
1593.16, 0.742309
1593.65, 0.742483
1594.14, 0.742657
1594.63, 0.742888
1595.12, 0.743120
1595.61, 0.742946
1596.11, 0.742888
1596.6, 0.742830
1597.09, 0.743004
1597.58, 0.743352
1598.08, 0.743641
1598.57, 0.743526
1599.06, 0.743757
1599.55, 0.743873
1600.05, 0.744105
1600.54, 0.744163
1601.04, 0.744394
1601.53, 0.744510
1602.03, 0.744336
1602.52, 0.744452
1603.02, 0.744916
1603.51, 0.745031
1604.01, 0.745205
1604.5, 0.745321
1605.0, 0.745263
1605.5, 0.745205
1606.0, 0.745611
1606.49, 0.745900
1606.99, 0.745958
1607.49, 0.746190
1607.99, 0.746190
1608.49, 0.746248
1608.99, 0.746306
1609.49, 0.746364
1609.99, 0.746537
1610.49, 0.746653
1610.99, 0.746769
1611.49, 0.747117
1611.99, 0.747001
1612.49, 0.747059
1612.99, 0.747348
1613.49, 0.747580
1614.0, 0.747580
1614.5, 0.747696
1615.0, 0.747754
1615.51, 0.747985
1616.01, 0.748391
1616.51, 0.748680
1617.02, 0.748622
1617.52, 0.748738
1618.03, 0.749202
1618.53, 0.749549
1619.04, 0.749665
1619.54, 0.749665
1620.05, 0.749839
1620.55, 0.749897
1621.06, 0.750071
1621.57, 0.750302
1622.08, 0.750418
1622.58, 0.750650
1623.09, 0.750766
1623.6, 0.750881
1624.11, 0.751113
1624.62, 0.751461
1625.13, 0.751634
1625.64, 0.751634
1626.15, 0.751866
1626.66, 0.751808
1627.17, 0.751750
1627.68, 0.751576
1628.19, 0.751808
1628.7, 0.752156
1629.21, 0.752271
1629.72, 0.752329
1630.24, 0.752445
1630.75, 0.752677
1631.26, 0.752909
1631.78, 0.752619
1632.29, 0.752677
1632.8, 0.752909
1633.32, 0.753024
1633.83, 0.753140
1634.35, 0.753488
1634.86, 0.753314
1635.38, 0.753430
1635.9, 0.753546
1636.41, 0.753893
1636.93, 0.753951
1637.45, 0.753835
1637.96, 0.753893
1638.48, 0.753662
1639.0, 0.753546
1639.52, 0.753951
1640.04, 0.754357
1640.56, 0.754588
1641.08, 0.754588
1641.59, 0.754878
1642.11, 0.754820
1642.63, 0.754704
1643.16, 0.754588
1643.68, 0.754994
1644.2, 0.754878
1644.72, 0.754994
1645.24, 0.755167
1645.76, 0.755399
1646.29, 0.755341
1646.81, 0.755457
1647.33, 0.755457
1647.86, 0.755399
1648.38, 0.755283
1648.9, 0.755515
1649.43, 0.755631
1649.95, 0.755805
1650.48, 0.755689
1651.0, 0.755920
1651.53, 0.756210
1652.06, 0.756210
1652.58, 0.756268
1653.11, 0.756152
1653.64, 0.756268
1654.17, 0.756268
1654.69, 0.756442
1655.22, 0.756326
1655.75, 0.756326
1656.28, 0.756558
1656.81, 0.756558
1657.34, 0.756674
1657.87, 0.756789
1658.4, 0.756731
1658.93, 0.756905
1659.46, 0.757195
1659.99, 0.757195
1660.52, 0.757426
1661.05, 0.757542
1661.59, 0.757426
1662.12, 0.757484
1662.65, 0.757832
1663.19, 0.758063
1663.72, 0.758237
1664.26, 0.758353
1664.79, 0.758237
1665.32, 0.758411
1665.86, 0.758585
1666.39, 0.758411
1666.93, 0.758527
1667.47, 0.758469
1668.0, 0.758527
1668.54, 0.758816
1669.08, 0.758990
1669.61, 0.759164
1670.15, 0.759222
1670.69, 0.759338
1671.23, 0.759627
1671.77, 0.759801
1672.31, 0.759627
1672.85, 0.759454
1673.39, 0.759801
1673.93, 0.759917
1674.47, 0.759975
1675.01, 0.759917
1675.55, 0.759917
1676.09, 0.759859
1676.64, 0.759975
1677.18, 0.759859
1677.72, 0.759512
1678.26, 0.759222
1678.81, 0.758874
1679.35, 0.758585
1679.89, 0.758295
1680.44, 0.757716
1680.98, 0.757195
1681.53, 0.756731
1682.07, 0.756442
1682.62, 0.756384
1683.17, 0.756326
1683.71, 0.756500
1684.26, 0.757079
1684.81, 0.757658
1685.36, 0.758411
1685.9, 0.759280
1686.45, 0.759859
1687.0, 0.760612
1687.55, 0.761307
1688.1, 0.761423
1688.65, 0.761712
1689.2, 0.762176
1689.75, 0.762871
1690.3, 0.763218
1690.85, 0.763566
1691.41, 0.763914
1691.96, 0.763971
1692.51, 0.763914
1693.06, 0.764377
1693.61, 0.764609
1694.17, 0.764840
1694.72, 0.764956
1695.28, 0.765130
1695.83, 0.765188
1696.39, 0.765419
1696.94, 0.765477
1697.5, 0.765593
1698.05, 0.765362
1698.61, 0.765419
1699.17, 0.765767
1699.72, 0.766172
1700.28, 0.766288
1700.84, 0.766520
1701.4, 0.766636
1701.95, 0.766636
1702.51, 0.766520
1703.07, 0.766752
1703.63, 0.766752
1704.19, 0.766867
1704.75, 0.766752
1705.31, 0.766983
1705.88, 0.767157
1706.44, 0.767273
1707.0, 0.767215
1707.56, 0.767505
1708.12, 0.767505
1708.69, 0.767389
1709.25, 0.767273
1709.81, 0.767331
1710.38, 0.767331
1710.94, 0.767389
1711.51, 0.767215
1712.07, 0.767505
1712.64, 0.767562
1713.2, 0.767447
1713.77, 0.767447
1714.34, 0.767678
1714.9, 0.767968
1715.47, 0.767794
1716.04, 0.767794
1716.61, 0.767621
1717.18, 0.767736
1717.74, 0.767910
1718.31, 0.767968
1718.88, 0.768142
1719.45, 0.768257
1720.02, 0.768142
1720.59, 0.767910
1721.17, 0.768026
1721.74, 0.768257
1722.31, 0.768315
1722.88, 0.768315
1723.45, 0.768315
1724.03, 0.768489
1724.6, 0.768547
1725.18, 0.768721
1725.75, 0.768721
1726.33, 0.768837
1726.9, 0.769068
1727.48, 0.769068
1728.05, 0.768953
1728.63, 0.769011
1729.2, 0.769242
1729.78, 0.769242
1730.36, 0.769300
1730.94, 0.769242
1731.51, 0.769300
1732.09, 0.769416
1732.67, 0.769590
1733.25, 0.769648
1733.83, 0.770053
1734.41, 0.769937
1734.99, 0.769937
1735.57, 0.770169
1736.15, 0.770227
1736.73, 0.770169
1737.32, 0.770343
1737.9, 0.770516
1738.48, 0.770690
1739.07, 0.770864
1739.65, 0.770980
1740.23, 0.771154
1740.82, 0.771211
1741.4, 0.771211
1741.99, 0.771443
1742.57, 0.771443
1743.16, 0.771559
1743.74, 0.771849
1744.33, 0.771906
1744.92, 0.771849
1745.51, 0.772080
1746.09, 0.772312
1746.68, 0.772486
1747.27, 0.772428
1747.86, 0.772659
1748.45, 0.772891
1749.04, 0.773007
1749.63, 0.773123
1750.22, 0.773355
1750.81, 0.773355
1751.4, 0.773239
1751.99, 0.773065
1752.59, 0.773355
1753.18, 0.773644
1753.77, 0.773876
1754.37, 0.774050
1754.96, 0.774281
1755.56, 0.774455
1756.15, 0.774629
1756.74, 0.774629
1757.34, 0.774687
1757.94, 0.774513
1758.53, 0.774629
1759.13, 0.775034
1759.73, 0.775208
1760.32, 0.775092
1760.92, 0.775324
1761.52, 0.775556
1762.12, 0.775729
1762.72, 0.775845
1763.32, 0.775903
1763.92, 0.775845
1764.52, 0.776019
1765.12, 0.776251
1765.72, 0.776193
1766.32, 0.776251
1766.92, 0.776656
1767.53, 0.776656
1768.13, 0.776830
1768.73, 0.777004
1769.34, 0.777061
1769.94, 0.777235
1770.55, 0.777351
1771.15, 0.777525
1771.76, 0.777641
1772.36, 0.777583
1772.97, 0.777757
1773.57, 0.777814
1774.18, 0.778220
1774.79, 0.778278
1775.4, 0.778452
1776.0, 0.778683
1776.61, 0.778625
1777.22, 0.778452
1777.83, 0.778452
1778.44, 0.778567
1779.05, 0.778683
1779.66, 0.778915
1780.27, 0.779031
1780.88, 0.779204
1781.5, 0.779147
1782.11, 0.779031
1782.72, 0.778857
1783.33, 0.778973
1783.95, 0.779320
1784.56, 0.779436
1785.18, 0.779494
1785.79, 0.779320
1786.41, 0.779552
1787.02, 0.779552
1787.64, 0.779552
1788.26, 0.779610
1788.87, 0.779436
1789.49, 0.779378
1790.11, 0.779436
1790.73, 0.779494
1791.35, 0.779436
1791.96, 0.779494
1792.58, 0.779494
1793.21, 0.779494
1793.83, 0.779378
1794.45, 0.779378
1795.07, 0.779436
1795.69, 0.779436
1796.31, 0.779668
1796.93, 0.779668
1797.56, 0.779842
1798.18, 0.779610
1798.8, 0.779726
1799.43, 0.779957
1800.05, 0.780189
1800.68, 0.780305
1801.3, 0.780189
1801.93, 0.780073
1802.56, 0.780131
1803.18, 0.780305
1803.81, 0.780479
1804.44, 0.780363
1805.07, 0.780479
1805.7, 0.780884
1806.33, 0.780942
1806.95, 0.780710
1807.58, 0.780653
1808.22, 0.780363
1808.85, 0.780305
1809.48, 0.780479
1810.11, 0.780826
1810.74, 0.780942
1811.38, 0.780710
1812.01, 0.780768
1812.64, 0.781058
1813.28, 0.781116
1813.91, 0.781058
1814.55, 0.781290
1815.18, 0.781579
1815.82, 0.781579
1816.45, 0.781811
1817.09, 0.781463
1817.73, 0.781463
1818.36, 0.781637
1819.0, 0.781579
1819.64, 0.782216
1820.28, 0.782969
1820.92, 0.782680
1821.56, 0.782911
1822.2, 0.782738
1822.84, 0.782332
1823.48, 0.782216
1824.12, 0.782390
1824.76, 0.782448
1825.41, 0.783201
1826.05, 0.784244
1826.69, 0.783722
1827.34, 0.783027
1827.98, 0.783259
1828.63, 0.783317
1829.27, 0.783317
1829.92, 0.783664
1830.56, 0.784302
1831.21, 0.784533
1831.86, 0.784186
1832.5, 0.784475
1833.15, 0.784186
1833.8, 0.784070
1834.45, 0.784591
1835.1, 0.785054
1835.75, 0.785865
1836.4, 0.785749
1837.05, 0.785692
1837.7, 0.786039
1838.35, 0.784997
1839.01, 0.785460
1839.66, 0.786502
1840.31, 0.785749
1840.96, 0.785807
1841.62, 0.787198
1842.27, 0.786618
1842.93, 0.785865
1843.58, 0.785576
1844.24, 0.785518
1844.9, 0.785634
1845.55, 0.785807
1846.21, 0.786966
1846.87, 0.788356
1847.53, 0.788066
1848.18, 0.787951
1848.84, 0.787198
1849.5, 0.786792
1850.16, 0.786734
1850.82, 0.786676
1851.48, 0.786676
1852.14, 0.787198
1852.81, 0.787835
1853.47, 0.788588
1854.13, 0.788414
1854.8, 0.787429
1855.46, 0.787198
1856.12, 0.787893
1856.79, 0.788182
1857.45, 0.787661
1858.12, 0.787603
1858.79, 0.788009
1859.45, 0.788993
1860.12, 0.788819
1860.79, 0.788182
1861.46, 0.787661
1862.12, 0.787545
1862.79, 0.787661
1863.46, 0.788124
1864.13, 0.788298
1864.8, 0.788124
1865.48, 0.788066
1866.15, 0.787893
1866.82, 0.788472
1867.49, 0.789630
1868.16, 0.789051
1868.84, 0.788356
1869.51, 0.788472
1870.19, 0.789514
1870.86, 0.790383
1871.54, 0.788877
1872.21, 0.789109
1872.89, 0.790499
1873.56, 0.789398
1874.24, 0.788356
1874.92, 0.788704
1875.6, 0.788472
1876.28, 0.788704
1876.96, 0.788877
1877.64, 0.787951
1878.32, 0.787487
1879.0, 0.787313
1879.68, 0.787371
1880.36, 0.787545
1881.04, 0.787603
1881.73, 0.787255
1882.41, 0.787024
1883.09, 0.787255
1883.78, 0.787951
1884.46, 0.787893
1885.15, 0.787545
1885.83, 0.787255
1886.52, 0.787313
1887.21, 0.787255
1887.89, 0.787371
1888.58, 0.787140
1889.27, 0.787429
1889.96, 0.787893
1890.65, 0.787487
1891.34, 0.787371
1892.03, 0.787487
1892.72, 0.787082
1893.41, 0.787255
1894.1, 0.787082
1894.79, 0.786908
1895.49, 0.786792
1896.18, 0.786734
1896.87, 0.786966
1897.57, 0.787082
1898.26, 0.787140
1898.96, 0.788124
1899.65, 0.788530
1900.35, 0.787661
1901.05, 0.786966
1901.74, 0.786966
1902.44, 0.787893
1903.14, 0.787777
1903.84, 0.786966
1904.54, 0.787951
1905.24, 0.788819
1905.94, 0.788240
1906.64, 0.787951
1907.34, 0.787487
1908.04, 0.787255
1908.75, 0.787313
1909.45, 0.787198
1910.15, 0.787545
1910.86, 0.788066
1911.56, 0.787951
1912.27, 0.787545
1912.97, 0.788356
1913.68, 0.788761
1914.39, 0.788124
1915.09, 0.787893
1915.8, 0.788240
1916.51, 0.788356
1917.22, 0.788066
1917.93, 0.788009
1918.64, 0.788298
1919.35, 0.789051
1920.06, 0.790151
1920.77, 0.789920
1921.48, 0.788877
1922.19, 0.788704
1922.91, 0.788646
1923.62, 0.789051
1924.33, 0.789283
1925.05, 0.789051
1925.76, 0.789225
1926.48, 0.789398
1927.19, 0.789341
1927.91, 0.789572
1928.63, 0.789688
1929.35, 0.789456
1930.07, 0.789456
1930.78, 0.789514
1931.5, 0.789630
1932.22, 0.789514
1932.94, 0.789804
1933.66, 0.790094
1934.39, 0.790151
1935.11, 0.790151
1935.83, 0.790499
1936.55, 0.790557
1937.28, 0.790499
1938.0, 0.790441
1938.73, 0.790615
1939.45, 0.790673
1940.18, 0.790731
1940.9, 0.790673
1941.63, 0.790847
1942.36, 0.791020
1943.09, 0.791252
1943.81, 0.791426
1944.54, 0.791599
1945.27, 0.791484
1946.0, 0.791368
1946.73, 0.791368
1947.47, 0.791484
1948.2, 0.791542
1948.93, 0.791484
1949.66, 0.791484
1950.4, 0.791484
1951.13, 0.791599
1951.86, 0.791657
1952.6, 0.791773
1953.34, 0.791889
1954.07, 0.791947
1954.81, 0.791831
1955.55, 0.791773
1956.29, 0.791947
1957.02, 0.792005
1957.76, 0.791831
1958.5, 0.791831
1959.24, 0.791889
1959.98, 0.791889
1960.72, 0.791831
1961.47, 0.791715
1962.21, 0.791657
1962.95, 0.791426
1963.7, 0.791484
1964.44, 0.791947
1965.18, 0.791773
1965.93, 0.791599
1966.67, 0.791773
1967.42, 0.791715
1968.17, 0.791773
1968.92, 0.791831
1969.66, 0.791542
1970.41, 0.791368
1971.16, 0.791542
1971.91, 0.791657
1972.66, 0.791773
1973.41, 0.791715
1974.16, 0.791599
1974.92, 0.791715
1975.67, 0.792005
1976.42, 0.791889
1977.18, 0.791773
1977.93, 0.791657
1978.69, 0.791773
1979.44, 0.791831
1980.2, 0.791715
1980.95, 0.791542
1981.71, 0.791715
1982.47, 0.791831
1983.23, 0.791715
1983.99, 0.791657
1984.74, 0.791599
1985.51, 0.791599
1986.27, 0.791715
1987.03, 0.791599
1987.79, 0.791657
1988.55, 0.791599
1989.32, 0.791889
1990.08, 0.791889
1990.84, 0.791773
1991.61, 0.791657
1992.37, 0.791657
1993.14, 0.791542
1993.9, 0.791194
1994.67, 0.790904
1995.44, 0.791078
1996.21, 0.791368
1996.98, 0.791310
1997.75, 0.791136
1998.52, 0.791136
1999.29, 0.791252
2000.06, 0.791252
2000.83, 0.791020
2001.6, 0.790962
2002.38, 0.790904
2003.15, 0.791194
2003.93, 0.791136
2004.7, 0.791252
2005.48, 0.791426
2006.25, 0.791484
2007.03, 0.791542
2007.81, 0.791599
2008.58, 0.791542
2009.36, 0.791715
2010.14, 0.791715
2010.92, 0.791831
2011.7, 0.791831
2012.48, 0.791889
2013.26, 0.791889
2014.05, 0.791773
2014.83, 0.792005
2015.61, 0.792352
2016.4, 0.792642
2017.18, 0.792990
2017.97, 0.792874
2018.75, 0.792874
2019.54, 0.793221
2020.32, 0.793395
2021.11, 0.793395
2021.9, 0.793337
2022.69, 0.793337
2023.48, 0.793627
2024.27, 0.793743
2025.06, 0.793569
2025.85, 0.793569
2026.64, 0.793858
2027.44, 0.793974
2028.23, 0.793858
2029.02, 0.793916
2029.82, 0.793916
2030.61, 0.793916
2031.41, 0.794148
2032.2, 0.794148
2033.0, 0.794206
2033.8, 0.794032
2034.6, 0.794090
2035.4, 0.794322
2036.2, 0.794380
2037.0, 0.794206
2037.8, 0.794322
2038.6, 0.794322
2039.4, 0.794148
2040.2, 0.794264
2041.01, 0.794264
2041.81, 0.793974
2042.61, 0.793627
2043.42, 0.793453
2044.22, 0.793453
2045.03, 0.793453
2045.84, 0.793337
2046.65, 0.793047
2047.46, 0.792874
2048.26, 0.792642
2049.07, 0.792410
2049.88, 0.792121
2050.69, 0.792121
2051.51, 0.791947
2052.32, 0.791657
2053.13, 0.790789
2053.94, 0.790267
2054.76, 0.789920
2055.57, 0.789456
2056.39, 0.788819
2057.2, 0.788356
2058.02, 0.787719
2058.84, 0.786850
2059.66, 0.785807
2060.48, 0.784823
2061.29, 0.783838
2062.11, 0.782680
2062.94, 0.781406
2063.76, 0.779957
2064.58, 0.778046
2065.4, 0.776077
2066.22, 0.773702
2067.05, 0.770980
2067.87, 0.767910
2068.7, 0.764377
2069.52, 0.760033
2070.35, 0.755225
2071.18, 0.749665
2072.0, 0.742541
2072.83, 0.734374
2073.66, 0.724759
2074.49, 0.713175
2075.32, 0.699796
2076.15, 0.684389
2076.98, 0.666665
2077.82, 0.646045
2078.65, 0.623051
2079.48, 0.598029
2080.32, 0.573587
2081.15, 0.554183
2081.99, 0.544163
2082.83, 0.545611
2083.66, 0.557079
2084.5, 0.575151
2085.34, 0.596292
2086.18, 0.617896
2087.02, 0.638226
2087.86, 0.656529
2088.7, 0.673268
2089.54, 0.687748
2090.39, 0.700491
2091.23, 0.711495
2092.07, 0.720821
2092.92, 0.728640
2093.76, 0.735243
2094.61, 0.740919
2095.45, 0.745726
2096.3, 0.749723
2097.15, 0.753198
2098.0, 0.756036
2098.85, 0.758585
2099.7, 0.760786
2100.55, 0.762987
2101.4, 0.764493
2102.25, 0.766172
2103.1, 0.767968
2103.96, 0.769648
2104.81, 0.771154
2105.67, 0.772544
2106.52, 0.773644
2107.38, 0.774745
2108.24, 0.775961
2109.09, 0.776830
2109.95, 0.777757
2110.81, 0.778683
2111.67, 0.779262
2112.53, 0.780015
2113.39, 0.780826
2114.25, 0.781290
2115.12, 0.781579
2115.98, 0.781753
2116.84, 0.782101
2117.71, 0.782564
2118.58, 0.782854
2119.44, 0.783259
2120.31, 0.783375
2121.18, 0.783433
2122.04, 0.783491
2122.91, 0.783375
2123.78, 0.783317
2124.65, 0.783491
2125.52, 0.783664
2126.4, 0.783085
2127.27, 0.783085
2128.14, 0.781812
2129.02, 0.780596
2129.89, 0.780133
2130.77, 0.779496
2131.64, 0.778338
2132.52, 0.776891
2133.4, 0.775328
2134.27, 0.773649
2135.15, 0.772491
2136.03, 0.771334
2136.91, 0.769944
2137.79, 0.768844
2138.68, 0.768034
2139.56, 0.767281
2140.44, 0.766181
2141.33, 0.764676
2142.21, 0.764213
2143.1, 0.764329
2143.99, 0.763461
2144.87, 0.762534
2145.76, 0.762013
2146.65, 0.761434
2147.54, 0.760740
2148.43, 0.759524
2149.32, 0.758077
2150.21, 0.757035
2151.1, 0.756572
2151.99, 0.756340
2152.89, 0.756398
2153.78, 0.756803
2154.68, 0.757729
2155.57, 0.758887
2156.47, 0.760392
2157.37, 0.761724
2158.27, 0.762882
2159.16, 0.764039
2160.06, 0.765602
2160.96, 0.767281
2161.86, 0.767629
2162.77, 0.768323
2163.67, 0.769539
2164.57, 0.769944
2165.48, 0.770986
2166.38, 0.771392
2167.29, 0.770755
2168.2, 0.770581
2169.1, 0.770928
2170.01, 0.770697
2170.92, 0.770639
2171.83, 0.770697
2172.74, 0.771392
2173.65, 0.771855
2174.56, 0.772202
2175.47, 0.772144
2176.39, 0.772839
2177.3, 0.773302
2178.22, 0.773418
2179.13, 0.773997
2180.05, 0.774691
2180.96, 0.775502
2181.88, 0.776254
2182.8, 0.776196
2183.72, 0.776775
2184.64, 0.777470
2185.56, 0.777702
2186.48, 0.777817
2187.41, 0.778107
2188.33, 0.778512
2189.25, 0.778570
2190.18, 0.778223
2191.1, 0.777470
2192.03, 0.776949
2192.96, 0.776370
2193.89, 0.775849
2194.82, 0.775617
2195.74, 0.774575
2196.68, 0.774228
2197.61, 0.773881
2198.54, 0.773012
2199.47, 0.772549
2200.4, 0.772260
2201.34, 0.772144
2202.28, 0.771970
2203.21, 0.771913
2204.15, 0.772144
2205.08, 0.772028
2206.02, 0.771681
2206.96, 0.771565
2207.9, 0.771449
2208.84, 0.771218
2209.78, 0.771276
2210.73, 0.771218
2211.67, 0.771160
2212.61, 0.771623
2213.56, 0.772376
2214.5, 0.772781
2215.45, 0.773533
2216.4, 0.774749
2217.35, 0.775502
2218.3, 0.776775
2219.24, 0.777875
2220.2, 0.778975
2221.15, 0.779959
2222.1, 0.780712
2223.05, 0.781638
2224.0, 0.782796
2224.96, 0.783201
2225.91, 0.783201
2226.87, 0.783722
2227.83, 0.784533
2228.79, 0.784822
2229.74, 0.784938
2230.7, 0.784938
2231.66, 0.784706
2232.63, 0.784938
2233.59, 0.785285
2234.55, 0.785343
2235.51, 0.785748
2236.48, 0.785922
2237.44, 0.785227
2238.41, 0.785112
2239.38, 0.785227
2240.34, 0.785517
2241.31, 0.785227
2242.28, 0.785169
2243.25, 0.785054
2244.22, 0.785112
2245.19, 0.784996
2246.17, 0.785227
2247.14, 0.785285
2248.12, 0.784938
2249.09, 0.785054
2250.07, 0.784822
2251.04, 0.784243
2252.02, 0.783664
2253.0, 0.782564
2253.98, 0.781175
2254.96, 0.779844
2255.94, 0.778338
2256.92, 0.775270
2257.91, 0.772202
2258.89, 0.769423
2259.88, 0.766992
2260.86, 0.766123
2261.85, 0.766876
2262.83, 0.768555
2263.82, 0.770813
2264.81, 0.772897
2265.8, 0.774807
2266.79, 0.776196
2267.78, 0.777586
2268.78, 0.779265
2269.77, 0.780943
2270.76, 0.781580
2271.76, 0.782275
2272.75, 0.782622
2273.75, 0.782796
2274.75, 0.783085
2275.75, 0.783433
2276.75, 0.783433
2277.75, 0.784012
2278.75, 0.783722
2279.75, 0.783606
2280.75, 0.783722
2281.76, 0.783896
2282.76, 0.783722
2283.77, 0.783433
2284.77, 0.783028
2285.78, 0.782680
2286.79, 0.782043
2287.8, 0.781233
2288.81, 0.780943
2289.82, 0.780770
2290.83, 0.780191
2291.84, 0.779554
2292.86, 0.778107
2293.87, 0.777181
2294.89, 0.775965
2295.91, 0.775328
2296.92, 0.774460
2297.94, 0.773823
2298.96, 0.773186
2299.98, 0.772260
2301.0, 0.771739
2302.02, 0.771681
2303.04, 0.770871
2304.07, 0.770060
2305.09, 0.769886
2306.12, 0.770002
2307.15, 0.769828
2308.17, 0.769076
2309.2, 0.768613
2310.23, 0.768034
2311.26, 0.767918
2312.29, 0.767802
2313.32, 0.767165
2314.35, 0.766645
2315.39, 0.766008
2316.42, 0.765545
2317.46, 0.765429
2318.5, 0.764966
2319.53, 0.764097
2320.57, 0.762882
2321.61, 0.761782
2322.65, 0.760971
2323.69, 0.760103
2324.73, 0.760045
2325.78, 0.759408
2326.82, 0.759003
2327.86, 0.758540
2328.91, 0.758829
2329.96, 0.758829
2331.01, 0.758887
2332.05, 0.758540
2333.1, 0.758656
2334.15, 0.758771
2335.21, 0.758887
2336.26, 0.758771
2337.31, 0.758598
2338.36, 0.758077
2339.42, 0.757498
2340.48, 0.757208
2341.53, 0.757208
2342.59, 0.757093
2343.65, 0.756745
2344.71, 0.756803
2345.77, 0.756629
2346.83, 0.756514
2347.9, 0.756919
2348.96, 0.757324
2350.02, 0.757671
2351.09, 0.757498
2352.16, 0.758077
2353.23, 0.757845
2354.29, 0.757556
2355.36, 0.757556
2356.43, 0.756861
2357.51, 0.756050
2358.58, 0.755472
2359.65, 0.755009
2360.73, 0.754777
2361.8, 0.754487
2362.88, 0.753966
2363.96, 0.753619
2365.03, 0.753040
2366.11, 0.752982
2367.19, 0.752809
2368.27, 0.752114
2369.36, 0.751651
2370.44, 0.751014
2371.53, 0.750261
2372.61, 0.749798
2373.7, 0.749451
2374.78, 0.749335
2375.87, 0.749914
2376.96, 0.750146
2378.05, 0.750319
2379.14, 0.750377
2380.24, 0.750840
2381.33, 0.750898
2382.42, 0.750725
2383.52, 0.751072
2384.61, 0.751303
2385.71, 0.751419
2386.81, 0.750898
2387.91, 0.750203
2389.01, 0.749625
2390.11, 0.748872
2391.22, 0.748698
2392.32, 0.748177
2393.42, 0.747541
2394.53, 0.747598
2395.64, 0.747425
2396.74, 0.746904
2397.85, 0.746383
2398.96, 0.745862
2400.07, 0.745341
2401.18, 0.745630
2402.3, 0.745514
2403.41, 0.745225
2404.52, 0.744762
2405.64, 0.744183
2406.76, 0.743141
2407.88, 0.742504
2408.99, 0.741231
2410.11, 0.739552
2411.23, 0.737989
2412.36, 0.736947
2413.48, 0.735847
2414.6, 0.734631
2415.73, 0.733878
2416.85, 0.733242
2417.98, 0.732894
2419.11, 0.732547
2420.24, 0.732547
2421.37, 0.732026
2422.5, 0.731736
2423.64, 0.731621
2424.77, 0.731389
2425.9, 0.731389
2427.04, 0.731158
2428.18, 0.731158
2429.31, 0.731273
2430.45, 0.731158
2431.59, 0.730984
2432.73, 0.730868
2433.88, 0.731042
2435.02, 0.731447
2436.16, 0.732200
2437.31, 0.733068
2438.45, 0.733647
2439.6, 0.733705
2440.75, 0.733820
2441.9, 0.733415
2443.05, 0.732431
2444.2, 0.730810
2445.35, 0.729537
2446.51, 0.728552
2447.67, 0.727279
2448.82, 0.726237
2449.98, 0.725195
2451.14, 0.724326
2452.3, 0.723227
2453.46, 0.721837
2454.62, 0.720100
2455.78, 0.718306
2456.94, 0.716453
2458.11, 0.714485
2459.28, 0.712169
2460.44, 0.710201
2461.61, 0.708580
2462.78, 0.706959
2463.95, 0.705396
2465.12, 0.703833
2466.3, 0.702560
2467.47, 0.701228
2468.65, 0.700012
2469.82, 0.699028
2471.0, 0.698044
2472.18, 0.697465
2473.36, 0.697697
2474.54, 0.697986
2475.72, 0.698102
2476.9, 0.697755
2478.08, 0.697813
2479.27, 0.697523
2480.46, 0.696828
2481.64, 0.695555
2482.83, 0.693587
2484.02, 0.691503
2485.21, 0.689592
2486.4, 0.687913
2487.6, 0.686640
2488.79, 0.685366
2489.99, 0.684208
2491.18, 0.682066
2492.38, 0.680040
2493.58, 0.676914
2494.78, 0.672920
2495.98, 0.668404
2497.18, 0.664005
2498.39, 0.660357
2499.59, 0.657521
2500.8, 0.655437
2502.01, 0.654568
2503.21, 0.654163
2504.42, 0.653526
2505.63, 0.652947
2506.84, 0.653005
2508.06, 0.652774
2509.27, 0.651790
2510.49, 0.649821
2511.7, 0.647216
2512.92, 0.643685
2514.14, 0.639401
2515.36, 0.634191
2516.58, 0.629097
2517.8, 0.624928
2519.03, 0.622092
2520.25, 0.620760
2521.48, 0.619718
2522.7, 0.618618
2523.93, 0.617924
2525.16, 0.616940
2526.39, 0.615087
2527.62, 0.612308
2528.86, 0.609182
2530.09, 0.605825
2531.33, 0.603277
2532.56, 0.601946
2533.8, 0.601483
2535.04, 0.601599
2536.28, 0.602698
2537.52, 0.604898
2538.76, 0.607156
2540.01, 0.608430
2541.25, 0.607909
2542.5, 0.606346
2543.75, 0.604088
2544.99, 0.602004
2546.24, 0.600499
2547.49, 0.600267
2548.75, 0.601309
2550.0, 0.602409
2551.26, 0.604609
2552.51, 0.607735
2553.77, 0.612077
2555.03, 0.616708
2556.29, 0.622208
2557.55, 0.627418
2558.81, 0.631644
2560.08, 0.634249
2561.34, 0.636333
2562.61, 0.638648
2563.88, 0.642238
2565.14, 0.646637
2566.41, 0.650458
2567.68, 0.652890
2568.96, 0.654858
2570.23, 0.657521
2571.51, 0.660010
2572.78, 0.662268
2574.06, 0.666147
2575.34, 0.669273
2576.62, 0.672978
2577.9, 0.676740
2579.18, 0.679809
2580.47, 0.681545
2581.75, 0.681719
2583.04, 0.680156
2584.32, 0.679172
2585.61, 0.677319
2586.9, 0.675525
2588.2, 0.674656
2589.49, 0.675467
2590.78, 0.675872
2592.08, 0.674078
2593.37, 0.670662
2594.67, 0.668173
2595.97, 0.667594
2597.27, 0.667073
2598.57, 0.665741
2599.88, 0.663947
2601.18, 0.662557
2602.49, 0.662036
2603.79, 0.662036
2605.1, 0.663194
2606.41, 0.664931
2607.72, 0.667131
2609.03, 0.668867
2610.35, 0.670257
2611.66, 0.671183
2612.98, 0.671009
2614.3, 0.669736
2615.62, 0.667189
2616.94, 0.665625
2618.26, 0.664931
2619.58, 0.664815
2620.91, 0.666957
2622.23, 0.670257
2623.56, 0.673383
2624.89, 0.675409
2626.22, 0.677783
2627.55, 0.681488
2628.88, 0.683572
2630.21, 0.685829
2631.55, 0.689071
2632.89, 0.691445
2634.22, 0.693934
2635.56, 0.695729
2636.9, 0.697176
2638.25, 0.698160
2639.59, 0.698565
2640.93, 0.698970
2642.28, 0.699607
2643.63, 0.700186
2644.98, 0.700418
2646.33, 0.701170
2647.68, 0.702444
2649.03, 0.702965
2650.39, 0.702675
2651.74, 0.701981
2653.1, 0.701981
2654.46, 0.702270
2655.82, 0.702618
2657.18, 0.702444
2658.54, 0.701460
2659.9, 0.701054
2661.27, 0.701112
2662.64, 0.700476
2664.01, 0.698218
2665.38, 0.696365
2666.74, 0.695902
2668.12, 0.695439
2669.49, 0.693876
2670.87, 0.693760
2672.24, 0.694108
2673.62, 0.693702
2675.0, 0.691676
2676.38, 0.688955
2677.76, 0.687103
2679.15, 0.686408
2680.54, 0.685887
2681.92, 0.683803
2683.31, 0.681719
2684.7, 0.679635
2686.09, 0.678014
2687.48, 0.676393
2688.88, 0.674946
2690.27, 0.672572
2691.67, 0.668809
2693.07, 0.664236
2694.47, 0.660821
2695.87, 0.658273
2697.27, 0.655842
2698.67, 0.651963
2700.08, 0.647679
2701.49, 0.643280
2702.9, 0.639517
2704.31, 0.634943
2705.72, 0.629849
2707.13, 0.623481
2708.54, 0.615898
2709.96, 0.607677
2711.38, 0.599978
2712.8, 0.591468
2714.22, 0.580816
2715.64, 0.567501
2717.06, 0.552623
2718.49, 0.538150
2719.91, 0.522983
2721.34, 0.505963
2722.77, 0.487959
2724.2, 0.466540
2725.63, 0.441994
2727.07, 0.413339
2728.5, 0.378373
2729.94, 0.336518
2731.38, 0.288990
2732.82, 0.237178
2734.26, 0.183803
2735.7, 0.134422
2737.15, 0.0985300
2738.59, 0.0762420
2740.04, 0.0694110
2741.49, 0.0768210
2742.94, 0.0933200
2744.39, 0.113871
2745.84, 0.135753
2747.3, 0.156304
2748.76, 0.175814
2750.21, 0.198217
2751.67, 0.226005
2753.14, 0.256224
2754.6, 0.287832
2756.06, 0.321524
2757.53, 0.349890
2759.0, 0.371773
2760.46, 0.387404
2761.94, 0.399387
2763.41, 0.411602
2764.88, 0.425206
2766.36, 0.439331
2767.83, 0.452820
2769.31, 0.462082
2770.79, 0.464514
2772.27, 0.463298
2773.76, 0.466250
2775.24, 0.475571
2776.73, 0.487323
2778.22, 0.497280
2779.71, 0.503474
2781.2, 0.507874
2782.69, 0.512621
2784.18, 0.516384
2785.68, 0.517484
2787.18, 0.516615
2788.68, 0.515168
2790.18, 0.514647
2791.68, 0.516557
2793.19, 0.521478
2794.69, 0.528020
2796.2, 0.534909
2797.71, 0.541045
2799.22, 0.545734
2800.73, 0.548976
2802.24, 0.551350
2803.76, 0.554013
2805.28, 0.556965
2806.8, 0.559223
2808.32, 0.560380
2809.84, 0.561191
2811.36, 0.561828
2812.89, 0.561307
2814.42, 0.559744
2815.94, 0.557775
2817.48, 0.554591
2819.01, 0.549960
2820.54, 0.544229
2822.08, 0.538093
2823.61, 0.530914
2825.15, 0.523215
2826.69, 0.516326
2828.23, 0.512389
2829.78, 0.513315
2831.32, 0.519626
2832.87, 0.529756
2834.42, 0.541045
2835.97, 0.550713
2837.52, 0.557660
2839.08, 0.562117
2840.63, 0.564664
2842.19, 0.566054
2843.75, 0.566343
2845.31, 0.565822
2846.87, 0.564780
2848.44, 0.562986
2850.0, 0.560901
2851.57, 0.558412
2853.14, 0.555228
2854.71, 0.551407
2856.28, 0.547066
2857.86, 0.542261
2859.43, 0.536587
2861.01, 0.529814
2862.59, 0.522346
2864.17, 0.515052
2865.76, 0.508916
2867.34, 0.505442
2868.93, 0.505674
2870.52, 0.509147
2872.11, 0.514705
2873.7, 0.521073
2875.29, 0.527441
2876.89, 0.532882
2878.49, 0.537456
2880.08, 0.541161
2881.69, 0.543940
2883.29, 0.546139
2884.89, 0.547645
2886.5, 0.548918
2888.11, 0.549555
2889.72, 0.549844
2891.33, 0.549671
2892.94, 0.549092
2894.56, 0.548166
2896.17, 0.546892
2897.79, 0.545213
2899.42, 0.543071
2901.04, 0.541624
2902.66, 0.541045
2904.29, 0.539366
2905.92, 0.534330
2907.55, 0.525878
2909.18, 0.519510
2910.81, 0.521941
2912.45, 0.530277
2914.08, 0.537919
2915.72, 0.542377
2917.36, 0.544171
2919.01, 0.543534
2920.65, 0.541682
2922.3, 0.540119
2923.94, 0.539887
2925.59, 0.542203
2927.25, 0.546776
2928.9, 0.551581
2930.56, 0.554997
2932.21, 0.557254
2933.87, 0.558991
2935.53, 0.560438
2937.2, 0.561538
2938.86, 0.562233
2940.53, 0.562407
2942.2, 0.562001
2943.87, 0.561712
2945.54, 0.561538
2947.22, 0.561480
2948.89, 0.560959
2950.57, 0.559859
2952.25, 0.558817
2953.93, 0.557775
2955.62, 0.556618
2957.3, 0.555749
2958.99, 0.554534
2960.68, 0.553376
2962.37, 0.552276
2964.07, 0.551350
2965.76, 0.550886
2967.46, 0.550829
2969.16, 0.551060
2970.86, 0.551407
2972.56, 0.551639
2974.27, 0.551755
2975.98, 0.551581
2977.69, 0.551118
2979.4, 0.551002
2981.11, 0.551234
2982.83, 0.551581
2984.54, 0.551986
2986.26, 0.552797
2987.98, 0.553897
2989.71, 0.555286
2991.43, 0.556733
2993.16, 0.558239
2994.89, 0.559396
2996.62, 0.560207
2998.35, 0.560901
3000.09, 0.561596
3001.83, 0.562059
3003.57, 0.562464
3005.31, 0.563159
3007.05, 0.564375
3008.79, 0.565648
3010.54, 0.567154
3012.29, 0.568485
3014.04, 0.569932
3015.8, 0.571495
3017.55, 0.572827
3019.31, 0.574158
3021.07, 0.575200
3022.83, 0.576300
3024.59, 0.577169
3026.36, 0.577516
3028.13, 0.577921
3029.9, 0.578327
3031.67, 0.578732
3033.44, 0.579311
3035.22, 0.579890
3037.0, 0.580584
3038.78, 0.581568
3040.56, 0.582668
3042.34, 0.583826
3044.13, 0.584752
3045.92, 0.585679
3047.71, 0.586605
3049.5, 0.587357
3051.3, 0.588168
3053.09, 0.588863
3054.89, 0.589789
3056.69, 0.590715
3058.5, 0.591352
3060.3, 0.591989
3062.11, 0.592799
3063.92, 0.593378
3065.73, 0.593841
3067.55, 0.593957
3069.36, 0.594246
3071.18, 0.594825
3073.0, 0.595404
3074.82, 0.595752
3076.65, 0.595925
3078.48, 0.596388
3080.31, 0.596851
3082.14, 0.597257
3083.97, 0.597836
3085.8, 0.598415
3087.64, 0.599051
3089.48, 0.599630
3091.33, 0.600035
3093.17, 0.600614
3095.02, 0.601193
3096.87, 0.601656
3098.72, 0.602235
3100.57, 0.602988
3102.43, 0.603567
3104.28, 0.603972
3106.14, 0.604551
3108.01, 0.605130
3109.87, 0.605535
3111.74, 0.606056
3113.61, 0.606635
3115.48, 0.607098
3117.35, 0.607677
3119.23, 0.608314
3121.1, 0.608835
3122.98, 0.609414
3124.87, 0.609935
3126.75, 0.610282
3128.64, 0.610572
3130.53, 0.610861
3132.42, 0.611266
3134.31, 0.611672
3136.21, 0.611961
3138.11, 0.612482
3140.01, 0.612829
3141.91, 0.613235
3143.82, 0.613524
3145.73, 0.613813
3147.64, 0.614450
3149.55, 0.615145
3151.46, 0.615376
3153.38, 0.615666
3155.3, 0.616013
3157.22, 0.616303
3159.14, 0.616592
3161.07, 0.617055
3163.0, 0.617461
3164.93, 0.617866
3166.86, 0.618213
3168.8, 0.618560
3170.74, 0.619024
3172.68, 0.619892
3174.62, 0.620529
3176.56, 0.621108
3178.51, 0.621455
3180.46, 0.621802
3182.42, 0.622323
3184.37, 0.622844
3186.33, 0.623365
3188.29, 0.623828
3190.25, 0.624118
3192.21, 0.624581
3194.18, 0.624986
3196.15, 0.625334
3198.12, 0.625623
3200.09, 0.625970
3202.07, 0.626549
3204.05, 0.627186
3206.03, 0.627533
3208.02, 0.627823
3210.0, 0.627997
3211.99, 0.628344
3213.98, 0.628923
3215.98, 0.629328
3217.97, 0.629675
3219.97, 0.630023
3221.97, 0.630312
3223.98, 0.630717
3225.98, 0.631123
3227.99, 0.631528
3230.0, 0.631817
3232.02, 0.632049
3234.03, 0.632396
3236.05, 0.632802
3238.07, 0.633149
3240.1, 0.633380
3242.12, 0.633786
3244.15, 0.634191
3246.18, 0.634422
3248.22, 0.634712
3250.25, 0.635291
3252.29, 0.635696
3254.33, 0.636043
3256.38, 0.636564
3258.43, 0.637143
3260.47, 0.637549
3262.53, 0.637896
3264.58, 0.638185
3266.64, 0.638591
3268.7, 0.638938
3270.76, 0.639401
3272.82, 0.640038
3274.89, 0.640443
3276.96, 0.640906
3279.04, 0.641427
3281.11, 0.641832
3283.19, 0.642180
3285.27, 0.642585
3287.35, 0.642990
3289.44, 0.643338
3291.53, 0.643627
3293.62, 0.643974
3295.71, 0.644322
3297.81, 0.644669
3299.91, 0.645074
3302.01, 0.645422
3304.11, 0.646058
3306.22, 0.646464
3308.33, 0.646753
3310.44, 0.647101
3312.56, 0.647390
3314.68, 0.647853
3316.8, 0.648316
3318.92, 0.648721
3321.05, 0.649127
3323.18, 0.649474
3325.31, 0.649648
3327.44, 0.649995
3329.58, 0.650342
3331.72, 0.650632
3333.86, 0.650979
3336.01, 0.651558
3338.16, 0.652021
3340.31, 0.652368
3342.46, 0.652484
3344.61, 0.652484
3346.77, 0.652600
3348.94, 0.652774
3351.1, 0.652832
3353.27, 0.652890
3355.44, 0.652832
3357.61, 0.652716
3359.79, 0.652600
3361.97, 0.652484
3364.15, 0.652368
3366.33, 0.652253
3368.52, 0.652311
3370.71, 0.652484
3372.9, 0.652716
3375.1, 0.652774
3377.3, 0.653237
3379.5, 0.653758
3381.71, 0.654163
3383.91, 0.654510
3386.12, 0.655032
3388.34, 0.655379
3390.55, 0.655437
3392.77, 0.655553
3394.99, 0.655437
3397.22, 0.655379
3399.45, 0.655379
3401.68, 0.655379
3403.91, 0.655205
3406.15, 0.655089
3408.39, 0.655205
3410.63, 0.655495
3412.87, 0.655784
3415.12, 0.656305
3417.37, 0.656710
3419.63, 0.657521
3421.88, 0.658621
3424.14, 0.659663
3426.41, 0.660705
3428.67, 0.661515
3430.94, 0.662268
3433.21, 0.663078
3435.49, 0.663773
3437.77, 0.664352
3440.05, 0.664931
3442.33, 0.665452
3444.62, 0.665915
3446.91, 0.666436
3449.2, 0.666957
3451.5, 0.667304
3453.8, 0.667652
3456.1, 0.667999
3458.41, 0.668231
3460.72, 0.668578
3463.03, 0.668809
3465.34, 0.668809
3467.66, 0.668809
3469.98, 0.668983
3472.31, 0.669215
3474.63, 0.669504
3476.96, 0.669851
3479.3, 0.670083
3481.64, 0.670199
3483.97, 0.670199
3486.32, 0.670315
3488.66, 0.670430
3491.01, 0.670488
3493.36, 0.670488
3495.72, 0.670315
3498.08, 0.670315
3500.44, 0.670546
3502.81, 0.671125
3505.18, 0.671820
3507.55, 0.672572
3509.92, 0.673267
3512.3, 0.673962
3514.68, 0.674656
3517.06, 0.675235
3519.45, 0.675583
3521.84, 0.675872
3524.24, 0.676219
3526.64, 0.676393
3529.04, 0.676509
3531.44, 0.676683
3533.85, 0.676972
3536.26, 0.677146
3538.67, 0.677377
3541.09, 0.677667
3543.51, 0.677840
3545.93, 0.677956
3548.36, 0.678072
3550.79, 0.678304
3553.22, 0.678477
3555.66, 0.678651
3558.1, 0.678825
3560.54, 0.678940
3562.99, 0.679056
3565.44, 0.679346
3567.9, 0.679577
3570.35, 0.679809
3572.81, 0.680098
3575.28, 0.680388
3577.75, 0.680388
3580.22, 0.680445
3582.69, 0.680619
3585.17, 0.680909
3587.65, 0.681024
3590.14, 0.681140
3592.62, 0.681372
3595.11, 0.681603
3597.61, 0.681777
3600.11, 0.681951
3602.61, 0.682182
3605.11, 0.682240
3607.62, 0.682240
3610.14, 0.682356
3612.65, 0.682472
3615.17, 0.682587
3617.69, 0.682703
3620.22, 0.682877
3622.75, 0.682993
3625.28, 0.683166
3627.82, 0.683514
3630.36, 0.683629
3632.9, 0.683745
3635.45, 0.683977
3638.0, 0.684208
3640.56, 0.684671
3643.12, 0.685077
3645.68, 0.685366
3648.24, 0.685771
3650.81, 0.686119
3653.39, 0.686350
3655.96, 0.686813
3658.54, 0.687392
3661.13, 0.687740
3663.71, 0.688087
3666.3, 0.688608
3668.9, 0.689187
3671.5, 0.689824
3674.1, 0.690345
3676.7, 0.690750
3679.31, 0.691213
3681.93, 0.691618
3684.54, 0.691966
3687.17, 0.692429
3689.79, 0.692718
3692.42, 0.693008
3695.05, 0.693413
3697.69, 0.693760
3700.32, 0.693934
3702.97, 0.694165
3705.61, 0.694108
3708.27, 0.693587
3710.92, 0.692081
3713.58, 0.690287
3716.24, 0.690461
3718.91, 0.692487
3721.58, 0.694165
3724.25, 0.695150
3726.93, 0.695729
3729.61, 0.696018
3732.29, 0.696134
3734.98, 0.696250
3737.67, 0.696365
3740.37, 0.696539
3743.07, 0.696655
3745.78, 0.696713
3748.49, 0.696713
3751.2, 0.696713
3753.91, 0.696481
3756.63, 0.696365
3759.36, 0.696250
3762.09, 0.696134
3764.82, 0.695902
3767.55, 0.695844
3770.29, 0.695729
3773.04, 0.695439
3775.78, 0.695150
3778.54, 0.694744
3781.29, 0.694513
3784.05, 0.694339
3786.82, 0.693934
3789.59, 0.693645
3792.36, 0.693355
3795.13, 0.692834
3797.92, 0.692660
3800.7, 0.692371
3803.49, 0.691792
3806.28, 0.691329
3809.08, 0.690982
3811.88, 0.690750
3814.68, 0.690345
3817.49, 0.689939
3820.31, 0.689476
3823.12, 0.689013
3825.94, 0.688492
3828.77, 0.688029
3831.6, 0.687450
3834.43, 0.687045
3837.27, 0.686698
3840.11, 0.686408
3842.96, 0.686119
3845.81, 0.685829
3848.67, 0.685656
3851.53, 0.685598
3854.39, 0.685713
3857.26, 0.686061
3860.13, 0.686234
3863.01, 0.686524
3865.89, 0.687045
3868.77, 0.687682
3871.66, 0.688261
3874.55, 0.689013
3877.45, 0.689824
3880.35, 0.690692
3883.26, 0.691560
3886.17, 0.692197
3889.09, 0.692950
3892.01, 0.693645
3894.93, 0.694397
3897.86, 0.694976
3900.79, 0.695497
3903.73, 0.696134
3906.67, 0.696597
3909.62, 0.696944
3912.57, 0.697176
3915.52, 0.697523
3918.48, 0.697755
3921.45, 0.697928
3924.42, 0.698160
3927.39, 0.698276
3930.37, 0.698276
3933.35, 0.698334
3936.34, 0.698218
3939.33, 0.698334
3942.32, 0.698391
3945.32, 0.698391
3948.33, 0.698391
3951.34, 0.698449
3954.35, 0.698449
3957.37, 0.698449
3960.39, 0.698391
3963.42, 0.698334
3966.45, 0.698218
3969.49, 0.698334
3972.53, 0.698449
3975.58, 0.698449
3978.63, 0.698276
3981.68, 0.698276
3984.75, 0.698218
3987.81, 0.698218
3990.88, 0.698160
3993.95, 0.697986
3997.03, 0.697581
4000.12, 0.697234
4003.21, 0.696655
4006.3, 0.695960
4009.4, 0.695150
4012.5, 0.694165
4015.61, 0.692950
4018.72, 0.691792
4021.84, 0.690982
4024.96, 0.690808
4028.09, 0.691271
4031.22, 0.692081
4034.36, 0.692950
4037.5, 0.693876
4040.65, 0.694687
4043.8, 0.695439
4046.96, 0.695844
4050.12, 0.696250
4053.29, 0.696597
4056.46, 0.696886
4059.64, 0.696944
4062.82, 0.696944
4066.0, 0.696828
4069.19, 0.696944
4072.39, 0.696828
4075.59, 0.696771
4078.8, 0.696597
4082.01, 0.696423
4085.23, 0.696307
4088.45, 0.696076
4091.68, 0.695844
4094.91, 0.695729
4098.15, 0.695497
4101.39, 0.695208
4104.63, 0.695092
4107.89, 0.694918
4111.14, 0.694687
4114.41, 0.694571
4117.67, 0.694513
4120.95, 0.694397
4124.23, 0.694223
4127.51, 0.694050
4130.8, 0.693992
4134.09, 0.694050
4137.39, 0.693934
4140.7, 0.693876
4144.01, 0.693818
4147.32, 0.693876
4150.64, 0.693818
4153.97, 0.693702
4157.3, 0.693529
4160.64, 0.693471
4163.98, 0.693355
4167.33, 0.693181
4170.68, 0.693008
4174.04, 0.692892
4177.4, 0.692660
4180.77, 0.692429
4184.14, 0.692081
4187.52, 0.691792
4190.91, 0.691503
4194.3, 0.690982
4197.69, 0.690287
4201.1, 0.689418
4204.5, 0.688029
4207.92, 0.686466
4211.34, 0.684614
4214.76, 0.682703
4218.19, 0.680619
4221.62, 0.678535
4225.06, 0.676567
4228.51, 0.674830
4231.96, 0.673267
4235.42, 0.671936
4238.88, 0.670778
4242.35, 0.669909
4245.83, 0.669099
4249.31, 0.668578
4252.79, 0.668115
4256.28, 0.666552
4259.78, 0.662499
4263.29, 0.657116
4266.79, 0.651848
4270.31, 0.646811
4273.83, 0.641369
4277.35, 0.635407
4280.89, 0.628807
4284.42, 0.621397
4287.97, 0.612714
4291.52, 0.602930
4295.07, 0.591873
4298.63, 0.579890
4302.2, 0.567790
4305.78, 0.556907
4309.35, 0.549092
4312.94, 0.546371
4316.53, 0.549323
4320.13, 0.557602
4323.73, 0.569411
4327.34, 0.582900
4330.96, 0.596562
4334.58, 0.609009
4338.21, 0.620008
4341.84, 0.629502
4345.48, 0.637491
4349.12, 0.644438
4352.77, 0.650516
4356.43, 0.655784
4360.1, 0.660126
4363.76, 0.663773
4367.44, 0.666841
4371.12, 0.669446
4374.81, 0.671588
4378.51, 0.673209
4382.21, 0.674425
4385.92, 0.675409
4389.63, 0.676277
4393.35, 0.676972
4397.08, 0.677493
4400.81, 0.677898
4404.55, 0.678130
4408.29, 0.678419
4412.04, 0.678651
4415.8, 0.678709
4419.57, 0.678709
4423.34, 0.678651
4427.12, 0.678477
4430.9, 0.678535
4434.69, 0.678419
4438.49, 0.678419
4442.29, 0.678246
4446.1, 0.678072
4449.92, 0.677725
4453.74, 0.677667
4457.57, 0.677551
4461.41, 0.677435
4465.25, 0.677088
4469.1, 0.676798
4472.95, 0.676509
4476.82, 0.676219
4480.69, 0.675814
4484.56, 0.675583
4488.44, 0.675177
4492.33, 0.674714
4496.23, 0.674309
4500.13, 0.673962
4504.04, 0.673557
4507.96, 0.673151
4511.88, 0.672572
4515.81, 0.671993
4519.75, 0.671357
4523.69, 0.670720
4527.65, 0.669967
4531.6, 0.669273
4535.57, 0.668346
4539.54, 0.667594
4543.52, 0.666783
4547.5, 0.666089
4551.5, 0.665394
4555.5, 0.664815
4559.5, 0.664062
4563.52, 0.663484
4567.54, 0.662905
4571.56, 0.662268
4575.6, 0.661747
4579.64, 0.661226
4583.69, 0.660705
4587.75, 0.660184
4591.81, 0.659663
4595.88, 0.659142
4599.96, 0.658447
4604.04, 0.657984
4608.14, 0.657347
4612.24, 0.656710
4616.34, 0.656131
4620.46, 0.655784
4624.58, 0.655321
4628.71, 0.654916
4632.84, 0.654684
4636.99, 0.654395
4641.14, 0.654105
4645.3, 0.653816
4649.47, 0.653584
4653.64, 0.653353
4657.82, 0.652947
4662.01, 0.652658
4666.21, 0.652311
4670.41, 0.651848
4674.62, 0.651326
4678.84, 0.650806
4683.07, 0.650227
4687.3, 0.649706
4691.54, 0.649127
4695.79, 0.648548
4700.05, 0.647853
4704.31, 0.647216
4708.59, 0.646753
4712.87, 0.646290
4717.15, 0.645769
4721.45, 0.645248
4725.76, 0.644669
4730.07, 0.644206
4734.39, 0.643569
4738.72, 0.643106
4743.05, 0.642585
4747.39, 0.642006
4751.75, 0.641427
4756.1, 0.640964
4760.47, 0.640443
4764.85, 0.639748
4769.23, 0.638938
4773.62, 0.638243
4778.02, 0.637491
4782.43, 0.636622
4786.85, 0.635465
4791.27, 0.634249
4795.7, 0.632975
4800.14, 0.631817
4804.59, 0.630254
4809.05, 0.628633
4813.51, 0.626781
4817.99, 0.624928
4822.47, 0.622844
4826.96, 0.620818
4831.46, 0.618503
4835.96, 0.616013
4840.48, 0.613350
4845.0, 0.610572
4849.54, 0.607561
4854.08, 0.604319
4858.63, 0.600672
4863.18, 0.596794
4867.75, 0.592452
4872.33, 0.587879
4876.91, 0.582784
4881.5, 0.577227
4886.1, 0.571322
4890.71, 0.565012
4895.33, 0.558123
4899.96, 0.550771
4904.59, 0.542840
4909.24, 0.534561
4913.89, 0.526283
4918.55, 0.518005
4923.22, 0.510074
4927.9, 0.502953
4932.59, 0.496643
4937.29, 0.491375
4942.0, 0.487496
4946.71, 0.485065
4951.44, 0.483849
4956.17, 0.483791
4960.91, 0.485007
4965.67, 0.487207
4970.43, 0.489754
4975.2, 0.492359
4979.98, 0.494790
4984.76, 0.496875
4989.56, 0.498380
4994.37, 0.499306
4999.18, 0.499595
5004.01, 0.499422
5008.84, 0.498901
5013.69, 0.497801
5018.54, 0.496238
5023.4, 0.494848
5028.28, 0.493227
5033.16, 0.491491
5038.05, 0.489522
5042.95, 0.487265
5047.86, 0.484833
5052.78, 0.482228
5057.71, 0.479565
5062.65, 0.476787
5067.6, 0.473603
5072.56, 0.470187
5077.53, 0.466714
5082.5, 0.462951
5087.49, 0.459072
5092.49, 0.455251
5097.5, 0.451199
5102.51, 0.447147
5107.54, 0.443210
5112.58, 0.439447
5117.62, 0.435858
5122.68, 0.432269
5127.75, 0.428795
5132.82, 0.425438
5137.91, 0.421964
5143.01, 0.418375
5148.12, 0.414728
5153.23, 0.411081
5158.36, 0.407202
5163.5, 0.402976
5168.65, 0.398403
5173.81, 0.393540
5178.98, 0.388272
5184.15, 0.382714
5189.34, 0.376810
5194.54, 0.370499
5199.75, 0.363842
5204.98, 0.356895
5210.21, 0.349543
5215.45, 0.342075
5220.7, 0.334665
5225.96, 0.326908
5231.23, 0.318861
5236.52, 0.310930
5241.81, 0.303346
5247.12, 0.296052
5252.44, 0.289395
5257.76, 0.283374
5263.1, 0.277933
5268.45, 0.273128
5273.81, 0.268959
5279.18, 0.265197
5284.56, 0.261897
5289.95, 0.258655
5295.36, 0.255876
5300.77, 0.252982
5306.2, 0.250087
5311.63, 0.247135
5317.08, 0.244182
5322.54, 0.241114
5328.01, 0.238393
5333.49, 0.235846
5338.98, 0.233588
5344.49, 0.231215
5350.0, 0.229304
5355.53, 0.227973
5361.07, 0.227047
5366.62, 0.226178
5372.18, 0.225773
5377.75, 0.225599
5383.34, 0.225773
5388.93, 0.226236
5394.54, 0.226873
5400.16, 0.227394
5405.79, 0.227741
5411.44, 0.227684
5417.09, 0.227105
5422.76, 0.226178
5428.43, 0.225310
5434.12, 0.223689
5439.83, 0.221663
5445.54, 0.219405
5451.26, 0.217263
5457.0, 0.214774
5462.75, 0.212458
5468.52, 0.210606
5474.29, 0.209101
5480.08, 0.207711
5485.88, 0.206843
5491.69, 0.205801
5497.51, 0.204875
5503.35, 0.203948
5509.2, 0.203312
5515.06, 0.202791
5520.93, 0.202791
5526.82, 0.203312
5532.71, 0.204759
5538.63, 0.206553
5544.55, 0.209101
5550.49, 0.212169
5556.44, 0.216337
5562.4, 0.221142
5568.37, 0.226526
5574.36, 0.232083
5580.36, 0.238972
5586.37, 0.246730
5592.4, 0.254718
5598.44, 0.262707
5604.49, 0.271159
5610.56, 0.279264
5616.63, 0.287195
5622.73, 0.294779
5628.83, 0.301783
5634.95, 0.307746
5641.08, 0.313362
5647.23, 0.319382
5653.39, 0.324940
5659.56, 0.329976
5665.74, 0.334318
5671.94, 0.337849
5678.15, 0.341554
5684.38, 0.345143
5690.62, 0.347980
5696.87, 0.350701
5703.14, 0.352380
5709.42, 0.353074
5715.72, 0.353827
5722.03, 0.354174
5728.35, 0.353827
5734.69, 0.352322
5741.03, 0.350064
5747.4, 0.347285
5753.78, 0.344912
5760.17, 0.341612
5766.58, 0.338312
5773.0, 0.337097
5779.44, 0.336576
5785.88, 0.336518
5792.35, 0.337155
5798.83, 0.338312
5805.32, 0.340512
5811.83, 0.342596
5818.35, 0.344507
5824.89, 0.348096
5831.45, 0.352959
5838.01, 0.357937
5844.59, 0.362800
5851.19, 0.367258
5857.8, 0.371542
5864.43, 0.375825
5871.07, 0.379473
5877.73, 0.381036
5884.4, 0.384335
5891.09, 0.387577
5897.79, 0.390414
5904.5, 0.394408
5911.23, 0.397534
5917.98, 0.400139
5924.75, 0.402223
5931.53, 0.402976
5938.32, 0.404192
5945.13, 0.407202
5951.96, 0.408939
5958.8, 0.409228
5965.65, 0.408070
5972.53, 0.407492
5979.42, 0.406507
5986.32, 0.404308
5993.24, 0.402860
6000.18, 0.401818
6007.13, 0.399503
6014.1, 0.396608
6021.08, 0.394698
6028.09, 0.392729
6035.1, 0.389719
6042.14, 0.385262
6049.19, 0.381267
6056.25, 0.380746
6063.34, 0.379125
6070.44, 0.376115
6077.55, 0.374378
6084.69, 0.373510
6091.84, 0.371831
6099.0, 0.369863
6106.19, 0.367373
6113.39, 0.365289
6120.61, 0.365174
6127.84, 0.365000
6135.09, 0.363726
6142.36, 0.362221
6149.65, 0.360890
6156.95, 0.359269
6164.27, 0.358169
6171.61, 0.357243
6178.97, 0.355101
6186.34, 0.353364
6193.73, 0.353017
6201.14, 0.352206
6208.57, 0.350759
6216.01, 0.349196
6223.47, 0.347691
6230.95, 0.346185
6238.45, 0.344622
6245.97, 0.343059
6253.5, 0.341612
6261.06, 0.340396
6268.63, 0.339239
6276.21, 0.338544
6283.82, 0.337849
6291.45, 0.337039
6299.1, 0.336344
6306.76, 0.335591
6314.44, 0.334607
6322.14, 0.333623
6329.86, 0.332234
6337.6, 0.329976
6345.35, 0.327950
6353.13, 0.327255
6360.92, 0.325866
6368.74, 0.323666
6376.57, 0.322566
6384.43, 0.321756
6392.3, 0.320250
6400.19, 0.318398
6408.1, 0.315272
6416.03, 0.313304
6423.98, 0.313362
6431.95, 0.312783
6439.94, 0.311567
6447.95, 0.310062
6455.98, 0.308499
6464.03, 0.307051
6472.1, 0.305025
6480.19, 0.302941
6488.31, 0.300799
6496.44, 0.300105
6504.59, 0.300568
6512.76, 0.300047
6520.95, 0.298773
6529.16, 0.298657
6537.4, 0.297905
6545.65, 0.296342
6553.92, 0.294663
6562.22, 0.292984
6570.54, 0.290726
6578.88, 0.289337
6587.23, 0.287774
6595.61, 0.285979
6604.02, 0.284127
6612.44, 0.281985
6620.89, 0.279206
6629.35, 0.275906
6637.84, 0.272954
6646.35, 0.271970
6654.88, 0.270696
6663.44, 0.268496
6672.01, 0.266065
6680.61, 0.264155
6689.23, 0.262881
6697.88, 0.261492
6706.54, 0.259408
6715.23, 0.257902
6723.94, 0.257034
6732.67, 0.256513
6741.42, 0.255876
6750.2, 0.255182
6759.0, 0.254603
6767.82, 0.254024
6776.67, 0.253445
6785.54, 0.252808
6794.44, 0.252692
6803.35, 0.253155
6812.29, 0.252924
6821.26, 0.251998
6830.24, 0.251129
6839.25, 0.250377
6848.29, 0.248640
6857.35, 0.246324
6866.43, 0.244530
6875.54, 0.243719
6884.67, 0.242272
6893.82, 0.240419
6903.0, 0.238162
6912.2, 0.236251
6921.43, 0.234225
6930.69, 0.232141
6939.96, 0.230057
6949.27, 0.227915
6958.59, 0.225484
6967.95, 0.224094
6977.33, 0.222821
6986.73, 0.221200
6996.16, 0.219637
7005.61, 0.218595
7015.09, 0.217321
7024.6, 0.216221
7034.13, 0.215179
7043.69, 0.213906
7053.27, 0.213269
7062.88, 0.212979
7072.52, 0.212053
7082.18, 0.211127
7091.87, 0.210027
7101.58, 0.208869
7111.32, 0.207422
7121.09, 0.205917
7130.88, 0.204354
7140.71, 0.202501
7150.56, 0.200475
7160.43, 0.198565
7170.33, 0.196596
7180.27, 0.194975
7190.23, 0.193297
7200.21, 0.191502
7210.23, 0.189534
7220.27, 0.187971
7230.34, 0.186176
7240.44, 0.184324
7250.56, 0.182239
7260.72, 0.180329
7270.9, 0.178361
7281.12, 0.176682
7291.36, 0.174829
7301.63, 0.172745
7311.93, 0.170430
7322.25, 0.168114
7332.61, 0.165335
7343.0, 0.162672
7353.41, 0.160067
7363.86, 0.157462
7374.33, 0.154626
7384.83, 0.151905
7395.37, 0.149242
7405.93, 0.146810
7416.53, 0.144379
7427.15, 0.142237
7437.81, 0.140037
7448.5, 0.138069
7459.22, 0.136101
7469.96, 0.134306
7480.74, 0.132454
7491.55, 0.130601
7502.39, 0.128749
7513.27, 0.126954
7524.17, 0.124986
7535.11, 0.123075
7546.08, 0.121107
7557.08, 0.119370
7568.11, 0.117460
7579.17, 0.115607
7590.27, 0.113871
7601.4, 0.112250
7612.56, 0.110455
7623.76, 0.108950
7634.98, 0.107271
7646.24, 0.105592
7657.54, 0.103798
7668.87, 0.102177
7680.23, 0.100440
7691.62, 0.0988770
7703.05, 0.0972560
7714.51, 0.0956350
7726.01, 0.0937830
7737.54, 0.0919880
7749.11, 0.0899620
7760.71, 0.0877620
7772.35, 0.0851570
7784.02, 0.0826100
7795.72, 0.0800050
7807.46, 0.0772840
7819.23, 0.0744470
7831.04, 0.0718420
7842.89, 0.0691790
7854.77, 0.0666900
7866.69, 0.0642010
7878.65, 0.0619430
7890.64, 0.0596270
7902.67, 0.0573700
7914.74, 0.0549380
7926.84, 0.0527380
7938.98, 0.0504810
7951.16, 0.0483960
7963.37, 0.0463120
7975.62, 0.0444020
7987.91, 0.0423760
8000.24, 0.0406970
8012.6, 0.0388450
8025.01, 0.0370500
8037.45, 0.0352550
8049.93, 0.0336340
8062.45, 0.0320710
8075.01, 0.0305660
8087.61, 0.0289450
8100.24, 0.0276140
8112.91, 0.0262240
8125.63, 0.0250090
8138.39, 0.0233300
8151.18, 0.0218250
8164.02, 0.0202620
8176.9, 0.0189880
8189.81, 0.0175410
8202.77, 0.0161510
8215.77, 0.0148200
8228.82, 0.0138360
8241.9, 0.0125620
8255.02, 0.0115200
8268.19, 0.0105940
8281.39, 0.00966800
8294.65, 0.00868400
8307.94, 0.00787300
8321.28, 0.00700500
8334.66, 0.00631000
8348.08, 0.00550000
8361.54, 0.00497900
8375.05, 0.00428400
8388.6, 0.00376300
8402.2, 0.00312600
8415.84, 0.00277900
8429.52, 0.00243100
8443.25, 0.00225800
8457.02, 0.00220000
8470.84, 0.00225800
8484.7, 0.00208400
8498.61, 0.00231600
8512.57, 0.00301000
8526.57, 0.00411000
8540.62, 0.00515200
8554.71, 0.00631000
8568.85, 0.00717800
8583.04, 0.00746800
8597.27, 0.00700500
8611.55, 0.00631000
8625.88, 0.00526800
8640.26, 0.00445800
8654.68, 0.00358900
8669.16, 0.00312600
8683.68, 0.00254700
8698.25, 0.00214200
8712.87, 0.00167900
8727.53, 0.00133100
8742.25, 0.000926000
8757.02, 0.000984000
8771.83, 0.000984000
8786.7, 0.00115800
8801.62, 0.00110000
8816.59, 0.00121600
8831.61, 0.00144700
8846.68, 0.00185200
8861.8, 0.00237400
8876.97, 0.00295200
8892.2, 0.00341600
8907.48, 0.00428400
8922.81, 0.00515200
8938.2, 0.00613600
8953.63, 0.00712100
8969.13, 0.00851000
8984.67, 0.0100730
9000.27, 0.0117520
9015.92, 0.0133730
9031.63, 0.0154570
9047.39, 0.0176570
9063.21, 0.0198560
9079.08, 0.0222300
9095.01, 0.0251240
9111.0, 0.0283080
9127.04, 0.0321870
9143.13, 0.0361240
9159.28, 0.0405230
9175.49, 0.0451550
9191.76, 0.0502490
9208.09, 0.0555170
9224.47, 0.0611320
9240.92, 0.0669790
9257.42, 0.0729420
9273.98, 0.0784420
9290.6, 0.0834780
9307.28, 0.0884570
9324.02, 0.0939560
9340.82, 0.100035
9357.68, 0.106461
9374.6, 0.113176
9391.58, 0.120412
9408.62, 0.126665
9425.73, 0.132164
9442.9, 0.137143
9460.13, 0.142816
9477.42, 0.149415
9494.78, 0.156131
9512.2, 0.162267
9529.69, 0.168114
9547.24, 0.173787
9564.86, 0.178882
9582.54, 0.182818
9600.28, 0.186118
9618.1, 0.189128
9635.97, 0.192081
9653.92, 0.194975
9671.93, 0.197407
9690.01, 0.199896
9708.16, 0.202964
9726.37, 0.205627
9744.65, 0.208001
9763.0, 0.210143
9781.43, 0.212748
9799.92, 0.215469
9818.48, 0.217842
9837.1, 0.219810
9855.8, 0.221084
9874.58, 0.221316
9893.42, 0.220042
9912.34, 0.217611
9931.33, 0.214484
9950.39, 0.210490
9969.52, 0.206090
9988.74, 0.201691
10008.0, 0.197349
10027.4, 0.192776
10046.8, 0.188897
10066.3, 0.185829
10085.9, 0.183108
10105.6, 0.180792
10125.3, 0.179924
10145.1, 0.181255
10165.0, 0.185771
10185.0, 0.193818
10205.0, 0.204469
10225.2, 0.215584
10245.4, 0.225426
10265.7, 0.233415
10286.0, 0.239956
10306.5, 0.244761
10327.0, 0.248408
10347.6, 0.251650
10368.3, 0.254603
10389.1, 0.256976
10409.9, 0.258829
10430.9, 0.260044
10451.9, 0.260797
10473.0, 0.260913
10494.2, 0.260855
10515.5, 0.260739
10536.9, 0.259697
10558.4, 0.257844
10579.9, 0.254950
10601.5, 0.250203
10623.3, 0.243777
10645.1, 0.236020
10667.0, 0.227799
10689.0, 0.221200
10711.1, 0.217842
10733.2, 0.217263
10755.5, 0.218826
10777.9, 0.221373
10800.3, 0.223515
10822.9, 0.224326
10845.5, 0.223921
10868.2, 0.221837
10891.1, 0.219000
10914.0, 0.216221
10937.0, 0.214542
10960.2, 0.215063
10983.4, 0.218305
11006.7, 0.223226
11030.1, 0.228262
11053.6, 0.232488
11077.3, 0.235672
11101.0, 0.237004
11124.8, 0.236193
11148.7, 0.234457
11172.7, 0.232894
11196.9, 0.232373
11221.1, 0.233473
11245.4, 0.235730
11269.9, 0.238220
11294.4, 0.240072
11319.1, 0.241288
11343.9, 0.241577
11368.8, 0.240940
11393.7, 0.239435
11418.8, 0.237062
11444.0, 0.233820
11469.4, 0.229710
11494.8, 0.224326
11520.3, 0.218710
11546.0, 0.212748
11571.8, 0.206553
11597.7, 0.199665
11623.7, 0.191965
11649.8, 0.183455
11676.0, 0.174598
11702.4, 0.165451
11728.9, 0.157289
11755.5, 0.150515
11782.2, 0.145247
11809.0, 0.140963
11836.0, 0.136969
11863.0, 0.132975
11890.3, 0.129906
11917.6, 0.126954
11945.0, 0.124291
11972.6, 0.121975
12000.4, 0.120065
12028.2, 0.117865
12056.2, 0.116186
12084.3, 0.114797
12112.5, 0.113697
12140.9, 0.112771
12169.4, 0.111960
12198.0, 0.111266
12226.8, 0.110860
12255.7, 0.110455
12284.7, 0.110571
12313.9, 0.111092
12343.2, 0.111960
12372.7, 0.112308
12402.3, 0.112597
12432.0, 0.112829
12461.9, 0.112829
12491.9, 0.112655
12522.1, 0.112250
12552.4, 0.111555
12582.9, 0.110918
12613.5, 0.109934
12644.3, 0.108834
12675.2, 0.107734
12706.3, 0.106403
12737.5, 0.104782
12768.9, 0.102814
12800.4, 0.0997450
12832.1, 0.0963300
12863.9, 0.0918720
12895.9, 0.0867780
12928.1, 0.0819730
12960.4, 0.0785000
12992.9, 0.0772260
13025.5, 0.0783260
13058.3, 0.0800630
13091.3, 0.0817990
13124.4, 0.0823200
13157.8, 0.0817410
13191.2, 0.0801210
13224.9, 0.0783260
13258.7, 0.0765890
13292.7, 0.0742740
13326.9, 0.0712630
13361.2, 0.0682530
13395.7, 0.0651850
13430.4, 0.0621740
13465.3, 0.0583540
13500.4, 0.0542430
13535.7, 0.0502490
13571.1, 0.0464860
13606.7, 0.0423180
13642.5, 0.0386130
13678.5, 0.0349660
13714.7, 0.0313770
13751.1, 0.0272660
13787.6, 0.0234460
13824.4, 0.0200880
13861.4, 0.0171930
13898.5, 0.0143570
13935.9, 0.0119250
13973.5, 0.0106520
14011.2, 0.0111150
14049.2, 0.0128520
14087.4, 0.0155150
14125.8, 0.0177150
14164.3, 0.0188140
14203.2, 0.0179460
14242.2, 0.0166720
14281.4, 0.0159200
14320.9, 0.0167880
14360.5, 0.0191620
14400.4, 0.0236190
14440.5, 0.0307980
14480.9, 0.0413340
14521.4, 0.0544170
14562.2, 0.0687160
14603.3, 0.0823200
14644.5, 0.0933200
14686.0, 0.102235
14727.7, 0.112134
14769.7, 0.124465
14811.9, 0.138879
14854.3, 0.153468
14897.0, 0.167419
14939.9, 0.178940
14983.1, 0.189707
15026.5, 0.199954
15070.2, 0.208580
15114.2, 0.215990
15158.3, 0.222415
15202.8, 0.227568
15247.5, 0.231678
15292.5, 0.234804
15337.7, 0.237409
15383.2, 0.239725
15429.0, 0.242272
15475.1, 0.244240
15521.4, 0.245224
15568.0, 0.246035
15614.9, 0.246440
15662.1, 0.246787
15709.6, 0.247251
15757.3, 0.247251
15805.4, 0.246672
15853.7, 0.245861
15902.3, 0.244414
15951.2, 0.242040
16000.5, 0.240535
16050.0, 0.238509
16099.8, 0.235615
16150.0, 0.231910
16200.5, 0.226989
16251.3, 0.219231
16302.4, 0.208464
16353.8, 0.196075
16405.5, 0.182413
16457.6, 0.167883
16510.0, 0.153815
16562.8, 0.140500
16615.9, 0.128691
16669.3, 0.118849
16723.1, 0.110513
16777.2, 0.101887
16831.7, 0.0927990
16886.5, 0.0841730
16941.7, 0.0790780
16997.2, 0.0786730
17053.1, 0.0805840
17109.4, 0.0819150
17166.1, 0.0814520
17223.1, 0.0783260
17280.5, 0.0731160
17338.3, 0.0677900
17396.5, 0.0646060
17455.1, 0.0646640
17514.0, 0.0690630
17573.4, 0.0742740
17633.2, 0.0764160
17693.4, 0.0747950
17754.0, 0.0725950
17815.0, 0.0742160
17876.4, 0.0867200
17938.3, 0.111150
18000.5, 0.139748
18063.3, 0.164062
18126.4, 0.181429
18190.0, 0.191039
18254.1, 0.194628
18318.6, 0.194339
18383.5, 0.190576
18449.0, 0.184497
18514.9, 0.176856
18581.2, 0.168346
18648.0, 0.161109
18715.4, 0.154105
18783.2, 0.152021
18851.5, 0.153410
18920.3, 0.154278
18989.6, 0.151036
19059.4, 0.143626
19129.7, 0.136332
19200.6, 0.130370
19272.0, 0.125044
19343.9, 0.123944
19416.3, 0.126201
19489.3, 0.130254
19562.8, 0.134711
19637.0, 0.138011
19711.6, 0.140963
19786.8, 0.148605
19862.6, 0.162557
19939.0, 0.178245
20016.0, 0.188665
20093.6, 0.192949
20171.8, 0.193354
20250.6, 0.189592
20330.0, 0.182413
20410.0, 0.176219
20490.7, 0.180561
20572.0, 0.195554
20654.0, 0.205801
20736.6, 0.202848
20819.9, 0.189592
20903.8, 0.172340
20988.5, 0.153699
21073.8, 0.136911
21159.8, 0.136274
21246.5, 0.168346
21334.0, 0.214079
21422.1, 0.244819
21511.0, 0.254313
21600.7, 0.257439
21691.0, 0.265197
21782.1, 0.275096
21874.0, 0.281116
21966.7, 0.280017
22060.2, 0.272664
22154.5, 0.262013
22249.6, 0.251882
22345.5, 0.243372
22442.2, 0.234515
22539.8, 0.227163
22638.2, 0.222994
22737.5, 0.219000
22837.7, 0.210837
22938.7, 0.197291
23040.7, 0.183860
23143.5, 0.176508
23247.3, 0.166841
23352.1, 0.158331
23457.7, 0.147852
23564.4, 0.138648
23672.0, 0.141253
23780.5, 0.151905
23890.1, 0.151905
24000.7, 0.151036
24112.3, 0.147795
24225.0, 0.145189
24338.7, 0.139285
24453.5, 0.131122
24569.4, 0.122670
24686.4, 0.114218
24804.5, 0.105650
