Database of Origin,USGS Spectral Database
Sample Description,See USGS database for additional info
Date Added,2017-02-22 02:49:17.188846

Data ID,USGS_syn02          
Sample ID,syngenite_gds139.21456
Mineral Name,syngenite

Wavelength
1499.61, 0.462424
1500.04, 0.461230
1500.48, 0.459319
1500.91, 0.458125
1501.35, 0.458363
1501.78, 0.459080
1502.22, 0.458841
1502.65, 0.459199
1503.09, 0.459199
1503.53, 0.458841
1503.96, 0.458961
1504.4, 0.459080
1504.83, 0.458244
1505.27, 0.456811
1505.71, 0.455497
1506.15, 0.455258
1506.58, 0.454900
1507.02, 0.453825
1507.46, 0.452511
1507.9, 0.451914
1508.34, 0.452989
1508.78, 0.453348
1509.21, 0.453109
1509.66, 0.453467
1510.09, 0.453825
1510.53, 0.453825
1510.97, 0.452511
1511.42, 0.450481
1511.86, 0.450123
1512.3, 0.449765
1512.74, 0.450242
1513.18, 0.450242
1513.62, 0.450362
1514.06, 0.450362
1514.51, 0.450004
1514.95, 0.449765
1515.39, 0.450004
1515.83, 0.449287
1516.28, 0.448212
1516.72, 0.448690
1517.16, 0.449406
1517.61, 0.448570
1518.05, 0.447137
1518.5, 0.447973
1518.94, 0.450242
1519.39, 0.448929
1519.83, 0.447018
1520.28, 0.446660
1520.73, 0.446182
1521.17, 0.446301
1521.62, 0.447018
1522.07, 0.447257
1522.51, 0.446540
1522.96, 0.446779
1523.41, 0.447137
1523.85, 0.446301
1524.3, 0.446062
1524.75, 0.446421
1525.2, 0.446062
1525.65, 0.444749
1526.1, 0.445585
1526.55, 0.446779
1527.0, 0.446182
1527.45, 0.446182
1527.9, 0.446540
1528.35, 0.445107
1528.8, 0.444032
1529.25, 0.444510
1529.7, 0.445824
1530.15, 0.446898
1530.6, 0.446540
1531.05, 0.445704
1531.51, 0.446182
1531.96, 0.446421
1532.41, 0.446062
1532.87, 0.445585
1533.32, 0.445346
1533.77, 0.445226
1534.23, 0.444868
1534.68, 0.444032
1535.14, 0.444988
1535.59, 0.445943
1536.05, 0.446182
1536.5, 0.445704
1536.96, 0.445465
1537.41, 0.445704
1537.87, 0.445943
1538.32, 0.445943
1538.78, 0.445704
1539.24, 0.445943
1539.7, 0.446540
1540.15, 0.446660
1540.61, 0.445943
1541.07, 0.445943
1541.53, 0.446421
1541.98, 0.446779
1542.44, 0.446779
1542.9, 0.446062
1543.36, 0.445226
1543.82, 0.445704
1544.28, 0.446779
1544.74, 0.446660
1545.2, 0.445824
1545.66, 0.446779
1546.12, 0.447376
1546.59, 0.447495
1547.05, 0.447854
1547.51, 0.447854
1547.97, 0.448332
1548.43, 0.448332
1548.9, 0.447973
1549.36, 0.448809
1549.82, 0.449526
1550.29, 0.448809
1550.75, 0.448451
1551.21, 0.448809
1551.68, 0.449048
1552.14, 0.449167
1552.61, 0.449406
1553.07, 0.449048
1553.54, 0.448809
1554.0, 0.449406
1554.47, 0.450004
1554.93, 0.450720
1555.4, 0.450959
1555.87, 0.450720
1556.34, 0.450720
1556.8, 0.451078
1557.27, 0.450720
1557.74, 0.450481
1558.21, 0.452034
1558.68, 0.452631
1559.14, 0.451914
1559.61, 0.452153
1560.08, 0.452511
1560.55, 0.452273
1561.02, 0.452870
1561.49, 0.453586
1561.96, 0.454303
1562.43, 0.453825
1562.9, 0.453706
1563.38, 0.454183
1563.85, 0.454183
1564.32, 0.454183
1564.79, 0.454542
1565.26, 0.454661
1565.74, 0.454900
1566.21, 0.455497
1566.68, 0.455975
1567.16, 0.456214
1567.63, 0.455975
1568.1, 0.456453
1568.58, 0.457169
1569.05, 0.457527
1569.53, 0.457169
1570.0, 0.456572
1570.48, 0.456930
1570.96, 0.457647
1571.43, 0.457886
1571.91, 0.457647
1572.39, 0.458722
1572.86, 0.459677
1573.34, 0.459558
1573.82, 0.458961
1574.3, 0.459319
1574.77, 0.459558
1575.25, 0.460274
1575.73, 0.461110
1576.21, 0.461230
1576.69, 0.460155
1577.17, 0.459916
1577.65, 0.460752
1578.13, 0.461110
1578.61, 0.461588
1579.09, 0.462305
1579.57, 0.462424
1580.05, 0.462185
1580.54, 0.462305
1581.02, 0.462424
1581.5, 0.462663
1581.98, 0.462902
1582.47, 0.463141
1582.95, 0.463499
1583.43, 0.464096
1583.92, 0.464932
1584.4, 0.465171
1584.88, 0.464813
1585.37, 0.464813
1585.85, 0.465290
1586.34, 0.465887
1586.82, 0.466246
1587.31, 0.466604
1587.8, 0.467201
1588.28, 0.467321
1588.77, 0.466843
1589.26, 0.466604
1589.74, 0.466843
1590.23, 0.467082
1590.72, 0.467559
1591.21, 0.467918
1591.7, 0.467918
1592.19, 0.468873
1592.67, 0.469590
1593.16, 0.468634
1593.65, 0.468754
1594.14, 0.469828
1594.63, 0.469948
1595.12, 0.470545
1595.61, 0.471381
1596.11, 0.471859
1596.6, 0.471859
1597.09, 0.472098
1597.58, 0.472217
1598.08, 0.472217
1598.57, 0.472814
1599.06, 0.473531
1599.55, 0.473650
1600.05, 0.473650
1600.54, 0.474008
1601.04, 0.474367
1601.53, 0.474606
1602.03, 0.475083
1602.52, 0.474725
1603.02, 0.474964
1603.51, 0.476278
1604.01, 0.476278
1604.5, 0.475561
1605.0, 0.475561
1605.5, 0.475680
1606.0, 0.476039
1606.49, 0.476636
1606.99, 0.477352
1607.49, 0.477591
1607.99, 0.477830
1608.49, 0.478308
1608.99, 0.479024
1609.49, 0.479980
1609.99, 0.480099
1610.49, 0.479860
1610.99, 0.479860
1611.49, 0.480099
1611.99, 0.479860
1612.49, 0.480338
1612.99, 0.481532
1613.49, 0.481891
1614.0, 0.481771
1614.5, 0.482249
1615.0, 0.482488
1615.51, 0.482727
1616.01, 0.482965
1616.51, 0.482727
1617.02, 0.483204
1617.52, 0.483921
1618.03, 0.484160
1618.53, 0.484160
1619.04, 0.484399
1619.54, 0.484757
1620.05, 0.485115
1620.55, 0.485593
1621.06, 0.486429
1621.57, 0.486668
1622.08, 0.486429
1622.58, 0.486548
1623.09, 0.487026
1623.6, 0.487862
1624.11, 0.487265
1624.62, 0.487384
1625.13, 0.488340
1625.64, 0.489295
1626.15, 0.489415
1626.66, 0.489773
1627.17, 0.490012
1627.68, 0.489773
1628.19, 0.489773
1628.7, 0.489534
1629.21, 0.490012
1629.72, 0.490489
1630.24, 0.491087
1630.75, 0.491087
1631.26, 0.490967
1631.78, 0.491684
1632.29, 0.492400
1632.8, 0.492520
1633.32, 0.492639
1633.83, 0.492878
1634.35, 0.493236
1634.86, 0.493475
1635.38, 0.494192
1635.9, 0.494669
1636.41, 0.494311
1636.93, 0.494789
1637.45, 0.495028
1637.96, 0.495505
1638.48, 0.496580
1639.0, 0.496103
1639.52, 0.495864
1640.04, 0.496222
1640.56, 0.496700
1641.08, 0.497058
1641.59, 0.497297
1642.11, 0.497416
1642.63, 0.497536
1643.16, 0.497655
1643.68, 0.497894
1644.2, 0.498252
1644.72, 0.498969
1645.24, 0.499446
1645.76, 0.499685
1646.29, 0.499924
1646.81, 0.500283
1647.33, 0.500283
1647.86, 0.500521
1648.38, 0.500999
1648.9, 0.501118
1649.43, 0.501596
1649.95, 0.501835
1650.48, 0.501716
1651.0, 0.501596
1651.53, 0.501955
1652.06, 0.502671
1652.58, 0.502671
1653.11, 0.502552
1653.64, 0.502671
1654.17, 0.503268
1654.69, 0.503388
1655.22, 0.503865
1655.75, 0.504224
1656.28, 0.504343
1656.81, 0.504821
1657.34, 0.505418
1657.87, 0.505896
1658.4, 0.505896
1658.93, 0.505896
1659.46, 0.505896
1659.99, 0.506015
1660.52, 0.506493
1661.05, 0.506493
1661.59, 0.506851
1662.12, 0.507209
1662.65, 0.507090
1663.19, 0.507448
1663.72, 0.507448
1664.26, 0.508284
1664.79, 0.509001
1665.32, 0.508762
1665.86, 0.508881
1666.39, 0.509240
1666.93, 0.509478
1667.47, 0.509837
1668.0, 0.509956
1668.54, 0.509956
1669.08, 0.509956
1669.61, 0.510076
1670.15, 0.511031
1670.69, 0.511389
1671.23, 0.511509
1671.77, 0.511748
1672.31, 0.511509
1672.85, 0.511389
1673.39, 0.511270
1673.93, 0.511986
1674.47, 0.512703
1675.01, 0.512584
1675.55, 0.512464
1676.09, 0.513778
1676.64, 0.514136
1677.18, 0.513658
1677.72, 0.513539
1678.26, 0.514017
1678.81, 0.514256
1679.35, 0.514614
1679.89, 0.514733
1680.44, 0.515092
1680.98, 0.515569
1681.53, 0.515569
1682.07, 0.515808
1682.62, 0.516047
1683.17, 0.516286
1683.71, 0.516166
1684.26, 0.515689
1684.81, 0.515928
1685.36, 0.516883
1685.9, 0.517122
1686.45, 0.517122
1687.0, 0.517002
1687.55, 0.517480
1688.1, 0.518316
1688.65, 0.518674
1689.2, 0.518316
1689.75, 0.518555
1690.3, 0.519152
1690.85, 0.519391
1691.41, 0.519510
1691.96, 0.519869
1692.51, 0.520108
1693.06, 0.520346
1693.61, 0.520585
1694.17, 0.520466
1694.72, 0.520466
1695.28, 0.520824
1695.83, 0.521302
1696.39, 0.521541
1696.94, 0.521541
1697.5, 0.521660
1698.05, 0.521660
1698.61, 0.522018
1699.17, 0.522138
1699.72, 0.522377
1700.28, 0.522854
1700.84, 0.523690
1701.4, 0.523093
1701.95, 0.522974
1702.51, 0.522974
1703.07, 0.522974
1703.63, 0.523332
1704.19, 0.524049
1704.75, 0.524765
1705.31, 0.525124
1705.88, 0.525004
1706.44, 0.525124
1707.0, 0.525362
1707.56, 0.525124
1708.12, 0.524885
1708.69, 0.525243
1709.25, 0.525721
1709.81, 0.525840
1710.38, 0.525840
1710.94, 0.526437
1711.51, 0.526318
1712.07, 0.526079
1712.64, 0.526676
1713.2, 0.527273
1713.77, 0.526796
1714.34, 0.526557
1714.9, 0.526557
1715.47, 0.526796
1716.04, 0.527512
1716.61, 0.527631
1717.18, 0.527751
1717.74, 0.528587
1718.31, 0.528587
1718.88, 0.528109
1719.45, 0.527990
1720.02, 0.528467
1720.59, 0.528587
1721.17, 0.528945
1721.74, 0.529184
1722.31, 0.528945
1722.88, 0.529184
1723.45, 0.529542
1724.03, 0.529901
1724.6, 0.530020
1725.18, 0.530139
1725.75, 0.530139
1726.33, 0.529901
1726.9, 0.530259
1727.48, 0.530856
1728.05, 0.530737
1728.63, 0.530737
1729.2, 0.530856
1729.78, 0.530617
1730.36, 0.531095
1730.94, 0.531453
1731.51, 0.531453
1732.09, 0.531453
1732.67, 0.531573
1733.25, 0.531811
1733.83, 0.532050
1734.41, 0.532289
1734.99, 0.532050
1735.57, 0.532528
1736.15, 0.533245
1736.73, 0.532886
1737.32, 0.532767
1737.9, 0.532767
1738.48, 0.533006
1739.07, 0.533245
1739.65, 0.533483
1740.23, 0.533603
1740.82, 0.533842
1741.4, 0.533722
1741.99, 0.533722
1742.57, 0.534200
1743.16, 0.534200
1743.74, 0.534439
1744.33, 0.534200
1744.92, 0.534200
1745.51, 0.534797
1746.09, 0.534439
1746.68, 0.533961
1747.27, 0.534200
1747.86, 0.534558
1748.45, 0.534678
1749.04, 0.534917
1749.63, 0.534917
1750.22, 0.534917
1750.81, 0.535275
1751.4, 0.535394
1751.99, 0.535155
1752.59, 0.535036
1753.18, 0.535514
1753.77, 0.535633
1754.37, 0.535753
1754.96, 0.536230
1755.56, 0.536469
1756.15, 0.536230
1756.74, 0.536111
1757.34, 0.536350
1757.94, 0.536350
1758.53, 0.536230
1759.13, 0.536589
1759.73, 0.537066
1760.32, 0.536589
1760.92, 0.536350
1761.52, 0.536589
1762.12, 0.536469
1762.72, 0.536589
1763.32, 0.537066
1763.92, 0.537186
1764.52, 0.536947
1765.12, 0.536469
1765.72, 0.536111
1766.32, 0.535991
1766.92, 0.536230
1767.53, 0.536469
1768.13, 0.536947
1768.73, 0.537066
1769.34, 0.536947
1769.94, 0.536827
1770.55, 0.537066
1771.15, 0.537425
1771.76, 0.537783
1772.36, 0.537425
1772.97, 0.537186
1773.57, 0.537305
1774.18, 0.538022
1774.79, 0.538022
1775.4, 0.537783
1776.0, 0.537783
1776.61, 0.537305
1777.22, 0.537544
1777.83, 0.538141
1778.44, 0.537902
1779.05, 0.538738
1779.66, 0.539455
1780.27, 0.538858
1780.88, 0.538619
1781.5, 0.538977
1782.11, 0.538858
1782.72, 0.538738
1783.33, 0.538977
1783.95, 0.539097
1784.56, 0.539455
1785.18, 0.539932
1785.79, 0.539694
1786.41, 0.539813
1787.02, 0.540171
1787.64, 0.540171
1788.26, 0.540171
1788.87, 0.540530
1789.49, 0.540888
1790.11, 0.541246
1790.73, 0.541485
1791.35, 0.541366
1791.96, 0.541246
1792.58, 0.541366
1793.21, 0.542082
1793.83, 0.541843
1794.45, 0.541485
1795.07, 0.541724
1795.69, 0.542321
1796.31, 0.542799
1796.93, 0.542918
1797.56, 0.542918
1798.18, 0.543157
1798.8, 0.543396
1799.43, 0.543157
1800.05, 0.543515
1800.68, 0.543754
1801.3, 0.543635
1801.93, 0.543515
1802.56, 0.543515
1803.18, 0.543635
1803.81, 0.543635
1804.44, 0.543993
1805.07, 0.544710
1805.7, 0.545187
1806.33, 0.544710
1806.95, 0.544710
1807.58, 0.545426
1808.22, 0.545426
1808.85, 0.545187
1809.48, 0.545187
1810.11, 0.545068
1810.74, 0.544948
1811.38, 0.545187
1812.01, 0.544948
1812.64, 0.544829
1813.28, 0.545307
1813.91, 0.545665
1814.55, 0.545665
1815.18, 0.545307
1815.82, 0.545426
1816.45, 0.546023
1817.09, 0.546023
1817.73, 0.545546
1818.36, 0.545307
1819.0, 0.545784
1819.64, 0.545904
1820.28, 0.545904
1820.92, 0.545784
1821.56, 0.545426
1822.2, 0.545307
1822.84, 0.546143
1823.48, 0.546740
1824.12, 0.546501
1824.76, 0.546620
1825.41, 0.546382
1826.05, 0.545665
1826.69, 0.545904
1827.34, 0.546382
1827.98, 0.546023
1828.63, 0.545665
1829.27, 0.546143
1829.92, 0.546262
1830.56, 0.546501
1831.21, 0.547098
1831.86, 0.547098
1832.5, 0.547098
1833.15, 0.547337
1833.8, 0.547098
1834.45, 0.546740
1835.1, 0.546979
1835.75, 0.546979
1836.4, 0.546501
1837.05, 0.546143
1837.7, 0.546262
1838.35, 0.546620
1839.01, 0.546859
1839.66, 0.546859
1840.31, 0.546859
1840.96, 0.546979
1841.62, 0.546740
1842.27, 0.546979
1842.93, 0.547218
1843.58, 0.547218
1844.24, 0.547337
1844.9, 0.547695
1845.55, 0.547576
1846.21, 0.547218
1846.87, 0.546501
1847.53, 0.546262
1848.18, 0.546620
1848.84, 0.547456
1849.5, 0.547695
1850.16, 0.547934
1850.82, 0.548054
1851.48, 0.548054
1852.14, 0.547815
1852.81, 0.547456
1853.47, 0.547098
1854.13, 0.547337
1854.8, 0.548054
1855.46, 0.548412
1856.12, 0.548292
1856.79, 0.548292
1857.45, 0.548531
1858.12, 0.549009
1858.79, 0.548651
1859.45, 0.547337
1860.12, 0.547456
1860.79, 0.548651
1861.46, 0.549367
1862.12, 0.549009
1862.79, 0.548890
1863.46, 0.548531
1864.13, 0.548531
1864.8, 0.548173
1865.48, 0.548651
1866.15, 0.549367
1866.82, 0.549248
1867.49, 0.548531
1868.16, 0.548054
1868.84, 0.548054
1869.51, 0.548531
1870.19, 0.547934
1870.86, 0.547098
1871.54, 0.547815
1872.21, 0.548173
1872.89, 0.547815
1873.56, 0.547934
1874.24, 0.548292
1874.92, 0.548173
1875.6, 0.547934
1876.28, 0.547695
1876.96, 0.547934
1877.64, 0.548173
1878.32, 0.548412
1879.0, 0.548651
1879.68, 0.548173
1880.36, 0.547815
1881.04, 0.548173
1881.73, 0.547934
1882.41, 0.547576
1883.09, 0.547576
1883.78, 0.547098
1884.46, 0.546740
1885.15, 0.546501
1885.83, 0.546620
1886.52, 0.546262
1887.21, 0.546143
1887.89, 0.546143
1888.58, 0.545904
1889.27, 0.545546
1889.96, 0.545068
1890.65, 0.545068
1891.34, 0.544829
1892.03, 0.544710
1892.72, 0.544710
1893.41, 0.544232
1894.1, 0.543874
1894.79, 0.543635
1895.49, 0.543396
1896.18, 0.542918
1896.87, 0.542440
1897.57, 0.541724
1898.26, 0.541007
1898.96, 0.540410
1899.65, 0.540171
1900.35, 0.540171
1901.05, 0.539932
1901.74, 0.539455
1902.44, 0.538261
1903.14, 0.537544
1903.84, 0.537544
1904.54, 0.537186
1905.24, 0.536589
1905.94, 0.536230
1906.64, 0.535633
1907.34, 0.535394
1908.04, 0.535155
1908.75, 0.534678
1909.45, 0.533961
1910.15, 0.533722
1910.86, 0.533245
1911.56, 0.532409
1912.27, 0.532170
1912.97, 0.531095
1913.68, 0.530617
1914.39, 0.530617
1915.09, 0.530259
1915.8, 0.529901
1916.51, 0.529423
1917.22, 0.529065
1917.93, 0.528706
1918.64, 0.528229
1919.35, 0.527393
1920.06, 0.526557
1920.77, 0.526318
1921.48, 0.526676
1922.19, 0.526318
1922.91, 0.525601
1923.62, 0.525124
1924.33, 0.524646
1925.05, 0.524287
1925.76, 0.524049
1926.48, 0.523810
1927.19, 0.523452
1927.91, 0.522854
1928.63, 0.522257
1929.35, 0.522018
1930.07, 0.521182
1930.78, 0.520466
1931.5, 0.520227
1932.22, 0.519630
1932.94, 0.519033
1933.66, 0.518197
1934.39, 0.517719
1935.11, 0.517361
1935.83, 0.516644
1936.55, 0.515808
1937.28, 0.515211
1938.0, 0.514853
1938.73, 0.514494
1939.45, 0.513658
1940.18, 0.512464
1940.9, 0.511867
1941.63, 0.511389
1942.36, 0.510553
1943.09, 0.510076
1943.81, 0.509120
1944.54, 0.507926
1945.27, 0.506851
1946.0, 0.506493
1946.73, 0.505657
1947.47, 0.504582
1948.2, 0.503746
1948.93, 0.502790
1949.66, 0.501477
1950.4, 0.500163
1951.13, 0.499327
1951.86, 0.498252
1952.6, 0.497058
1953.34, 0.495864
1954.07, 0.494669
1954.81, 0.493714
1955.55, 0.492281
1956.29, 0.491087
1957.02, 0.489892
1957.76, 0.488340
1958.5, 0.486787
1959.24, 0.485235
1959.98, 0.483443
1960.72, 0.482249
1961.47, 0.481174
1962.21, 0.479741
1962.95, 0.478069
1963.7, 0.476158
1964.44, 0.474486
1965.18, 0.473172
1965.93, 0.472098
1966.67, 0.470306
1967.42, 0.468873
1968.17, 0.467559
1968.92, 0.466007
1969.66, 0.464693
1970.41, 0.463141
1971.16, 0.461349
1971.91, 0.459797
1972.66, 0.458244
1973.41, 0.456930
1974.16, 0.455855
1974.92, 0.454542
1975.67, 0.452989
1976.42, 0.451198
1977.18, 0.449765
1977.93, 0.447973
1978.69, 0.446421
1979.44, 0.444749
1980.2, 0.443316
1980.95, 0.441882
1981.71, 0.440569
1982.47, 0.439136
1983.23, 0.437464
1983.99, 0.436030
1984.74, 0.434717
1985.51, 0.433403
1986.27, 0.432328
1987.03, 0.431134
1987.79, 0.430178
1988.55, 0.429701
1989.32, 0.429462
1990.08, 0.428506
1990.84, 0.427312
1991.61, 0.426715
1992.37, 0.426834
1993.14, 0.427312
1993.9, 0.427551
1994.67, 0.427670
1995.44, 0.428506
1996.21, 0.429462
1996.98, 0.430537
1997.75, 0.432089
1998.52, 0.433761
1999.29, 0.435194
2000.06, 0.436866
2000.83, 0.439255
2001.6, 0.442121
2002.38, 0.444749
2003.15, 0.446898
2003.93, 0.449287
2004.7, 0.452034
2005.48, 0.454900
2006.25, 0.457647
2007.03, 0.460394
2007.81, 0.463021
2008.58, 0.465290
2009.36, 0.467798
2010.14, 0.469948
2010.92, 0.472098
2011.7, 0.474844
2012.48, 0.477352
2013.26, 0.479263
2014.05, 0.481055
2014.83, 0.482727
2015.61, 0.484518
2016.4, 0.486309
2017.18, 0.487981
2017.97, 0.489534
2018.75, 0.491087
2019.54, 0.492520
2020.32, 0.493714
2021.11, 0.494789
2021.9, 0.495864
2022.69, 0.497058
2023.48, 0.498133
2024.27, 0.498969
2025.06, 0.500283
2025.85, 0.501118
2026.64, 0.501716
2027.44, 0.502552
2028.23, 0.503626
2029.02, 0.504343
2029.82, 0.504821
2030.61, 0.505537
2031.41, 0.505896
2032.2, 0.506612
2033.0, 0.507090
2033.8, 0.507209
2034.6, 0.507090
2035.4, 0.507090
2036.2, 0.507568
2037.0, 0.507926
2037.8, 0.508284
2038.6, 0.508404
2039.4, 0.508642
2040.2, 0.508404
2041.01, 0.508165
2041.81, 0.507926
2042.61, 0.507687
2043.42, 0.507329
2044.22, 0.507090
2045.03, 0.506732
2045.84, 0.505896
2046.65, 0.504940
2047.46, 0.504462
2048.26, 0.503985
2049.07, 0.503268
2049.88, 0.502552
2050.69, 0.501357
2051.51, 0.500402
2052.32, 0.500283
2053.13, 0.499566
2053.94, 0.498372
2054.76, 0.497297
2055.57, 0.496103
2056.39, 0.495028
2057.2, 0.494192
2058.02, 0.493475
2058.84, 0.492997
2059.66, 0.492161
2060.48, 0.491206
2061.29, 0.490251
2062.11, 0.489295
2062.94, 0.488459
2063.76, 0.487743
2064.58, 0.486429
2065.4, 0.485115
2066.22, 0.484399
2067.05, 0.483085
2067.87, 0.481771
2068.7, 0.480458
2069.52, 0.479144
2070.35, 0.478188
2071.18, 0.476636
2072.0, 0.475203
2072.83, 0.474008
2073.66, 0.472695
2074.49, 0.471262
2075.32, 0.469709
2076.15, 0.468515
2076.98, 0.467082
2077.82, 0.466365
2078.65, 0.465410
2079.48, 0.464215
2080.32, 0.463618
2081.15, 0.463260
2081.99, 0.462902
2082.83, 0.462902
2083.66, 0.463021
2084.5, 0.463141
2085.34, 0.463738
2086.18, 0.464813
2087.02, 0.465768
2087.86, 0.466843
2088.7, 0.468156
2089.54, 0.469709
2090.39, 0.471500
2091.23, 0.473411
2092.07, 0.474964
2092.92, 0.476636
2093.76, 0.478427
2094.61, 0.480219
2095.45, 0.481771
2096.3, 0.483801
2097.15, 0.485832
2098.0, 0.487623
2098.85, 0.489295
2099.7, 0.491206
2100.55, 0.492878
2101.4, 0.494431
2102.25, 0.496103
2103.1, 0.497894
2103.96, 0.499208
2104.81, 0.500641
2105.67, 0.502193
2106.52, 0.503388
2107.38, 0.504462
2108.24, 0.505537
2109.09, 0.506493
2109.95, 0.507806
2110.81, 0.508881
2111.67, 0.509717
2112.53, 0.510195
2113.39, 0.510912
2114.25, 0.511986
2115.12, 0.512703
2115.98, 0.513181
2116.84, 0.514017
2117.71, 0.515330
2118.58, 0.516525
2119.44, 0.517480
2120.31, 0.518316
2121.18, 0.519391
2122.04, 0.520585
2122.91, 0.521899
2123.78, 0.522854
2124.65, 0.523929
2125.52, 0.524646
2126.4, 0.525721
2127.27, 0.526318
2128.14, 0.526796
2129.02, 0.527512
2129.89, 0.528348
2130.77, 0.529423
2131.64, 0.530020
2132.52, 0.530378
2133.4, 0.530737
2134.27, 0.531453
2135.15, 0.532050
2136.03, 0.532767
2136.91, 0.533245
2137.79, 0.533364
2138.68, 0.533603
2139.56, 0.533722
2140.44, 0.533722
2141.33, 0.533842
2142.21, 0.534319
2143.1, 0.534678
2143.99, 0.534917
2144.87, 0.535275
2145.76, 0.535394
2146.65, 0.535275
2147.54, 0.535394
2148.43, 0.535394
2149.32, 0.535514
2150.21, 0.535514
2151.1, 0.535394
2151.99, 0.535275
2152.89, 0.534797
2153.78, 0.534439
2154.68, 0.534678
2155.57, 0.534797
2156.47, 0.534439
2157.37, 0.533961
2158.27, 0.533722
2159.16, 0.533722
2160.06, 0.533364
2160.96, 0.533125
2161.86, 0.532886
2162.77, 0.532409
2163.67, 0.532050
2164.57, 0.531692
2165.48, 0.531811
2166.38, 0.531453
2167.29, 0.530856
2168.2, 0.530378
2169.1, 0.530020
2170.01, 0.529303
2170.92, 0.528945
2171.83, 0.528706
2172.74, 0.527990
2173.65, 0.527751
2174.56, 0.527393
2175.47, 0.526796
2176.39, 0.526676
2177.3, 0.526318
2178.22, 0.525840
2179.13, 0.525243
2180.05, 0.525124
2180.96, 0.524885
2181.88, 0.524526
2182.8, 0.524287
2183.72, 0.524526
2184.64, 0.524287
2185.56, 0.524168
2186.48, 0.524049
2187.41, 0.523690
2188.33, 0.523452
2189.25, 0.523571
2190.18, 0.523571
2191.1, 0.523452
2192.03, 0.523093
2192.96, 0.523332
2193.89, 0.523690
2194.82, 0.523929
2195.74, 0.524168
2196.68, 0.524287
2197.61, 0.524646
2198.54, 0.525004
2199.47, 0.525482
2200.4, 0.526318
2201.34, 0.527154
2202.28, 0.528109
2203.21, 0.528826
2204.15, 0.529423
2205.08, 0.529901
2206.02, 0.530378
2206.96, 0.530975
2207.9, 0.531811
2208.84, 0.532886
2209.78, 0.533483
2210.73, 0.533722
2211.67, 0.534200
2212.61, 0.534917
2213.56, 0.535394
2214.5, 0.535872
2215.45, 0.536589
2216.4, 0.537066
2217.35, 0.537305
2218.3, 0.537544
2219.24, 0.537663
2220.2, 0.538022
2221.15, 0.538619
2222.1, 0.539313
2223.05, 0.539545
2224.0, 0.539545
2224.96, 0.539545
2225.91, 0.540470
2226.87, 0.541049
2227.83, 0.541049
2228.79, 0.541744
2229.74, 0.541859
2230.7, 0.541859
2231.66, 0.542091
2232.63, 0.541859
2233.59, 0.542207
2234.55, 0.542554
2235.51, 0.543132
2236.48, 0.543595
2237.44, 0.543248
2238.41, 0.543943
2239.38, 0.544753
2240.34, 0.544637
2241.31, 0.544290
2242.28, 0.545216
2243.25, 0.545678
2244.22, 0.545447
2245.19, 0.545563
2246.17, 0.546141
2247.14, 0.545563
2248.12, 0.545216
2249.09, 0.546257
2250.07, 0.546836
2251.04, 0.547183
2252.02, 0.547414
2253.0, 0.547414
2253.98, 0.548109
2254.96, 0.548340
2255.94, 0.548109
2256.92, 0.548456
2257.91, 0.548803
2258.89, 0.548456
2259.88, 0.548225
2260.86, 0.548225
2261.85, 0.548572
2262.83, 0.548572
2263.82, 0.548688
2264.81, 0.549266
2265.8, 0.549498
2266.79, 0.549729
2267.78, 0.549382
2268.78, 0.549150
2269.77, 0.549035
2270.76, 0.548919
2271.76, 0.549382
2272.75, 0.549498
2273.75, 0.548803
2274.75, 0.548919
2275.75, 0.548803
2276.75, 0.548340
2277.75, 0.548340
2278.75, 0.548109
2279.75, 0.548225
2280.75, 0.548340
2281.76, 0.548688
2282.76, 0.548456
2283.77, 0.548225
2284.77, 0.547877
2285.78, 0.547762
2286.79, 0.547877
2287.8, 0.547762
2288.81, 0.548225
2289.82, 0.547877
2290.83, 0.547299
2291.84, 0.547414
2292.86, 0.547067
2293.87, 0.546373
2294.89, 0.546026
2295.91, 0.546141
2296.92, 0.546489
2297.94, 0.546373
2298.96, 0.545794
2299.98, 0.545100
2301.0, 0.544868
2302.02, 0.544984
2303.04, 0.545100
2304.07, 0.544753
2305.09, 0.544405
2306.12, 0.544058
2307.15, 0.543711
2308.17, 0.543943
2309.2, 0.544174
2310.23, 0.543711
2311.26, 0.542554
2312.29, 0.542207
2313.32, 0.541512
2314.35, 0.541165
2315.39, 0.541396
2316.42, 0.540702
2317.46, 0.539892
2318.5, 0.540008
2319.53, 0.540008
2320.57, 0.539429
2321.61, 0.538850
2322.65, 0.538619
2323.69, 0.538156
2324.73, 0.537924
2325.78, 0.537577
2326.82, 0.536999
2327.86, 0.536304
2328.91, 0.535726
2329.96, 0.535957
2331.01, 0.535841
2332.05, 0.535957
2333.1, 0.536420
2334.15, 0.536999
2335.21, 0.536536
2336.26, 0.536304
2337.31, 0.536651
2338.36, 0.536999
2339.42, 0.536999
2340.48, 0.536883
2341.53, 0.536883
2342.59, 0.536999
2343.65, 0.537230
2344.71, 0.537346
2345.77, 0.537693
2346.83, 0.538156
2347.9, 0.538387
2348.96, 0.537809
2350.02, 0.538040
2351.09, 0.538387
2352.16, 0.539082
2353.23, 0.538619
2354.29, 0.538503
2355.36, 0.538966
2356.43, 0.539198
2357.51, 0.538850
2358.58, 0.538735
2359.65, 0.538850
2360.73, 0.538619
2361.8, 0.538966
2362.88, 0.539082
2363.96, 0.538966
2365.03, 0.538735
2366.11, 0.538619
2367.19, 0.538503
2368.27, 0.538387
2369.36, 0.538735
2370.44, 0.538966
2371.53, 0.538272
2372.61, 0.537809
2373.7, 0.537924
2374.78, 0.537693
2375.87, 0.537346
2376.96, 0.537461
2378.05, 0.537230
2379.14, 0.536536
2380.24, 0.536420
2381.33, 0.536073
2382.42, 0.535494
2383.52, 0.535841
2384.61, 0.535841
2385.71, 0.534915
2386.81, 0.534568
2387.91, 0.534568
2389.01, 0.534568
2390.11, 0.533874
2391.22, 0.533411
2392.32, 0.533179
2393.42, 0.532485
2394.53, 0.532254
2395.64, 0.531906
2396.74, 0.530865
2397.85, 0.529707
2398.96, 0.528434
2400.07, 0.527393
2401.18, 0.526930
2402.3, 0.525888
2403.41, 0.524268
2404.52, 0.522648
2405.64, 0.521259
2406.76, 0.520449
2407.88, 0.519060
2408.99, 0.516861
2410.11, 0.514778
2411.23, 0.512926
2412.36, 0.510149
2413.48, 0.507371
2414.6, 0.504478
2415.73, 0.501700
2416.85, 0.498575
2417.98, 0.495335
2419.11, 0.492789
2420.24, 0.490243
2421.37, 0.488159
2422.5, 0.487465
2423.64, 0.487349
2424.77, 0.487234
2425.9, 0.487928
2427.04, 0.489201
2428.18, 0.491516
2429.31, 0.494178
2430.45, 0.496839
2431.59, 0.499964
2432.73, 0.502973
2433.88, 0.505404
2435.02, 0.508065
2436.16, 0.510727
2437.31, 0.512926
2438.45, 0.514778
2439.6, 0.516398
2440.75, 0.518366
2441.9, 0.519754
2443.05, 0.520333
2444.2, 0.521028
2445.35, 0.521722
2446.51, 0.522069
2447.67, 0.521953
2448.82, 0.522185
2449.98, 0.522763
2451.14, 0.523111
2452.3, 0.523111
2453.46, 0.522879
2454.62, 0.522995
2455.78, 0.522879
2456.94, 0.522069
2458.11, 0.521606
2459.28, 0.521722
2460.44, 0.521722
2461.61, 0.521722
2462.78, 0.521259
2463.95, 0.520102
2465.12, 0.519639
2466.3, 0.519407
2467.47, 0.518366
2468.65, 0.517556
2469.82, 0.516861
2471.0, 0.516514
2472.18, 0.515588
2473.36, 0.515125
2474.54, 0.514547
2475.72, 0.513042
2476.9, 0.512116
2478.08, 0.511653
2479.27, 0.510612
2480.46, 0.509570
2481.64, 0.508644
2482.83, 0.507603
2484.02, 0.506329
2485.21, 0.505635
2486.4, 0.505056
2487.6, 0.504362
2488.79, 0.503436
2489.99, 0.502163
2491.18, 0.501237
2492.38, 0.500543
2493.58, 0.499038
2494.78, 0.497418
2495.98, 0.496955
2497.18, 0.496839
2498.39, 0.495798
2499.59, 0.494525
2500.8, 0.493483
2502.01, 0.492326
2503.21, 0.490706
2504.42, 0.489085
2505.63, 0.488044
2506.84, 0.487349
2508.06, 0.486308
2509.27, 0.485266
2510.49, 0.483762
2511.7, 0.482026
2512.92, 0.480637
2514.14, 0.479017
2515.36, 0.477512
2516.58, 0.476355
2517.8, 0.475197
2519.03, 0.473693
2520.25, 0.472536
2521.48, 0.471263
2522.7, 0.469874
2523.93, 0.469179
2525.16, 0.468948
2526.39, 0.468369
2527.62, 0.468138
2528.86, 0.468253
2530.09, 0.468485
2531.33, 0.468716
2532.56, 0.469527
2533.8, 0.470337
2535.04, 0.470800
2536.28, 0.471841
2537.52, 0.473346
2538.76, 0.474734
2540.01, 0.475892
2541.25, 0.476355
2542.5, 0.476008
2543.75, 0.477628
2544.99, 0.479827
2546.24, 0.480868
2547.49, 0.480984
2548.75, 0.482373
2550.0, 0.483530
2551.26, 0.483530
2552.51, 0.484109
2553.77, 0.486771
2555.03, 0.488854
2556.29, 0.489895
2557.55, 0.490821
2558.81, 0.490590
2560.08, 0.488275
2561.34, 0.486423
2562.61, 0.487118
2563.88, 0.488391
2565.14, 0.491863
2566.41, 0.495682
2567.68, 0.496492
2568.96, 0.494525
2570.23, 0.494988
2571.51, 0.496608
2572.78, 0.494293
2574.06, 0.495335
2575.34, 0.497534
2576.62, 0.497071
2577.9, 0.499270
2579.18, 0.501700
2580.47, 0.500774
2581.75, 0.500427
2583.04, 0.497534
2584.32, 0.497765
2585.61, 0.501122
2586.9, 0.500427
2588.2, 0.501237
2589.49, 0.503552
2590.78, 0.505519
2592.08, 0.504246
2593.37, 0.495335
2594.67, 0.487234
2595.97, 0.494293
2597.27, 0.503205
2598.57, 0.506908
2599.88, 0.507140
2601.18, 0.505635
2602.49, 0.504362
2603.79, 0.501469
2605.1, 0.497650
2606.41, 0.499386
2607.72, 0.502626
2609.03, 0.504015
2610.35, 0.505867
2611.66, 0.506792
2612.98, 0.505751
2614.3, 0.505635
2615.62, 0.501700
2616.94, 0.498344
2618.26, 0.500774
2619.58, 0.498923
2620.91, 0.499617
2622.23, 0.504709
2623.56, 0.505982
2624.89, 0.503552
2626.22, 0.499270
2627.55, 0.501006
2628.88, 0.499501
2630.21, 0.494178
2631.55, 0.497534
2632.89, 0.500080
2634.22, 0.500427
2635.56, 0.501816
2636.9, 0.501932
2638.25, 0.501932
2639.59, 0.501353
2640.93, 0.500543
2642.28, 0.500196
2643.63, 0.499733
2644.98, 0.497187
2646.33, 0.496724
2647.68, 0.497881
2649.03, 0.497881
2650.39, 0.496376
2651.74, 0.493136
2653.1, 0.491979
2654.46, 0.492442
2655.82, 0.492210
2657.18, 0.492789
2658.54, 0.490590
2659.9, 0.488854
2661.27, 0.488622
2662.64, 0.488159
2664.01, 0.482026
2665.38, 0.475660
2666.74, 0.474734
2668.12, 0.478091
2669.49, 0.472767
2670.87, 0.470568
2672.24, 0.478322
2673.62, 0.480753
2675.0, 0.476702
2676.38, 0.471957
2677.76, 0.471610
2679.15, 0.471378
2680.54, 0.474387
2681.92, 0.475082
2683.31, 0.472651
2684.7, 0.470684
2686.09, 0.469295
2687.48, 0.468253
2688.88, 0.467675
2690.27, 0.466518
2691.67, 0.463624
2693.07, 0.457375
2694.47, 0.454481
2695.87, 0.455639
2697.27, 0.456912
2698.67, 0.455639
2700.08, 0.452167
2701.49, 0.449273
2702.9, 0.448695
2704.31, 0.446959
2705.72, 0.444644
2707.13, 0.441519
2708.54, 0.436311
2709.96, 0.429830
2711.38, 0.427747
2712.8, 0.429946
2714.22, 0.429252
2715.64, 0.426706
2717.06, 0.422655
2718.49, 0.416868
2719.91, 0.407957
2721.34, 0.406568
2722.77, 0.405874
2724.2, 0.401013
2725.63, 0.400782
2727.07, 0.401707
2728.5, 0.400087
2729.94, 0.397078
2731.38, 0.393953
2732.82, 0.389903
2734.26, 0.384347
2735.7, 0.381570
2737.15, 0.378445
2738.59, 0.370691
2740.04, 0.364789
2741.49, 0.364326
2742.94, 0.365252
2744.39, 0.363400
2745.84, 0.360159
2747.3, 0.356803
2748.76, 0.353215
2750.21, 0.349049
2751.67, 0.344883
2753.14, 0.339675
2754.6, 0.331458
2756.06, 0.328796
2757.53, 0.329722
2759.0, 0.327639
2760.46, 0.323241
2761.94, 0.317338
2763.41, 0.313519
2764.88, 0.311436
2766.36, 0.307733
2767.83, 0.303566
2769.31, 0.299979
2770.79, 0.296507
2772.27, 0.294886
2773.76, 0.292919
2775.24, 0.289910
2776.73, 0.286554
2778.22, 0.283429
2779.71, 0.279957
2781.2, 0.276369
2782.69, 0.273823
2784.18, 0.270930
2785.68, 0.266069
2787.18, 0.262018
2788.68, 0.259935
2790.18, 0.257505
2791.68, 0.254148
2793.19, 0.250792
2794.69, 0.247205
2796.2, 0.243270
2797.71, 0.239798
2799.22, 0.236441
2800.73, 0.231812
2802.24, 0.226488
2803.76, 0.222553
2805.28, 0.220007
2806.8, 0.216651
2808.32, 0.212485
2809.84, 0.208666
2811.36, 0.204962
2812.89, 0.200912
2814.42, 0.196861
2815.94, 0.193389
2817.48, 0.189454
2819.01, 0.185519
2820.54, 0.182163
2822.08, 0.178922
2823.61, 0.175798
2825.15, 0.172673
2826.69, 0.169317
2828.23, 0.166192
2829.78, 0.163298
2831.32, 0.160521
2832.87, 0.157396
2834.42, 0.154619
2835.97, 0.152188
2837.52, 0.149989
2839.08, 0.147906
2840.63, 0.145939
2842.19, 0.143740
2843.75, 0.141309
2845.31, 0.139110
2846.87, 0.137027
2848.44, 0.135060
2850.0, 0.133208
2851.57, 0.131125
2853.14, 0.129157
2854.71, 0.127421
2856.28, 0.125454
2857.86, 0.123371
2859.43, 0.121635
2861.01, 0.119899
2862.59, 0.118163
2864.17, 0.116427
2865.76, 0.114459
2867.34, 0.112492
2868.93, 0.110987
2870.52, 0.109483
2872.11, 0.107863
2873.7, 0.106127
2875.29, 0.104043
2876.89, 0.102539
2878.49, 0.101034
2880.08, 0.0994140
2881.69, 0.0976780
2883.29, 0.0958260
2884.89, 0.0938590
2886.5, 0.0922390
2888.11, 0.0908500
2889.72, 0.0891140
2891.33, 0.0874940
2892.94, 0.0863360
2894.56, 0.0848320
2896.17, 0.0832120
2897.79, 0.0817070
2899.42, 0.0802030
2901.04, 0.0788140
2902.66, 0.0775410
2904.29, 0.0762680
2905.92, 0.0749950
2907.55, 0.0737220
2909.18, 0.0723330
2910.81, 0.0707130
2912.45, 0.0694390
2914.08, 0.0679350
2915.72, 0.0664300
2917.36, 0.0648100
2919.01, 0.0636530
2920.65, 0.0628430
2922.3, 0.0619170
2923.94, 0.0606440
2925.59, 0.0596020
2927.25, 0.0586760
2928.9, 0.0576350
2930.56, 0.0564770
2932.21, 0.0555520
2933.87, 0.0549730
2935.53, 0.0541630
2937.2, 0.0531210
2938.86, 0.0521950
2940.53, 0.0512690
2942.2, 0.0505750
2943.87, 0.0504590
2945.54, 0.0501120
2947.22, 0.0491860
2948.89, 0.0488390
2950.57, 0.0486080
2952.25, 0.0486080
2953.93, 0.0481450
2955.62, 0.0475660
2957.3, 0.0474500
2958.99, 0.0475660
2960.68, 0.0473350
2962.37, 0.0472190
2964.07, 0.0469870
2965.76, 0.0468720
2967.46, 0.0467560
2969.16, 0.0466400
2970.86, 0.0465240
2972.56, 0.0466400
2974.27, 0.0467560
2975.98, 0.0466400
2977.69, 0.0461770
2979.4, 0.0459460
2981.11, 0.0458300
2982.83, 0.0458300
2984.54, 0.0457140
2986.26, 0.0454830
2987.98, 0.0453670
2989.71, 0.0451360
2991.43, 0.0451360
2993.16, 0.0451360
2994.89, 0.0447880
2996.62, 0.0446730
2998.35, 0.0445570
3000.09, 0.0443260
3001.83, 0.0443260
3003.57, 0.0442100
3005.31, 0.0442100
3007.05, 0.0442100
3008.79, 0.0443260
3010.54, 0.0443260
3012.29, 0.0444410
3014.04, 0.0444410
3015.8, 0.0443260
3017.55, 0.0446730
3019.31, 0.0451360
3021.07, 0.0452510
3022.83, 0.0454830
3024.59, 0.0458300
3026.36, 0.0462930
3028.13, 0.0467560
3029.9, 0.0473350
3031.67, 0.0476820
3033.44, 0.0482600
3035.22, 0.0490710
3037.0, 0.0497650
3038.78, 0.0502280
3040.56, 0.0509220
3042.34, 0.0517320
3044.13, 0.0523110
3045.92, 0.0531210
3047.71, 0.0539310
3049.5, 0.0543940
3051.3, 0.0548570
3053.09, 0.0556670
3054.89, 0.0564770
3056.69, 0.0572880
3058.5, 0.0579820
3060.3, 0.0586760
3062.11, 0.0596020
3063.92, 0.0602970
3065.73, 0.0609910
3067.55, 0.0616850
3069.36, 0.0624960
3071.18, 0.0636530
3073.0, 0.0643470
3074.82, 0.0652730
3076.65, 0.0663150
3078.48, 0.0674720
3080.31, 0.0685140
3082.14, 0.0697870
3083.97, 0.0708280
3085.8, 0.0717540
3087.64, 0.0726800
3089.48, 0.0738370
3091.33, 0.0752260
3093.17, 0.0764990
3095.02, 0.0776560
3096.87, 0.0788140
3098.72, 0.0802030
3100.57, 0.0815910
3102.43, 0.0826330
3104.28, 0.0839060
3106.14, 0.0852950
3108.01, 0.0866840
3109.87, 0.0878410
3111.74, 0.0889980
3113.61, 0.0901560
3115.48, 0.0913130
3117.35, 0.0927020
3119.23, 0.0940900
3121.1, 0.0951320
3122.98, 0.0965210
3124.87, 0.0976780
3126.75, 0.0989510
3128.64, 0.100340
3130.53, 0.101729
3132.42, 0.103002
3134.31, 0.104275
3136.21, 0.105548
3138.11, 0.106705
3140.01, 0.108210
3141.91, 0.109483
3143.82, 0.110524
3145.73, 0.111450
3147.64, 0.112492
3149.55, 0.113649
3151.46, 0.115038
3153.38, 0.116658
3155.3, 0.118047
3157.22, 0.119320
3159.14, 0.120593
3161.07, 0.121751
3163.0, 0.123255
3164.93, 0.124760
3166.86, 0.126033
3168.8, 0.127421
3170.74, 0.128810
3172.68, 0.130199
3174.62, 0.131472
3176.56, 0.132745
3178.51, 0.133902
3180.46, 0.135291
3182.42, 0.136796
3184.37, 0.138185
3186.33, 0.139342
3188.29, 0.140499
3190.25, 0.141772
3192.21, 0.143045
3194.18, 0.144087
3196.15, 0.145013
3198.12, 0.146054
3200.09, 0.147212
3202.07, 0.148369
3204.05, 0.149526
3206.03, 0.150799
3208.02, 0.151725
3210.0, 0.152304
3211.99, 0.152998
3213.98, 0.153693
3215.98, 0.154503
3217.97, 0.155313
3219.97, 0.156355
3221.97, 0.157165
3223.98, 0.157743
3225.98, 0.158206
3227.99, 0.158669
3230.0, 0.159364
3232.02, 0.160174
3234.03, 0.160984
3236.05, 0.161562
3238.07, 0.162488
3240.1, 0.163183
3242.12, 0.163993
3244.15, 0.165150
3246.18, 0.165960
3248.22, 0.166886
3250.25, 0.167696
3252.29, 0.168854
3254.33, 0.169895
3256.38, 0.171400
3258.43, 0.172557
3260.47, 0.173483
3262.53, 0.174525
3264.58, 0.175682
3266.64, 0.177186
3268.7, 0.178807
3270.76, 0.180774
3272.82, 0.182510
3274.89, 0.184362
3276.96, 0.186445
3279.04, 0.188412
3281.11, 0.190727
3283.19, 0.193157
3285.27, 0.195588
3287.35, 0.197787
3289.44, 0.200101
3291.53, 0.202763
3293.62, 0.205078
3295.71, 0.207508
3297.81, 0.209939
3299.91, 0.212369
3302.01, 0.214915
3304.11, 0.216998
3306.22, 0.219544
3308.33, 0.222322
3310.44, 0.224984
3312.56, 0.227299
3314.68, 0.229729
3316.8, 0.232391
3318.92, 0.234821
3321.05, 0.237599
3323.18, 0.240492
3325.31, 0.242922
3327.44, 0.245237
3329.58, 0.248015
3331.72, 0.250677
3333.86, 0.253223
3336.01, 0.255769
3338.16, 0.258315
3340.31, 0.260861
3342.46, 0.263639
3344.61, 0.266185
3346.77, 0.268615
3348.94, 0.271161
3351.1, 0.273360
3353.27, 0.275559
3355.44, 0.277874
3357.61, 0.280188
3359.79, 0.282503
3361.97, 0.284586
3364.15, 0.286438
3366.33, 0.288174
3368.52, 0.290141
3370.71, 0.292109
3372.9, 0.293845
3375.1, 0.295812
3377.3, 0.297780
3379.5, 0.300094
3381.71, 0.302409
3383.91, 0.304955
3386.12, 0.307270
3388.34, 0.309237
3390.55, 0.311089
3392.77, 0.312941
3394.99, 0.314908
3397.22, 0.316528
3399.45, 0.317917
3401.68, 0.319190
3403.91, 0.320695
3406.15, 0.321968
3408.39, 0.323009
3410.63, 0.324282
3412.87, 0.325555
3415.12, 0.326944
3417.37, 0.328333
3419.63, 0.330069
3421.88, 0.331921
3424.14, 0.334120
3426.41, 0.336434
3428.67, 0.338865
3430.94, 0.341295
3433.21, 0.343725
3435.49, 0.345924
3437.77, 0.347892
3440.05, 0.349859
3442.33, 0.351942
3444.62, 0.353447
3446.91, 0.355183
3449.2, 0.356803
3451.5, 0.358423
3453.8, 0.360044
3456.1, 0.361432
3458.41, 0.362705
3460.72, 0.363979
3463.03, 0.365020
3465.34, 0.365946
3467.66, 0.367103
3469.98, 0.368029
3472.31, 0.368839
3474.63, 0.369649
3476.96, 0.370691
3479.3, 0.371617
3481.64, 0.372543
3483.97, 0.373469
3486.32, 0.374279
3488.66, 0.374742
3491.01, 0.375436
3493.36, 0.376246
3495.72, 0.376478
3498.08, 0.376825
3500.44, 0.377288
3502.81, 0.378098
3505.18, 0.379255
3507.55, 0.380875
3509.92, 0.382727
3512.3, 0.384695
3514.68, 0.386546
3517.06, 0.388282
3519.45, 0.389671
3521.84, 0.391060
3524.24, 0.392217
3526.64, 0.393606
3529.04, 0.394648
3531.44, 0.395574
3533.85, 0.396499
3536.26, 0.397309
3538.67, 0.398120
3541.09, 0.399045
3543.51, 0.399971
3545.93, 0.401013
3548.36, 0.402286
3550.79, 0.403675
3553.22, 0.404832
3555.66, 0.406105
3558.1, 0.407378
3560.54, 0.408998
3562.99, 0.410619
3565.44, 0.411892
3567.9, 0.413165
3570.35, 0.414206
3572.81, 0.415248
3575.28, 0.416405
3577.75, 0.417447
3580.22, 0.418141
3582.69, 0.418836
3585.17, 0.419646
3587.65, 0.420225
3590.14, 0.420687
3592.62, 0.421035
3595.11, 0.421266
3597.61, 0.421613
3600.11, 0.422076
3602.61, 0.422192
3605.11, 0.422539
3607.62, 0.423002
3610.14, 0.423812
3612.65, 0.424970
3615.17, 0.426011
3617.69, 0.427053
3620.22, 0.428326
3622.75, 0.429483
3625.28, 0.430756
3627.82, 0.432261
3630.36, 0.433765
3632.9, 0.435270
3635.45, 0.436774
3638.0, 0.437932
3640.56, 0.438973
3643.12, 0.440362
3645.68, 0.441172
3648.24, 0.441982
3650.81, 0.443024
3653.39, 0.443834
3655.96, 0.444413
3658.54, 0.444991
3661.13, 0.445686
3663.71, 0.446264
3666.3, 0.446727
3668.9, 0.447190
3671.5, 0.447653
3674.1, 0.448000
3676.7, 0.448232
3679.31, 0.448695
3681.93, 0.449042
3684.54, 0.449273
3687.17, 0.449621
3689.79, 0.449852
3692.42, 0.449852
3695.05, 0.449852
3697.69, 0.450315
3700.32, 0.450662
3702.97, 0.451241
3705.61, 0.451704
3708.27, 0.451935
3710.92, 0.452398
3713.58, 0.453093
3716.24, 0.453787
3718.91, 0.454366
3721.58, 0.454713
3724.25, 0.455176
3726.93, 0.455870
3729.61, 0.456449
3732.29, 0.457143
3734.98, 0.457722
3737.67, 0.458185
3740.37, 0.458416
3743.07, 0.458532
3745.78, 0.458763
3748.49, 0.459111
3751.2, 0.459458
3753.91, 0.459689
3756.63, 0.460037
3759.36, 0.460499
3762.09, 0.460499
3764.82, 0.460731
3767.55, 0.461194
3770.29, 0.461541
3773.04, 0.461772
3775.78, 0.462004
3778.54, 0.462467
3781.29, 0.462698
3784.05, 0.462930
3786.82, 0.463046
3789.59, 0.463161
3792.36, 0.463277
3795.13, 0.463277
3797.92, 0.463161
3800.7, 0.463277
3803.49, 0.463277
3806.28, 0.463277
3809.08, 0.463046
3811.88, 0.463046
3814.68, 0.463046
3817.49, 0.463046
3820.31, 0.462930
3823.12, 0.462698
3825.94, 0.462467
3828.77, 0.462235
3831.6, 0.462235
3834.43, 0.461888
3837.27, 0.461078
3840.11, 0.460384
3842.96, 0.460037
3845.81, 0.459574
3848.67, 0.458648
3851.53, 0.457606
3854.39, 0.455986
3857.26, 0.454481
3860.13, 0.453555
3863.01, 0.453093
3865.89, 0.452167
3868.77, 0.451241
3871.66, 0.450084
3874.55, 0.449158
3877.45, 0.449042
3880.35, 0.449621
3883.26, 0.450894
3886.17, 0.452398
3889.09, 0.453671
3892.01, 0.454481
3894.93, 0.455060
3897.86, 0.455523
3900.79, 0.455407
3903.73, 0.455291
3906.67, 0.455291
3909.62, 0.455176
3912.57, 0.455060
3915.52, 0.454944
3918.48, 0.454713
3921.45, 0.454481
3924.42, 0.454134
3927.39, 0.453903
3930.37, 0.453324
3933.35, 0.452398
3936.34, 0.451819
3939.33, 0.451357
3942.32, 0.450778
3945.32, 0.450084
3948.33, 0.449505
3951.34, 0.449389
3954.35, 0.449389
3957.37, 0.449505
3960.39, 0.449389
3963.42, 0.449273
3966.45, 0.449158
3969.49, 0.449621
3972.53, 0.449968
3975.58, 0.450315
3978.63, 0.450546
3981.68, 0.450778
3984.75, 0.450778
3987.81, 0.450546
3990.88, 0.450315
3993.95, 0.450315
3997.03, 0.450431
4000.12, 0.450431
4003.21, 0.450431
4006.3, 0.450431
4009.4, 0.450431
4012.5, 0.450199
4015.61, 0.449852
4018.72, 0.449505
4021.84, 0.449273
4024.96, 0.448810
4028.09, 0.448232
4031.22, 0.447769
4034.36, 0.447306
4037.5, 0.446380
4040.65, 0.445338
4043.8, 0.444181
4046.96, 0.443140
4050.12, 0.441751
4053.29, 0.440246
4056.46, 0.438742
4059.64, 0.437469
4062.82, 0.436774
4066.0, 0.436774
4069.19, 0.436890
4072.39, 0.436659
4075.59, 0.436080
4078.8, 0.435617
4082.01, 0.434923
4085.23, 0.433881
4088.45, 0.432724
4091.68, 0.431682
4094.91, 0.430525
4098.15, 0.429252
4101.39, 0.427979
4104.63, 0.426474
4107.89, 0.425085
4111.14, 0.423581
4114.41, 0.422076
4117.67, 0.420456
4120.95, 0.418836
4124.23, 0.416984
4127.51, 0.415132
4130.8, 0.413165
4134.09, 0.411197
4137.39, 0.409114
4140.7, 0.407147
4144.01, 0.405179
4147.32, 0.403212
4150.64, 0.400897
4153.97, 0.398467
4157.3, 0.395921
4160.64, 0.393606
4163.98, 0.391060
4167.33, 0.388630
4170.68, 0.386083
4174.04, 0.383190
4177.4, 0.380297
4180.77, 0.377404
4184.14, 0.374742
4187.52, 0.372080
4190.91, 0.369187
4194.3, 0.365946
4197.69, 0.362821
4201.1, 0.359581
4204.5, 0.355877
4207.92, 0.351942
4211.34, 0.348007
4214.76, 0.344304
4218.19, 0.340138
4221.62, 0.335971
4225.06, 0.332152
4228.51, 0.328101
4231.96, 0.324051
4235.42, 0.320232
4238.88, 0.316065
4242.35, 0.311899
4245.83, 0.307848
4249.31, 0.303798
4252.79, 0.299168
4256.28, 0.293845
4259.78, 0.287364
4263.29, 0.280304
4266.79, 0.273129
4270.31, 0.265722
4273.83, 0.258315
4277.35, 0.250677
4280.89, 0.243617
4284.42, 0.237136
4287.97, 0.231233
4291.52, 0.226141
4295.07, 0.221628
4298.63, 0.217461
4302.2, 0.213642
4305.78, 0.209476
4309.35, 0.204962
4312.94, 0.200912
4316.53, 0.197208
4320.13, 0.194083
4323.73, 0.191653
4327.34, 0.189454
4330.96, 0.187255
4334.58, 0.184593
4338.21, 0.181468
4341.84, 0.178112
4345.48, 0.174756
4349.12, 0.171631
4352.77, 0.168854
4356.43, 0.166423
4360.1, 0.164919
4363.76, 0.163646
4367.44, 0.161678
4371.12, 0.159016
4374.81, 0.156007
4378.51, 0.153230
4382.21, 0.150336
4385.92, 0.147790
4389.63, 0.145476
4393.35, 0.142698
4397.08, 0.140036
4400.81, 0.137722
4404.55, 0.135407
4408.29, 0.133324
4412.04, 0.132282
4415.8, 0.132514
4419.57, 0.133555
4423.34, 0.135523
4427.12, 0.138185
4430.9, 0.141194
4434.69, 0.144781
4438.49, 0.148948
4442.29, 0.153577
4446.1, 0.158322
4449.92, 0.163183
4453.74, 0.167581
4457.57, 0.171284
4461.41, 0.174177
4465.25, 0.176145
4469.1, 0.177186
4472.95, 0.177997
4476.82, 0.178459
4480.69, 0.178807
4484.56, 0.179733
4488.44, 0.181121
4492.33, 0.182857
4496.23, 0.184478
4500.13, 0.185288
4504.04, 0.185288
4507.96, 0.184709
4511.88, 0.183204
4515.81, 0.180774
4519.75, 0.177881
4523.69, 0.175219
4527.65, 0.173251
4531.6, 0.172441
4535.57, 0.173136
4539.54, 0.175103
4543.52, 0.177997
4547.5, 0.181468
4551.5, 0.185172
4555.5, 0.188991
4559.5, 0.193042
4563.52, 0.197671
4567.54, 0.202648
4571.56, 0.207161
4575.6, 0.210517
4579.64, 0.212948
4583.69, 0.214105
4587.75, 0.214568
4591.81, 0.214684
4595.88, 0.213989
4599.96, 0.211675
4604.04, 0.207740
4608.14, 0.202648
4612.24, 0.196745
4616.34, 0.190843
4620.46, 0.185403
4624.58, 0.180311
4628.71, 0.175682
4632.84, 0.171168
4636.99, 0.167233
4641.14, 0.164456
4645.3, 0.162141
4649.47, 0.159942
4653.64, 0.157975
4657.82, 0.155892
4662.01, 0.154271
4666.21, 0.153345
4670.41, 0.152767
4674.62, 0.152188
4678.84, 0.152535
4683.07, 0.153808
4687.3, 0.155197
4691.54, 0.155776
4695.79, 0.155081
4700.05, 0.153230
4704.31, 0.150105
4708.59, 0.145939
4712.87, 0.140962
4717.15, 0.136449
4721.45, 0.133555
4725.76, 0.132282
4730.07, 0.133092
4734.39, 0.135291
4738.72, 0.137606
4743.05, 0.139110
4747.39, 0.139573
4751.75, 0.139689
4756.1, 0.140268
4760.47, 0.141425
4764.85, 0.143045
4769.23, 0.144550
4773.62, 0.145823
4778.02, 0.146749
4782.43, 0.147790
4786.85, 0.149295
4791.27, 0.151147
4795.7, 0.153345
4800.14, 0.156007
4804.59, 0.159132
4809.05, 0.162141
4813.51, 0.164803
4817.99, 0.167581
4822.47, 0.170590
4826.96, 0.173946
4831.46, 0.177418
4835.96, 0.181353
4840.48, 0.185519
4845.0, 0.190033
4849.54, 0.194893
4854.08, 0.200912
4858.63, 0.208434
4863.18, 0.216651
4867.75, 0.224868
4872.33, 0.232159
4876.91, 0.238640
4881.5, 0.244658
4886.1, 0.250098
4890.71, 0.255306
4895.33, 0.259819
4899.96, 0.264101
4904.59, 0.268152
4909.24, 0.272087
4913.89, 0.275906
4918.55, 0.279262
4923.22, 0.282387
4927.9, 0.285280
4932.59, 0.288290
4937.29, 0.290951
4942.0, 0.293498
4946.71, 0.295928
4951.44, 0.298127
4956.17, 0.300210
4960.91, 0.302293
4965.67, 0.304492
4970.43, 0.306112
4975.2, 0.307617
4979.98, 0.308890
4984.76, 0.310047
4989.56, 0.311668
4994.37, 0.314098
4999.18, 0.317107
5004.01, 0.320116
5008.84, 0.322894
5013.69, 0.325440
5018.54, 0.327639
5023.4, 0.330185
5028.28, 0.332847
5033.16, 0.335508
5038.05, 0.337823
5042.95, 0.340022
5047.86, 0.342221
5052.78, 0.343841
5057.71, 0.345230
5062.65, 0.346271
5067.6, 0.346734
5072.56, 0.346040
5077.53, 0.342105
5082.5, 0.332847
5087.49, 0.321505
5092.49, 0.318380
5097.5, 0.326134
5102.51, 0.336666
5107.54, 0.345230
5112.58, 0.351711
5117.62, 0.356456
5122.68, 0.360044
5127.75, 0.362937
5132.82, 0.365136
5137.91, 0.366872
5143.01, 0.368261
5148.12, 0.369418
5153.23, 0.371617
5158.36, 0.373237
5163.5, 0.374510
5168.65, 0.375552
5173.81, 0.376478
5178.98, 0.377288
5184.15, 0.378445
5189.34, 0.379834
5194.54, 0.380760
5199.75, 0.381454
5204.98, 0.382727
5210.21, 0.382843
5215.45, 0.383537
5220.7, 0.385505
5225.96, 0.386431
5231.23, 0.386546
5236.52, 0.386778
5241.81, 0.387472
5247.12, 0.388051
5252.44, 0.388398
5257.76, 0.388514
5263.1, 0.388630
5268.45, 0.388745
5273.81, 0.388398
5279.18, 0.388167
5284.56, 0.387935
5289.95, 0.387125
5295.36, 0.387241
5300.77, 0.387588
5306.2, 0.387472
5311.63, 0.387588
5317.08, 0.387472
5322.54, 0.387472
5328.01, 0.387356
5333.49, 0.387356
5338.98, 0.387241
5344.49, 0.386199
5350.0, 0.384926
5355.53, 0.386083
5361.07, 0.387241
5366.62, 0.387472
5372.18, 0.387241
5377.75, 0.387356
5383.34, 0.387125
5388.93, 0.387241
5394.54, 0.387125
5400.16, 0.387009
5405.79, 0.386431
5411.44, 0.385968
5417.09, 0.383537
5422.76, 0.381686
5428.43, 0.384463
5434.12, 0.385968
5439.83, 0.385273
5445.54, 0.384579
5451.26, 0.384232
5457.0, 0.383190
5462.75, 0.380760
5468.52, 0.380644
5474.29, 0.380644
5480.08, 0.379834
5485.88, 0.380181
5491.69, 0.379834
5497.51, 0.378677
5503.35, 0.377172
5509.2, 0.375552
5515.06, 0.372890
5520.93, 0.369649
5526.82, 0.366988
5532.71, 0.364094
5538.63, 0.360391
5544.55, 0.355299
5550.49, 0.349165
5556.44, 0.343725
5562.4, 0.338517
5568.37, 0.332152
5574.36, 0.323588
5580.36, 0.316644
5586.37, 0.314445
5592.4, 0.312246
5598.44, 0.308774
5604.49, 0.306575
5610.56, 0.306112
5616.63, 0.306460
5622.73, 0.308427
5628.83, 0.309816
5634.95, 0.309353
5641.08, 0.307617
5647.23, 0.309237
5653.39, 0.309932
5659.56, 0.310510
5665.74, 0.311205
5671.94, 0.308774
5678.15, 0.306922
5684.38, 0.306344
5690.62, 0.304724
5696.87, 0.304608
5703.14, 0.303103
5709.42, 0.299863
5715.72, 0.299863
5722.03, 0.300441
5728.35, 0.300094
5734.69, 0.298821
5741.03, 0.296854
5747.4, 0.294076
5753.78, 0.293035
5760.17, 0.287479
5766.58, 0.279957
5773.0, 0.279610
5779.44, 0.277874
5785.88, 0.273592
5792.35, 0.268152
5798.83, 0.261787
5805.32, 0.256116
5811.83, 0.250677
5818.35, 0.243270
5824.89, 0.239450
5831.45, 0.238756
5838.01, 0.237367
5844.59, 0.234242
5851.19, 0.229497
5857.8, 0.223132
5864.43, 0.215957
5871.07, 0.207855
5877.73, 0.194431
5884.4, 0.183552
5891.09, 0.173830
5897.79, 0.160521
5904.5, 0.150568
5911.23, 0.139458
5917.98, 0.128463
5924.75, 0.118857
5931.53, 0.109714
5938.32, 0.103002
5945.13, 0.101034
5951.96, 0.0992980
5958.8, 0.0988360
5965.65, 0.0991830
5972.53, 0.102770
5979.42, 0.108094
5986.32, 0.113996
5993.24, 0.121982
6000.18, 0.131241
6007.13, 0.138763
6014.1, 0.145823
6021.08, 0.153924
6028.09, 0.161100
6035.1, 0.166308
6042.14, 0.166886
6049.19, 0.168044
6056.25, 0.176723
6063.34, 0.181353
6070.44, 0.181816
6077.55, 0.184709
6084.69, 0.188412
6091.84, 0.189685
6099.0, 0.189223
6106.19, 0.186214
6113.39, 0.183089
6120.61, 0.184015
6127.84, 0.184130
6135.09, 0.181353
6142.36, 0.177649
6149.65, 0.173830
6156.95, 0.169317
6164.27, 0.166655
6171.61, 0.164919
6178.97, 0.158901
6186.34, 0.150336
6193.73, 0.142930
6201.14, 0.135754
6208.57, 0.132514
6216.01, 0.133440
6223.47, 0.134365
6230.95, 0.132745
6238.45, 0.130778
6245.97, 0.130546
6253.5, 0.131472
6261.06, 0.134828
6268.63, 0.141078
6276.21, 0.147212
6283.82, 0.151031
6291.45, 0.152998
6299.1, 0.153924
6306.76, 0.153693
6314.44, 0.153230
6322.14, 0.152304
6329.86, 0.150799
6337.6, 0.147443
6345.35, 0.145707
6353.13, 0.147906
6360.92, 0.148253
6368.74, 0.146517
6376.57, 0.145591
6384.43, 0.143624
6392.3, 0.139689
6400.19, 0.133787
6408.1, 0.124181
6416.03, 0.117237
6423.98, 0.116427
6431.95, 0.116543
6439.94, 0.117121
6447.95, 0.117353
6455.98, 0.117353
6464.03, 0.117353
6472.1, 0.117584
6480.19, 0.119204
6488.31, 0.121288
6496.44, 0.126496
6504.59, 0.134018
6512.76, 0.137490
6520.95, 0.138763
6529.16, 0.141425
6537.4, 0.142814
6545.65, 0.142814
6553.92, 0.142119
6562.22, 0.141541
6570.54, 0.139921
6578.88, 0.140615
6587.23, 0.141309
6595.61, 0.141309
6604.02, 0.141309
6612.44, 0.140268
6620.89, 0.138763
6629.35, 0.135291
6637.84, 0.132514
6646.35, 0.134018
6654.88, 0.134481
6663.44, 0.132629
6672.01, 0.130199
6680.61, 0.128000
6689.23, 0.127769
6697.88, 0.127074
6706.54, 0.124644
6715.23, 0.122792
6723.94, 0.121519
6732.67, 0.120362
6741.42, 0.118626
6750.2, 0.116311
6759.0, 0.114228
6767.82, 0.111335
6776.67, 0.107747
6785.54, 0.103465
6794.44, 0.100456
6803.35, 0.0998770
6812.29, 0.0997610
6821.26, 0.0987200
6830.24, 0.0980250
6839.25, 0.0974470
6848.29, 0.0954790
6857.35, 0.0923550
6866.43, 0.0908500
6875.54, 0.0918920
6884.67, 0.0917760
6893.82, 0.0913130
6903.0, 0.0907340
6912.2, 0.0908500
6921.43, 0.0915440
6930.69, 0.0923550
6939.96, 0.0929330
6949.27, 0.0931650
6958.59, 0.0933960
6967.95, 0.0953640
6977.33, 0.0972150
6986.73, 0.0984880
6996.16, 0.0996460
7005.61, 0.100571
7015.09, 0.101034
7024.6, 0.102655
7034.13, 0.104506
7043.69, 0.105432
7053.27, 0.107284
7062.88, 0.109367
7072.52, 0.110524
7082.18, 0.111219
7091.87, 0.111798
7101.58, 0.112029
7111.32, 0.111798
7121.09, 0.111798
7130.88, 0.111798
7140.71, 0.111219
7150.56, 0.110524
7160.43, 0.110293
7170.33, 0.110177
7180.27, 0.110640
7190.23, 0.110409
7200.21, 0.109367
7210.23, 0.109020
7220.27, 0.109020
7230.34, 0.108557
7240.44, 0.107863
7250.56, 0.107168
7260.72, 0.106474
7270.9, 0.105548
7281.12, 0.104854
7291.36, 0.104043
7301.63, 0.103118
7311.93, 0.101729
7322.25, 0.100224
7332.61, 0.0981410
7343.0, 0.0962890
7353.41, 0.0946690
7363.86, 0.0928170
7374.33, 0.0908500
7384.83, 0.0887670
7395.37, 0.0865680
7405.93, 0.0847160
7416.53, 0.0830960
7427.15, 0.0812440
7437.81, 0.0796240
7448.5, 0.0783510
7459.22, 0.0767310
7469.96, 0.0751100
7480.74, 0.0738370
7491.55, 0.0725640
7502.39, 0.0712910
7513.27, 0.0697870
7524.17, 0.0680510
7535.11, 0.0661990
7546.08, 0.0641160
7557.08, 0.0620330
7568.11, 0.0597180
7579.17, 0.0574030
7590.27, 0.0550890
7601.4, 0.0528900
7612.56, 0.0506910
7623.76, 0.0486080
7634.98, 0.0465240
7646.24, 0.0444410
7657.54, 0.0420110
7668.87, 0.0398120
7680.23, 0.0373820
7691.62, 0.0349510
7703.05, 0.0326370
7714.51, 0.0305530
7726.01, 0.0283540
7737.54, 0.0265030
7749.11, 0.0244200
7760.71, 0.0225680
7772.35, 0.0210630
7784.02, 0.0195590
7795.72, 0.0181700
7807.46, 0.0166650
7819.23, 0.0152770
7831.04, 0.0141190
7842.89, 0.0129620
7854.77, 0.0118050
7866.69, 0.0107630
7878.65, 0.00983700
7890.64, 0.00879600
7902.67, 0.00810100
7914.74, 0.00740700
7926.84, 0.00671200
7938.98, 0.00613400
7951.16, 0.00601800
7963.37, 0.00590200
7975.62, 0.00590200
7987.91, 0.00590200
8000.24, 0.00590200
8012.6, 0.00625000
8025.01, 0.00706000
8037.45, 0.00787000
8049.93, 0.00902700
8062.45, 0.0106470
8075.01, 0.0126150
8087.61, 0.0149290
8100.24, 0.0180540
8112.91, 0.0217580
8125.63, 0.0263870
8138.39, 0.0319420
8151.18, 0.0383070
8164.02, 0.0454830
8176.9, 0.0540470
8189.81, 0.0634210
8202.77, 0.0736060
8215.77, 0.0842530
8228.82, 0.0943220
8241.9, 0.102770
8255.02, 0.108904
8268.19, 0.111335
8281.39, 0.109714
8294.65, 0.107631
8307.94, 0.108904
8321.28, 0.114112
8334.66, 0.121982
8348.08, 0.131472
8361.54, 0.141888
8375.05, 0.152998
8388.6, 0.165266
8402.2, 0.178575
8415.84, 0.192926
8429.52, 0.207161
8443.25, 0.221049
8457.02, 0.234242
8470.84, 0.246163
8484.7, 0.256463
8498.61, 0.263986
8512.57, 0.267805
8526.57, 0.268615
8540.62, 0.270120
8554.71, 0.278799
8568.85, 0.295696
8583.04, 0.313056
8597.27, 0.326944
8611.55, 0.343610
8625.88, 0.362705
8640.26, 0.376478
8654.68, 0.384695
8669.16, 0.390018
8683.68, 0.394300
8698.25, 0.398120
8712.87, 0.401360
8727.53, 0.402980
8742.25, 0.402170
8757.02, 0.399508
8771.83, 0.394879
8786.7, 0.382264
8801.62, 0.357729
8816.59, 0.328564
8831.61, 0.311089
8846.68, 0.318727
8861.8, 0.348933
8876.97, 0.377056
8892.2, 0.382611
8907.48, 0.365020
8922.81, 0.338286
8938.2, 0.316065
8953.63, 0.301830
8969.13, 0.294308
8984.67, 0.291299
9000.27, 0.289447
9015.92, 0.287016
9031.63, 0.282850
9047.39, 0.276601
9063.21, 0.268615
9079.08, 0.260514
9095.01, 0.252875
9111.0, 0.245353
9127.04, 0.237714
9143.13, 0.229613
9159.28, 0.220818
9175.49, 0.210749
9191.76, 0.200449
9208.09, 0.192347
9224.47, 0.186445
9240.92, 0.181931
9257.42, 0.179501
9273.98, 0.179038
9290.6, 0.179964
9307.28, 0.181816
9324.02, 0.184246
9340.82, 0.187718
9357.68, 0.191537
9374.6, 0.194893
9391.58, 0.197671
9408.62, 0.199986
9425.73, 0.201259
9442.9, 0.201606
9460.13, 0.202185
9477.42, 0.202763
9494.78, 0.202763
9512.2, 0.202648
9529.69, 0.202763
9547.24, 0.202995
9564.86, 0.202995
9582.54, 0.202995
9600.28, 0.202995
9618.1, 0.202995
9635.97, 0.202879
9653.92, 0.203110
9671.93, 0.203921
9690.01, 0.204846
9708.16, 0.205657
9726.37, 0.206467
9744.65, 0.207161
9763.0, 0.207624
9781.43, 0.207971
9799.92, 0.208666
9818.48, 0.209013
9837.1, 0.209244
9855.8, 0.209476
9874.58, 0.209129
9893.42, 0.207393
9912.34, 0.204846
9931.33, 0.199870
9950.39, 0.187718
9969.52, 0.169895
9988.74, 0.166076
10008.0, 0.179501
10027.4, 0.191306
10046.8, 0.196282
10066.3, 0.196861
10085.9, 0.195588
10105.6, 0.193620
10125.3, 0.189917
10145.1, 0.181816
10165.0, 0.169895
10185.0, 0.165845
10205.0, 0.178922
10225.2, 0.192810
10245.4, 0.199176
10265.7, 0.201953
10286.0, 0.203689
10306.5, 0.204615
10327.0, 0.203805
10347.6, 0.203110
10368.3, 0.204962
10389.1, 0.207855
10409.9, 0.210054
10430.9, 0.211443
10451.9, 0.212369
10473.0, 0.212716
10494.2, 0.212948
10515.5, 0.213063
10536.9, 0.213411
10558.4, 0.214105
10579.9, 0.214452
10601.5, 0.214221
10623.3, 0.213758
10645.1, 0.213295
10667.0, 0.212832
10689.0, 0.211790
10711.1, 0.211443
10733.2, 0.211559
10755.5, 0.211790
10777.9, 0.212253
10800.3, 0.213411
10822.9, 0.214568
10845.5, 0.215610
10868.2, 0.216883
10891.1, 0.217808
10914.0, 0.218271
10937.0, 0.218040
10960.2, 0.218271
10983.4, 0.218387
11006.7, 0.217924
11030.1, 0.217577
11053.6, 0.217461
11077.3, 0.217693
11101.0, 0.217577
11124.8, 0.217577
11148.7, 0.217230
11172.7, 0.216420
11196.9, 0.215725
11221.1, 0.214799
11245.4, 0.213526
11269.9, 0.212022
11294.4, 0.210980
11319.1, 0.210170
11343.9, 0.209129
11368.8, 0.207624
11393.7, 0.206119
11418.8, 0.204615
11444.0, 0.202763
11469.4, 0.200680
11494.8, 0.198597
11520.3, 0.196977
11546.0, 0.195588
11571.8, 0.194431
11597.7, 0.193389
11623.7, 0.192463
11649.8, 0.191884
11676.0, 0.191421
11702.4, 0.190727
11728.9, 0.190033
11755.5, 0.189107
11782.2, 0.188065
11809.0, 0.186676
11836.0, 0.184940
11863.0, 0.182973
11890.3, 0.180774
11917.6, 0.178691
11945.0, 0.176376
11972.6, 0.173599
12000.4, 0.170937
12028.2, 0.168506
12056.2, 0.165960
12084.3, 0.163067
12112.5, 0.160174
12140.9, 0.157280
12169.4, 0.154040
12198.0, 0.150452
12226.8, 0.146980
12255.7, 0.143740
12284.7, 0.140499
12313.9, 0.137027
12343.2, 0.133787
12372.7, 0.130662
12402.3, 0.127769
12432.0, 0.124991
12461.9, 0.122098
12491.9, 0.119089
12522.1, 0.116543
12552.4, 0.114112
12582.9, 0.111335
12613.5, 0.108326
12644.3, 0.105548
12675.2, 0.103233
12706.3, 0.100803
12737.5, 0.0983730
12768.9, 0.0959420
12800.4, 0.0931650
12832.1, 0.0902710
12863.9, 0.0871470
12895.9, 0.0841370
12928.1, 0.0807810
12960.4, 0.0777720
12992.9, 0.0747630
13025.5, 0.0715230
13058.3, 0.0693240
13091.3, 0.0674720
13124.4, 0.0657360
13157.8, 0.0644630
13191.2, 0.0648100
13224.9, 0.0653890
13258.7, 0.0659670
13292.7, 0.0674720
13326.9, 0.0690920
13361.2, 0.0702500
13395.7, 0.0717540
13430.4, 0.0740690
13465.3, 0.0762680
13500.4, 0.0775410
13535.7, 0.0785820
13571.1, 0.0800870
13606.7, 0.0821700
13642.5, 0.0835590
13678.5, 0.0849480
13714.7, 0.0861050
13751.1, 0.0865680
13787.6, 0.0864520
13824.4, 0.0864520
13861.4, 0.0862210
13898.5, 0.0858730
13935.9, 0.0851790
13973.5, 0.0842530
14011.2, 0.0835590
14049.2, 0.0824010
14087.4, 0.0807810
14125.8, 0.0795080
14164.3, 0.0781190
14203.2, 0.0760360
14242.2, 0.0741840
14281.4, 0.0727960
14320.9, 0.0715230
14360.5, 0.0703650
14400.4, 0.0688610
14440.5, 0.0674720
14480.9, 0.0655050
14521.4, 0.0626110
14562.2, 0.0600650
14603.3, 0.0572880
14644.5, 0.0540470
14686.0, 0.0506910
14727.7, 0.0469870
14769.7, 0.0432840
14811.9, 0.0398120
14854.3, 0.0376130
14897.0, 0.0368030
14939.9, 0.0400430
14983.1, 0.0509220
15026.5, 0.0694390
15070.2, 0.0906190
15114.2, 0.107747
15158.3, 0.114922
15202.8, 0.110756
15247.5, 0.0982570
15292.5, 0.0886510
15337.7, 0.0866840
15383.2, 0.0837900
15429.0, 0.0746470
15475.1, 0.0670090
15521.4, 0.0679350
15568.0, 0.0732590
15614.9, 0.0776560
15662.1, 0.0811280
15709.6, 0.0857580
15757.3, 0.0975620
15805.4, 0.114807
15853.7, 0.129157
15902.3, 0.141657
15951.2, 0.154966
16000.5, 0.157512
16050.0, 0.157975
16099.8, 0.157165
16150.0, 0.152304
16200.5, 0.145939
16251.3, 0.132745
16302.4, 0.123371
16353.8, 0.120825
16405.5, 0.123718
16457.6, 0.128116
16510.0, 0.131588
16562.8, 0.133440
16615.9, 0.136911
16669.3, 0.142004
16723.1, 0.146980
16777.2, 0.149526
16831.7, 0.149063
16886.5, 0.147443
16941.7, 0.145707
16997.2, 0.143508
17053.1, 0.142235
17109.4, 0.141888
17166.1, 0.142119
17223.1, 0.142235
17280.5, 0.143045
17338.3, 0.143971
17396.5, 0.145476
17455.1, 0.148369
17514.0, 0.151031
17573.4, 0.152188
17633.2, 0.153924
17693.4, 0.155197
17754.0, 0.157165
17815.0, 0.159711
17876.4, 0.161678
17938.3, 0.163530
18000.5, 0.165960
18063.3, 0.167812
18126.4, 0.169664
18190.0, 0.171747
18254.1, 0.174525
18318.6, 0.176955
18383.5, 0.178459
18449.0, 0.180080
18514.9, 0.181931
18581.2, 0.182394
18648.0, 0.182742
18715.4, 0.184015
18783.2, 0.184940
18851.5, 0.185288
18920.3, 0.187024
18989.6, 0.187371
19059.4, 0.187602
19129.7, 0.188528
19200.6, 0.189107
19272.0, 0.189107
19343.9, 0.188875
19416.3, 0.189107
19489.3, 0.186561
19562.8, 0.184478
19637.0, 0.185403
19711.6, 0.186329
19786.8, 0.188297
19862.6, 0.192232
19939.0, 0.196745
20016.0, 0.199638
20093.6, 0.201259
20171.8, 0.202532
20250.6, 0.203226
20330.0, 0.203458
20410.0, 0.202648
20490.7, 0.201143
20572.0, 0.200564
20654.0, 0.199986
20736.6, 0.195241
20819.9, 0.190959
20903.8, 0.186792
20988.5, 0.182626
21073.8, 0.182510
21159.8, 0.184709
21246.5, 0.184940
21334.0, 0.184593
21422.1, 0.183089
21511.0, 0.179385
21600.7, 0.175682
21691.0, 0.173483
21782.1, 0.169664
21874.0, 0.165150
21966.7, 0.160289
22060.2, 0.150336
22154.5, 0.133671
22249.6, 0.127074
22345.5, 0.129505
22442.2, 0.127074
22539.8, 0.115501
22638.2, 0.102076
22737.5, 0.0902710
22837.7, 0.0893320
22938.7, 0.114137
23040.7, 0.140306
23143.5, 0.152921
23247.3, 0.156075
23352.1, 0.156160
23457.7, 0.155180
23564.4, 0.153134
23672.0, 0.150662
23780.5, 0.148190
23890.1, 0.145207
24000.7, 0.141968
24112.3, 0.139155
24225.0, 0.137706
24338.7, 0.135404
24453.5, 0.132890
24569.4, 0.130375
24686.4, 0.127264
24804.5, 0.124749
24923.8, 0.122363
25044.2, 0.119592
25165.8, 0.116651
25288.6, 0.113711
25412.5, 0.110344
25537.7, 0.106636
25664.1, 0.103013
25791.8, 0.0996460
25920.8, 0.0965770
26051.1, 0.0931250
26182.6, 0.0892890
26315.5, 0.0858800
26449.8, 0.0829810
26585.4, 0.0797420
26722.5, 0.0759490
26860.9, 0.0727100
27000.8, 0.0700250
27142.1, 0.0671690
27285.0, 0.0642710
27429.4, 0.0609040
27575.3, 0.0578780
27722.7, 0.0553640
27871.8, 0.0529770
28022.4, 0.0506330
28174.7, 0.0482890
28328.7, 0.0456890
28484.4, 0.0427910
28641.7, 0.0408300
28800.9, 0.0396370
28961.8, 0.0377610
29124.5, 0.0359710
29289.0, 0.0344800
29455.4, 0.0323910
29623.8, 0.0306010
29794.0, 0.0293230
29966.3, 0.0277460
30140.5, 0.0263390
30316.7, 0.0255720
30495.1, 0.0247200
30675.5, 0.0235260
30858.1, 0.0221200
31042.8, 0.0206280
31229.8, 0.0199890
31419.1, 0.0201170
31610.7, 0.0199040
31804.6, 0.0196910
32000.9, 0.0194770
32199.7, 0.0187960
32400.9, 0.0193070
32604.8, 0.0196480
32811.1, 0.0190090
33020.1, 0.0195630
33231.8, 0.0205860
33446.2, 0.0202450
33663.4, 0.0202450
33883.4, 0.0207990
34106.3, 0.0207560
34332.1, 0.0197330
34561.0, 0.0193070
34792.9, 0.0194350
35028.0, 0.0199040
35266.3, 0.0208840
35507.8, 0.0223330
35752.7, 0.0234410
36001.0, 0.0248050
36252.8, 0.0271490
36508.1, 0.0294510
36767.0, 0.0313680
37029.7, 0.0335850
37296.1, 0.0358010
37566.3, 0.0379320
37840.5, 0.0392110
38118.8, 0.0408300
38401.2, 0.0421940
38687.8, 0.0431320
38978.6, 0.0439840
39273.9, 0.0450070
39573.7, 0.0455610
39878.1, 0.0455610
40187.3, 0.0451350
40501.2, 0.0454330
40820.0, 0.0454330
41144.0, 0.0451770
41473.2, 0.0456040
41807.6, 0.0459870
42147.5, 0.0458170
42493.0, 0.0461150
42844.2, 0.0468820
43201.2, 0.0476920
43564.3, 0.0469250
43933.5, 0.0467120
44309.0, 0.0481610
44691.0, 0.0506750
45079.6, 0.0527210
45475.0, 0.0547240
45877.5, 0.0566420
46287.1, 0.0580060
46704.2, 0.0608190
47128.7, 0.0641010
47561.1, 0.0661470
48001.5, 0.0677660
48450.1, 0.0678940
48907.2, 0.0681920
49373.0, 0.0685330
49847.7, 0.0671270
50331.5, 0.0669990
50825.0, 0.0673400
51328.2, 0.0667430
51841.5, 0.0674680
52365.1, 0.0711330
52899.4, 0.0742020
53444.8, 0.0779950
54001.5, 0.0824270
54570.1, 0.0855390
55150.6, 0.0887780
55743.6, 0.0922300
56349.5, 0.0944040
56968.7, 0.0956820
57601.7, 0.0966200
58248.9, 0.0987080
58910.9, 0.101266
59588.1, 0.102374
60281.0, 0.102416
60990.2, 0.100115
61716.3, 0.0967480
62459.8, 0.0939350
63221.6, 0.0892470
64002.1, 0.0851130
64802.1, 0.0871580
65622.1, 0.0902270
66463.4, 0.0901420
67326.6, 0.0877980
68212.4, 0.0857090
69121.9, 0.0819160
70056.0, 0.0777390
71015.7, 0.0757360
72002.0, 0.0720280
73016.3, 0.0689590
74059.4, 0.0655500
75132.7, 0.0623960
76237.6, 0.0613300
77375.5, 0.0589860
78547.9, 0.0542550
79756.3, 0.0532330
81002.5, 0.0566000
82288.5, 0.0586030
83615.7, 0.0591140
84986.5, 0.0564720
86402.9, 0.0554060
87867.4, 0.0580910
89382.4, 0.0605630
90950.5, 0.0630350
92574.6, 0.0685330
94257.2, 0.0778240
96002.7, 0.0819590
97814.1, 0.0827680
99695.1, 0.0841320
101650.0, 0.0848140
103683.0, 0.0848140
105799.0, 0.0856670
108003.0, 0.0864760
110301.0, 0.0868600
112699.0, 0.0867750
115204.0, 0.0874570
117822.0, 0.0839190
120562.0, 0.0775260
123433.0, 0.0687460
126443.0, 0.0616710
129604.0, 0.0577080
132926.0, 0.0572820
136424.0, 0.0675530
140111.0, 0.0807650
144003.0, 0.0875420
148118.0, 0.0940200
152474.0, 0.0909940
157095.0, 0.0871160
162004.0, 0.0914630
167231.0, 0.0895450
172805.0, 0.0872440
178764.0, 0.0903120
185148.0, 0.0944460
192005.0, 0.117845
199390.0, 0.139581
207366.0, 0.0964920
216006.0, 0.0619270
