Database of Origin, USGS Spectral Database
Sample Description, See USGS database for additional info
Date Added,2016-08-10 02:50:13.526946

Data ID,USGS_goe08          
Sample ID, goethite_ws220.8392
Mineral Name, goethite
Material Class,Hydroxide

Wavelength
221.1, 0.0196290
229.1, 0.0202860
236.1, 0.0185850
242.1, 0.0190030
248.1, 0.0186380
253.6, 0.0166590
258.6, 0.0170170
263.6, 0.0174080
268.6, 0.0179270
273.1, 0.0172370
277.1, 0.0172080
281.1, 0.0180800
285.1, 0.0167030
289.1, 0.0185280
293.1, 0.0194800
297.1, 0.0175490
301.1, 0.0201100
305.1, 0.0202030
309.1, 0.0192570
313.1, 0.0198330
317.1, 0.0200250
321.1, 0.0209470
325.1, 0.0193270
329.1, 0.0207230
333.1, 0.0194580
337.1, 0.0202030
341.1, 0.0197600
345.1, 0.0197150
349.1, 0.0205270
353.1, 0.0192630
357.1, 0.0207740
360.6, 0.0200250
363.6, 0.0215950
366.6, 0.0210060
369.6, 0.0221870
372.6, 0.0213710
375.6, 0.0209660
378.6, 0.0230270
381.1, 0.0224150
383.1, 0.0229990
385.1, 0.0235810
387.1, 0.0246260
389.1, 0.0248240
391.1, 0.0245200
393.1, 0.0236640
395.1, 0.0233920
397.1, 0.0232310
399.1, 0.0252540
401.1, 0.0278800
403.1, 0.0256620
405.1, 0.0266780
407.1, 0.0270780
409.1, 0.0282820
411.1, 0.0294180
412.8, 0.0282470
415.8, 0.0301550
418.8, 0.0303320
421.8, 0.0293060
424.8, 0.0298780
427.8, 0.0328640
430.8, 0.0327680
433.8, 0.0334890
436.8, 0.0368780
439.8, 0.0383570
442.8, 0.0381580
445.8, 0.0400680
448.8, 0.0402570
451.3, 0.0411470
453.3, 0.0387330
455.3, 0.0394350
457.3, 0.0403870
459.3, 0.0426040
461.3, 0.0438580
463.3, 0.0433170
465.3, 0.0418110
467.3, 0.0424820
469.3, 0.0427950
471.3, 0.0448770
473.3, 0.0443150
475.3, 0.0445020
477.3, 0.0457750
479.3, 0.0445670
481.3, 0.0469630
483.3, 0.0462270
485.3, 0.0459070
487.3, 0.0480850
489.3, 0.0468650
491.3, 0.0482450
493.3, 0.0497090
495.3, 0.0500050
497.3, 0.0495720
499.3, 0.0501890
501.3, 0.0515350
503.3, 0.0528630
505.3, 0.0559520
507.3, 0.0530010
509.3, 0.0553580
511.3, 0.0565740
513.3, 0.0565100
515.3, 0.0591900
517.3, 0.0606790
519.3, 0.0618350
521.3, 0.0655660
523.3, 0.0650970
525.3, 0.0664230
527.3, 0.0670140
529.3, 0.0673010
531.3, 0.0716630
533.3, 0.0727870
535.3, 0.0760540
537.3, 0.0772230
539.3, 0.0805990
541.3, 0.0763990
543.3, 0.0841850
545.3, 0.0859070
547.3, 0.0874540
549.3, 0.0912050
551.3, 0.0960640
553.3, 0.0965780
555.3, 0.0987160
557.3, 0.102008
559.3, 0.106068
561.3, 0.110830
563.3, 0.111787
565.3, 0.117496
567.3, 0.118867
569.3, 0.125405
571.3, 0.126076
573.3, 0.132868
575.3, 0.134333
577.3, 0.139986
579.3, 0.144605
581.3, 0.146318
583.3, 0.151102
585.3, 0.156210
587.3, 0.159859
589.3, 0.158611
591.3, 0.167099
593.3, 0.169016
595.3, 0.173158
597.3, 0.174209
599.3, 0.177360
601.1, 0.181864
602.7, 0.184847
604.3, 0.185730
605.9, 0.188808
607.5, 0.189678
609.1, 0.191154
610.7, 0.193841
612.3, 0.195788
613.9, 0.197121
615.5, 0.198905
617.1, 0.200292
618.7, 0.201730
620.3, 0.202944
621.9, 0.202996
623.5, 0.204545
625.1, 0.205254
626.7, 0.205931
628.3, 0.207148
629.9, 0.208802
631.7, 0.210147
633.7, 0.210070
635.7, 0.214650
637.7, 0.215119
639.7, 0.214854
641.7, 0.217236
643.7, 0.217004
645.7, 0.221250
647.7, 0.220648
649.7, 0.222303
651.7, 0.222715
653.7, 0.225252
655.7, 0.225476
657.7, 0.227590
659.7, 0.228376
661.7, 0.228365
663.7, 0.230375
665.7, 0.231693
667.7, 0.234405
670.2, 0.235502
673.2, 0.237572
676.2, 0.242522
679.2, 0.243384
682.2, 0.245349
685.2, 0.248285
688.2, 0.250986
691.2, 0.253651
694.2, 0.258457
697.2, 0.259483
700.2, 0.263866
702.0, 0.265839
704.0, 0.266825
706.0, 0.267586
708.0, 0.268699
710.0, 0.273251
712.0, 0.274606
714.0, 0.276539
716.0, 0.278881
718.0, 0.282314
720.0, 0.282576
722.0, 0.284378
724.0, 0.285443
726.0, 0.287216
728.0, 0.288586
730.0, 0.292173
732.0, 0.293361
734.0, 0.295627
736.0, 0.298040
738.0, 0.297592
740.0, 0.296906
742.0, 0.299626
744.0, 0.301208
746.0, 0.301289
748.0, 0.300413
750.5, 0.302517
753.5, 0.301732
756.5, 0.302671
759.5, 0.302634
762.5, 0.302432
765.5, 0.300761
768.5, 0.299877
771.5, 0.298237
774.5, 0.295892
777.5, 0.297640
781.0, 0.291616
785.0, 0.291669
789.0, 0.289709
793.0, 0.286946
797.0, 0.284993
801.5, 0.281190
806.5, 0.276838
811.5, 0.274180
816.5, 0.270655
822.0, 0.266742
828.0, 0.263772
835.0, 0.258704
843.0, 0.256214
851.0, 0.250729
859.0, 0.248970
871.0, 0.251440
883.0, 0.244986
894.0, 0.246713
904.0, 0.245425
914.0, 0.248446
924.0, 0.254270
933.0, 0.256769
941.0, 0.259034
949.0, 0.259112
957.0, 0.265061
964.0, 0.270506
970.0, 0.270116
976.0, 0.275314
982.0, 0.276110
988.0, 0.280653
994.0, 0.284097
1000.0, 0.284796
1006.0, 0.292986
1012.0, 0.295883
1018.0, 0.299224
1023.5, 0.300594
1028.5, 0.304951
1033.5, 0.312524
1038.5, 0.314167
1043.5, 0.320430
1048.5, 0.324957
1053.5, 0.325898
1058.5, 0.329653
1063.5, 0.339391
1068.5, 0.342837
1073.5, 0.349754
1078.5, 0.353692
1083.5, 0.359111
1088.5, 0.365407
1093.5, 0.371232
1098.5, 0.379410
1103.5, 0.384416
1108.5, 0.390666
1113.5, 0.399876
1118.5, 0.406407
1123.5, 0.414522
1128.5, 0.422908
1133.5, 0.431602
1138.5, 0.438842
1143.5, 0.445661
1148.5, 0.455584
1153.5, 0.466806
1158.5, 0.474315
1163.5, 0.483222
1168.5, 0.490545
1173.5, 0.500187
1178.5, 0.512399
1183.5, 0.518588
1188.5, 0.530143
1193.5, 0.535378
1198.5, 0.545971
1203.5, 0.559503
1208.5, 0.565308
1213.5, 0.573081
1218.5, 0.579256
1223.5, 0.586840
1228.5, 0.595547
1233.5, 0.605834
1238.5, 0.610737
1243.5, 0.619066
1248.5, 0.626149
1253.5, 0.635051
1258.5, 0.640219
1263.5, 0.647628
1268.5, 0.650422
1273.5, 0.657300
1278.5, 0.665137
1283.5, 0.668917
1288.5, 0.673273
1293.5, 0.677340
1298.5, 0.681540
1303.5, 0.686364
1308.5, 0.689719
1313.5, 0.694773
1318.5, 0.696504
1323.5, 0.700854
1328.5, 0.705200
1333.5, 0.706677
1338.5, 0.708162
1343.5, 0.710439
1348.5, 0.709803
1353.5, 0.711431
1358.5, 0.711394
1363.5, 0.713381
1368.5, 0.718316
1373.5, 0.717884
1378.5, 0.721265
1383.5, 0.718032
1388.5, 0.718616
1393.5, 0.714696
1398.5, 0.707812
1403.5, 0.707496
1408.5, 0.692829
1413.5, 0.690177
1418.5, 0.690043
1423.5, 0.689261
1428.5, 0.686208
1433.5, 0.685804
1438.5, 0.685508
1443.5, 0.684705
1448.5, 0.687516
1453.5, 0.685690
1458.5, 0.686296
1463.5, 0.689152
1468.5, 0.687365
1473.5, 0.689539
1478.5, 0.692484
1483.5, 0.695952
1488.5, 0.696274
1493.5, 0.699768
1498.5, 0.696983
1503.5, 0.700901
1508.5, 0.699773
1513.5, 0.702561
1518.5, 0.701911
1523.5, 0.706529
1528.5, 0.704982
1534.0, 0.705711
1540.0, 0.708658
1546.0, 0.707490
1552.0, 0.708615
1558.0, 0.709472
1564.0, 0.709666
1570.5, 0.710609
1577.5, 0.707939
1584.5, 0.706392
1591.5, 0.703975
1598.5, 0.703951
1605.5, 0.697345
1612.5, 0.698192
1619.5, 0.693603
1626.5, 0.690667
1633.5, 0.685634
1640.5, 0.687516
1647.5, 0.682639
1654.5, 0.681088
1661.5, 0.681761
1668.5, 0.677210
1676.0, 0.673755
1684.0, 0.678892
1692.0, 0.672327
1700.0, 0.676336
1708.0, 0.674289
1716.0, 0.669881
1724.0, 0.672738
1732.0, 0.671046
1740.0, 0.668841
1748.0, 0.662076
1756.0, 0.665327
1764.0, 0.658896
1772.0, 0.663400
1780.0, 0.661465
1788.0, 0.656285
1796.0, 0.656561
1805.0, 0.657329
1815.0, 0.655509
1825.0, 0.657462
1835.0, 0.660253
1845.0, 0.655414
1855.0, 0.654559
1865.0, 0.647808
1875.0, 0.642331
1885.0, 0.631666
1895.0, 0.612462
1905.0, 0.592318
1915.0, 0.579941
1925.0, 0.569658
1935.0, 0.565911
1945.0, 0.566027
1955.0, 0.565053
1965.0, 0.570547
1975.0, 0.575395
1985.0, 0.576217
1995.0, 0.584367
2005.0, 0.586713
2015.0, 0.591771
2025.0, 0.596756
2035.0, 0.599413
2045.0, 0.608889
2055.0, 0.616155
2065.0, 0.615980
2075.0, 0.623670
2085.0, 0.619342
2095.0, 0.629252
2105.0, 0.624006
2115.0, 0.631368
2125.0, 0.629687
2135.0, 0.631723
2145.0, 0.629983
2155.0, 0.623136
2165.0, 0.626773
2175.0, 0.623952
2185.0, 0.619368
2195.0, 0.611084
2205.0, 0.603506
2215.0, 0.598573
2225.0, 0.594553
2235.0, 0.588363
2245.0, 0.583715
2255.0, 0.574499
2265.0, 0.569599
2275.0, 0.565535
2285.0, 0.563364
2295.0, 0.554962
2305.0, 0.543419
2315.0, 0.534066
2325.0, 0.531439
2335.0, 0.526763
2345.0, 0.521668
2355.0, 0.516205
2365.0, 0.509866
2375.0, 0.501376
2386.0, 0.493748
2400.0, 0.486176
2418.0, 0.478539
2440.0, 0.473598
2466.0, 0.471169
2496.0, 0.465448
2528.0, 0.461389
2560.0, 0.457821
2592.0, 0.448409
2624.0, 0.434561
2656.0, 0.408862
2688.0, 0.353877
2720.0, 0.282746
2752.0, 0.164695
2784.0, 0.142199
2816.0, 0.107748
2848.0, 0.0869820
2880.0, 0.0876350
2912.0, 0.0752200
2944.0, 0.0784790
2976.0, 0.0743750
