Database of Origin,USGS Spectral Database
Sample Description,See USGS database for additional info
Date Added,2017-02-22 02:49:13.841354

Data ID,USGS_top21          
Sample ID,topaz_4.22621
Mineral Name,topaz

Wavelength
1383.55, 0.876741
1383.92, 0.876063
1384.29, 0.875273
1384.66, 0.874595
1385.03, 0.874143
1385.4, 0.873634
1385.77, 0.872956
1386.14, 0.872787
1386.51, 0.872222
1386.88, 0.871940
1387.25, 0.871488
1387.62, 0.870358
1387.99, 0.869398
1388.36, 0.868324
1388.74, 0.868042
1389.11, 0.867364
1389.48, 0.866177
1389.85, 0.865669
1390.23, 0.864765
1390.6, 0.863353
1390.97, 0.863579
1391.35, 0.862901
1391.72, 0.861828
1392.09, 0.861206
1392.47, 0.861319
1392.84, 0.860415
1393.21, 0.859116
1393.59, 0.858495
1393.96, 0.857704
1394.34, 0.856518
1394.71, 0.855388
1395.09, 0.853806
1395.46, 0.853128
1395.84, 0.852450
1396.22, 0.850868
1396.59, 0.849513
1396.97, 0.849061
1397.35, 0.847987
1397.72, 0.846406
1398.1, 0.844316
1398.48, 0.842225
1398.85, 0.840022
1399.23, 0.837311
1399.61, 0.834373
1399.99, 0.830362
1400.37, 0.825504
1400.74, 0.820024
1401.12, 0.814036
1401.5, 0.806353
1401.88, 0.797032
1402.26, 0.786921
1402.64, 0.775905
1403.02, 0.763929
1403.4, 0.753195
1403.78, 0.745174
1404.16, 0.741671
1404.54, 0.743140
1404.92, 0.749580
1405.3, 0.758110
1405.68, 0.767488
1406.06, 0.776583
1406.44, 0.784943
1406.83, 0.791948
1407.21, 0.797541
1407.59, 0.801382
1407.97, 0.804489
1408.35, 0.807314
1408.74, 0.809517
1409.12, 0.810647
1409.5, 0.811777
1409.89, 0.813245
1410.27, 0.814884
1410.65, 0.816126
1411.04, 0.817708
1411.42, 0.818838
1411.81, 0.819629
1412.19, 0.820759
1412.58, 0.821606
1412.96, 0.821945
1413.35, 0.822510
1413.73, 0.822736
1414.12, 0.822736
1414.5, 0.822962
1414.89, 0.823075
1415.28, 0.823018
1415.66, 0.822905
1416.05, 0.822623
1416.44, 0.822002
1416.82, 0.822227
1417.21, 0.822058
1417.6, 0.821719
1417.98, 0.821493
1418.37, 0.820815
1418.76, 0.820081
1419.15, 0.819855
1419.54, 0.819459
1419.93, 0.819403
1420.32, 0.818951
1420.71, 0.818612
1421.09, 0.818273
1421.48, 0.817765
1421.88, 0.816917
1422.27, 0.816409
1422.66, 0.816465
1423.05, 0.816239
1423.44, 0.816183
1423.83, 0.815449
1424.22, 0.814884
1424.61, 0.814827
1425.0, 0.813923
1425.39, 0.813358
1425.78, 0.813358
1426.18, 0.812906
1426.57, 0.812737
1426.96, 0.812963
1427.36, 0.812511
1427.75, 0.811777
1428.14, 0.811042
1428.54, 0.810816
1428.93, 0.810816
1429.32, 0.810703
1429.72, 0.809799
1430.11, 0.809178
1430.51, 0.809065
1430.9, 0.808952
1431.3, 0.808839
1431.69, 0.808274
1432.09, 0.807540
1432.48, 0.806918
1432.88, 0.806128
1433.28, 0.805676
1433.67, 0.805676
1434.07, 0.805619
1434.46, 0.805224
1434.86, 0.804941
1435.26, 0.804772
1435.66, 0.804376
1436.05, 0.803586
1436.45, 0.803077
1436.85, 0.803077
1437.25, 0.802512
1437.65, 0.802343
1438.05, 0.802117
1438.44, 0.801665
1438.84, 0.801665
1439.24, 0.801043
1439.64, 0.800535
1440.04, 0.800026
1440.44, 0.799631
1440.84, 0.799801
1441.24, 0.799462
1441.65, 0.799010
1442.05, 0.798727
1442.45, 0.798784
1442.85, 0.798388
1443.25, 0.797597
1443.65, 0.797710
1444.05, 0.797654
1444.46, 0.797371
1444.86, 0.797484
1445.26, 0.796976
1445.67, 0.796637
1446.07, 0.796355
1446.47, 0.796185
1446.88, 0.795677
1447.28, 0.795507
1447.68, 0.795338
1448.09, 0.794886
1448.49, 0.794377
1448.9, 0.794660
1449.3, 0.794377
1449.71, 0.794038
1450.11, 0.793474
1450.52, 0.793248
1450.93, 0.793248
1451.33, 0.792909
1451.74, 0.792909
1452.14, 0.792739
1452.55, 0.792626
1452.96, 0.792174
1453.36, 0.791383
1453.77, 0.791270
1454.18, 0.790875
1454.59, 0.790367
1455.0, 0.790084
1455.41, 0.790141
1455.81, 0.790141
1456.22, 0.790027
1456.63, 0.789802
1457.04, 0.789519
1457.45, 0.789350
1457.86, 0.789350
1458.27, 0.789067
1458.68, 0.788276
1459.09, 0.788050
1459.5, 0.787937
1459.91, 0.787881
1460.32, 0.787655
1460.74, 0.787316
1461.15, 0.787090
1461.56, 0.786977
1461.97, 0.786638
1462.39, 0.786356
1462.8, 0.786186
1463.21, 0.786017
1463.62, 0.785960
1464.04, 0.786130
1464.45, 0.785734
1464.86, 0.785452
1465.28, 0.785282
1465.69, 0.785000
1466.11, 0.784717
1466.52, 0.784887
1466.94, 0.784717
1467.35, 0.784209
1467.77, 0.784096
1468.18, 0.784265
1468.6, 0.783983
1469.02, 0.783757
1469.43, 0.783588
1469.85, 0.783475
1470.27, 0.783588
1470.68, 0.783192
1471.1, 0.783023
1471.52, 0.783079
1471.94, 0.782910
1472.35, 0.782740
1472.77, 0.782684
1473.19, 0.782627
1473.61, 0.782458
1474.03, 0.782401
1474.45, 0.782288
1474.87, 0.782175
1475.29, 0.782232
1475.71, 0.782288
1476.13, 0.781836
1476.55, 0.781610
1476.97, 0.781554
1477.39, 0.781723
1477.81, 0.781780
1478.23, 0.781610
1478.65, 0.781949
1479.07, 0.781949
1479.5, 0.781384
1479.92, 0.781102
1480.34, 0.781497
1480.76, 0.781384
1481.19, 0.781045
1481.61, 0.780820
1482.03, 0.781158
1482.46, 0.781441
1482.88, 0.781554
1483.31, 0.781497
1483.73, 0.781610
1484.16, 0.781441
1484.58, 0.781158
1485.01, 0.780876
1485.43, 0.780933
1485.86, 0.781384
1486.28, 0.781102
1486.71, 0.781215
1487.14, 0.781271
1487.56, 0.780933
1487.99, 0.781215
1488.42, 0.781497
1488.84, 0.781723
1489.27, 0.781667
1489.7, 0.781441
1490.13, 0.780989
1490.56, 0.780933
1490.98, 0.780820
1491.41, 0.781045
1491.84, 0.781328
1492.27, 0.781328
1492.7, 0.781102
1493.13, 0.781215
1493.56, 0.781384
1493.99, 0.781328
1494.42, 0.781441
1494.85, 0.781497
1495.29, 0.781384
1495.72, 0.781554
1496.15, 0.781554
1496.58, 0.781441
1497.01, 0.781441
1497.44, 0.781780
1497.88, 0.781610
1498.31, 0.781610
1498.74, 0.781780
1499.18, 0.781723
1499.61, 0.781723
1500.04, 0.781667
1500.48, 0.781949
1500.91, 0.782458
1501.35, 0.782571
1501.78, 0.782062
1502.22, 0.782119
1502.65, 0.782119
1503.09, 0.782345
1503.53, 0.782401
1503.96, 0.782288
1504.4, 0.782740
1504.83, 0.783192
1505.27, 0.783192
1505.71, 0.782740
1506.15, 0.782797
1506.58, 0.782797
1507.02, 0.782684
1507.46, 0.782740
1507.9, 0.782910
1508.34, 0.783023
1508.78, 0.782571
1509.21, 0.782797
1509.66, 0.783136
1510.09, 0.783249
1510.53, 0.783362
1510.97, 0.783588
1511.42, 0.783870
1511.86, 0.783814
1512.3, 0.783644
1512.74, 0.783983
1513.18, 0.784096
1513.62, 0.784040
1514.06, 0.784153
1514.51, 0.784265
1514.95, 0.784096
1515.39, 0.783983
1515.83, 0.784153
1516.28, 0.784265
1516.72, 0.784096
1517.16, 0.784379
1517.61, 0.784548
1518.05, 0.784491
1518.5, 0.784322
1518.94, 0.784661
1519.39, 0.784887
1519.83, 0.784943
1520.28, 0.784943
1520.73, 0.784830
1521.17, 0.784830
1521.62, 0.784717
1522.07, 0.784830
1522.51, 0.785056
1522.96, 0.785452
1523.41, 0.785452
1523.85, 0.785339
1524.3, 0.785565
1524.75, 0.785734
1525.2, 0.785791
1525.65, 0.785791
1526.1, 0.785847
1526.55, 0.785904
1527.0, 0.786073
1527.45, 0.785960
1527.9, 0.786638
1528.35, 0.786469
1528.8, 0.786525
1529.25, 0.786525
1529.7, 0.786695
1530.15, 0.786921
1530.6, 0.786977
1531.05, 0.787147
1531.51, 0.787259
1531.96, 0.787316
1532.41, 0.787316
1532.87, 0.787542
1533.32, 0.787655
1533.77, 0.787655
1534.23, 0.788107
1534.68, 0.787994
1535.14, 0.788050
1535.59, 0.787937
1536.05, 0.788333
1536.5, 0.788559
1536.96, 0.788615
1537.41, 0.788954
1537.87, 0.789406
1538.32, 0.789519
1538.78, 0.789632
1539.24, 0.789576
1539.7, 0.789632
1540.15, 0.789971
1540.61, 0.790084
1541.07, 0.790141
1541.53, 0.790592
1541.98, 0.790875
1542.44, 0.790819
1542.9, 0.790762
1543.36, 0.791044
1543.82, 0.791214
1544.28, 0.791609
1544.74, 0.791892
1545.2, 0.791948
1545.66, 0.792061
1546.12, 0.792174
1546.59, 0.792287
1547.05, 0.792344
1547.51, 0.792683
1547.97, 0.792796
1548.43, 0.793135
1548.9, 0.793417
1549.36, 0.793586
1549.82, 0.793756
1550.29, 0.793643
1550.75, 0.793869
1551.21, 0.794377
1551.68, 0.794773
1552.14, 0.794829
1552.61, 0.794773
1553.07, 0.794999
1553.54, 0.795451
1554.0, 0.795959
1554.47, 0.795846
1554.93, 0.795903
1555.4, 0.796072
1555.87, 0.796355
1556.34, 0.796694
1556.8, 0.796919
1557.27, 0.797145
1557.74, 0.797258
1558.21, 0.797315
1558.68, 0.797597
1559.14, 0.797767
1559.61, 0.797823
1560.08, 0.797993
1560.55, 0.798275
1561.02, 0.798614
1561.49, 0.798671
1561.96, 0.798897
1562.43, 0.799462
1562.9, 0.799631
1563.38, 0.799518
1563.85, 0.799688
1564.32, 0.799857
1564.79, 0.800083
1565.26, 0.800196
1565.74, 0.800252
1566.21, 0.800591
1566.68, 0.800478
1567.16, 0.800535
1567.63, 0.800987
1568.1, 0.801156
1568.58, 0.801213
1569.05, 0.801382
1569.53, 0.801778
1570.0, 0.801891
1570.48, 0.802060
1570.96, 0.801834
1571.43, 0.802117
1571.91, 0.802399
1572.39, 0.802625
1572.86, 0.802795
1573.34, 0.803021
1573.82, 0.803021
1574.3, 0.802738
1574.77, 0.803077
1575.25, 0.803642
1575.73, 0.803698
1576.21, 0.803811
1576.69, 0.803811
1577.17, 0.804037
1577.65, 0.804094
1578.13, 0.804150
1578.61, 0.804263
1579.09, 0.804433
1579.57, 0.804602
1580.05, 0.805054
1580.54, 0.805224
1581.02, 0.805506
1581.5, 0.805337
1581.98, 0.805393
1582.47, 0.805676
1582.95, 0.805732
1583.43, 0.805789
1583.92, 0.806071
1584.4, 0.806410
1584.88, 0.806918
1585.37, 0.806975
1585.85, 0.806805
1586.34, 0.806749
1586.82, 0.807144
1587.31, 0.807427
1587.8, 0.807314
1588.28, 0.807201
1588.77, 0.807653
1589.26, 0.807766
1589.74, 0.808048
1590.23, 0.807879
1590.72, 0.807879
1591.21, 0.808048
1591.7, 0.808444
1592.19, 0.808387
1592.67, 0.808613
1593.16, 0.809009
1593.65, 0.809122
1594.14, 0.809122
1594.63, 0.809235
1595.12, 0.809404
1595.61, 0.809856
1596.11, 0.810025
1596.6, 0.810195
1597.09, 0.810195
1597.58, 0.810477
1598.08, 0.810703
1598.57, 0.810703
1599.06, 0.810873
1599.55, 0.811099
1600.05, 0.811268
1600.54, 0.811551
1601.04, 0.811946
1601.53, 0.812116
1602.03, 0.811946
1602.52, 0.812342
1603.02, 0.812850
1603.51, 0.812906
1604.01, 0.812906
1604.5, 0.812793
1605.0, 0.813189
1605.5, 0.813358
1606.0, 0.813697
1606.49, 0.813867
1606.99, 0.813923
1607.49, 0.814262
1607.99, 0.814262
1608.49, 0.814714
1608.99, 0.815166
1609.49, 0.815449
1609.99, 0.815674
1610.49, 0.815788
1610.99, 0.815618
1611.49, 0.815901
1611.99, 0.816183
1612.49, 0.816522
1612.99, 0.816804
1613.49, 0.816804
1614.0, 0.817030
1614.5, 0.817539
1615.0, 0.817708
1615.51, 0.817878
1616.01, 0.818047
1616.51, 0.818556
1617.02, 0.818838
1617.52, 0.819290
1618.03, 0.819572
1618.53, 0.819742
1619.04, 0.819855
1619.54, 0.819968
1620.05, 0.819968
1620.55, 0.820420
1621.06, 0.820872
1621.57, 0.821098
1622.08, 0.821211
1622.58, 0.821437
1623.09, 0.821550
1623.6, 0.822171
1624.11, 0.822453
1624.62, 0.822566
1625.13, 0.822736
1625.64, 0.823414
1626.15, 0.823866
1626.66, 0.823753
1627.17, 0.823696
1627.68, 0.823809
1628.19, 0.824205
1628.7, 0.824374
1629.21, 0.824431
1629.72, 0.824883
1630.24, 0.824995
1630.75, 0.825108
1631.26, 0.825447
1631.78, 0.825617
1632.29, 0.825391
1632.8, 0.825673
1633.32, 0.826012
1633.83, 0.826125
1634.35, 0.826521
1634.86, 0.826803
1635.38, 0.826860
1635.9, 0.826803
1636.41, 0.827086
1636.93, 0.827312
1637.45, 0.827199
1637.96, 0.827425
1638.48, 0.827820
1639.0, 0.827990
1639.52, 0.827990
1640.04, 0.827990
1640.56, 0.828328
1641.08, 0.828611
1641.59, 0.828668
1642.11, 0.828780
1642.63, 0.829063
1643.16, 0.829289
1643.68, 0.829571
1644.2, 0.829797
1644.72, 0.829910
1645.24, 0.829910
1645.76, 0.830193
1646.29, 0.830193
1646.81, 0.830419
1647.33, 0.830532
1647.86, 0.830758
1648.38, 0.830701
1648.9, 0.830927
1649.43, 0.831097
1649.95, 0.831153
1650.48, 0.831379
1651.0, 0.831492
1651.53, 0.831605
1652.06, 0.831718
1652.58, 0.831944
1653.11, 0.832113
1653.64, 0.832339
1654.17, 0.832396
1654.69, 0.832622
1655.22, 0.832565
1655.75, 0.832904
1656.28, 0.833017
1656.81, 0.833130
1657.34, 0.833243
1657.87, 0.833639
1658.4, 0.833526
1658.93, 0.833582
1659.46, 0.833526
1659.99, 0.833865
1660.52, 0.833978
1661.05, 0.834260
1661.59, 0.834599
1662.12, 0.834430
1662.65, 0.834655
1663.19, 0.834881
1663.72, 0.834825
1664.26, 0.835277
1664.79, 0.835390
1665.32, 0.835503
1665.86, 0.835616
1666.39, 0.835785
1666.93, 0.835955
1667.47, 0.835898
1668.0, 0.836124
1668.54, 0.836576
1669.08, 0.836689
1669.61, 0.836859
1670.15, 0.836972
1670.69, 0.837198
1671.23, 0.837141
1671.77, 0.837367
1672.31, 0.837424
1672.85, 0.837424
1673.39, 0.837311
1673.93, 0.837367
1674.47, 0.837311
1675.01, 0.837650
1675.55, 0.837989
1676.09, 0.837875
1676.64, 0.837480
1677.18, 0.837311
1677.72, 0.836802
1678.26, 0.836859
1678.81, 0.836576
1679.35, 0.836124
1679.89, 0.835446
1680.44, 0.834543
1680.98, 0.833639
1681.53, 0.832904
1682.07, 0.832622
1682.62, 0.832565
1683.17, 0.832735
1683.71, 0.833356
1684.26, 0.833808
1684.81, 0.834655
1685.36, 0.835616
1685.9, 0.836350
1686.45, 0.836972
1687.0, 0.837762
1687.55, 0.838723
1688.1, 0.839514
1688.65, 0.839966
1689.2, 0.840644
1689.75, 0.841096
1690.3, 0.841208
1690.85, 0.841773
1691.41, 0.842508
1691.96, 0.842847
1692.51, 0.843186
1693.06, 0.843638
1693.61, 0.843864
1694.17, 0.843807
1694.72, 0.844146
1695.28, 0.844428
1695.83, 0.844711
1696.39, 0.844937
1696.94, 0.845163
1697.5, 0.845389
1698.05, 0.845671
1698.61, 0.845954
1699.17, 0.846067
1699.72, 0.846067
1700.28, 0.846236
1700.84, 0.846349
1701.4, 0.846406
1701.95, 0.846745
1702.51, 0.846914
1703.07, 0.847027
1703.63, 0.847027
1704.19, 0.847197
1704.75, 0.847309
1705.31, 0.847422
1705.88, 0.847592
1706.44, 0.847761
1707.0, 0.847874
1707.56, 0.847761
1708.12, 0.847761
1708.69, 0.847987
1709.25, 0.848383
1709.81, 0.848439
1710.38, 0.848326
1710.94, 0.848157
1711.51, 0.848157
1712.07, 0.848270
1712.64, 0.848326
1713.2, 0.848439
1713.77, 0.848609
1714.34, 0.848778
1714.9, 0.848948
1715.47, 0.848948
1716.04, 0.849004
1716.61, 0.848778
1717.18, 0.849061
1717.74, 0.849287
1718.31, 0.849343
1718.88, 0.849287
1719.45, 0.849400
1720.02, 0.849343
1720.59, 0.849456
1721.17, 0.849456
1721.74, 0.849343
1722.31, 0.849287
1722.88, 0.849400
1723.45, 0.849682
1724.03, 0.850021
1724.6, 0.849852
1725.18, 0.849852
1725.75, 0.849852
1726.33, 0.850247
1726.9, 0.850473
1727.48, 0.850642
1728.05, 0.850756
1728.63, 0.850981
1729.2, 0.851207
1729.78, 0.851207
1730.36, 0.851207
1730.94, 0.851207
1731.51, 0.851546
1732.09, 0.851716
1732.67, 0.851603
1733.25, 0.851885
1733.83, 0.851998
1734.41, 0.852224
1734.99, 0.852394
1735.57, 0.852563
1736.15, 0.852789
1736.73, 0.852959
1737.32, 0.853072
1737.9, 0.853298
1738.48, 0.853241
1739.07, 0.853354
1739.65, 0.853241
1740.23, 0.853467
1740.82, 0.853693
1741.4, 0.853919
1741.99, 0.854032
1742.57, 0.854145
1743.16, 0.854371
1743.74, 0.854597
1744.33, 0.854484
1744.92, 0.854710
1745.51, 0.855105
1746.09, 0.855331
1746.68, 0.855444
1747.27, 0.855501
1747.86, 0.855444
1748.45, 0.855727
1749.04, 0.856009
1749.63, 0.856066
1750.22, 0.856122
1750.81, 0.856179
1751.4, 0.856292
1751.99, 0.856800
1752.59, 0.856856
1753.18, 0.856856
1753.77, 0.856856
1754.37, 0.857308
1754.96, 0.857534
1755.56, 0.857534
1756.15, 0.857478
1756.74, 0.857647
1757.34, 0.857704
1757.94, 0.857760
1758.53, 0.857817
1759.13, 0.858156
1759.73, 0.858212
1760.32, 0.858212
1760.92, 0.858495
1761.52, 0.858608
1762.12, 0.858551
1762.72, 0.858834
1763.32, 0.859060
1763.92, 0.859173
1764.52, 0.859342
1765.12, 0.859568
1765.72, 0.859568
1766.32, 0.859681
1766.92, 0.859964
1767.53, 0.860020
1768.13, 0.860020
1768.73, 0.860133
1769.34, 0.860359
1769.94, 0.860585
1770.55, 0.860754
1771.15, 0.861150
1771.76, 0.861206
1772.36, 0.861432
1772.97, 0.861715
1773.57, 0.861545
1774.18, 0.861602
1774.79, 0.862054
1775.4, 0.862280
1776.0, 0.862449
1776.61, 0.862280
1777.22, 0.862280
1777.83, 0.862110
1778.44, 0.862336
1779.05, 0.862506
1779.66, 0.862562
1780.27, 0.862675
1780.88, 0.862958
1781.5, 0.862958
1782.11, 0.863127
1782.72, 0.863240
1783.33, 0.863353
1783.95, 0.863240
1784.56, 0.863183
1785.18, 0.863240
1785.79, 0.863410
1786.41, 0.863466
1787.02, 0.863635
1787.64, 0.863692
1788.26, 0.863918
1788.87, 0.863805
1789.49, 0.863805
1790.11, 0.863861
1790.73, 0.863805
1791.35, 0.863579
1791.96, 0.863692
1792.58, 0.863579
1793.21, 0.863635
1793.83, 0.863861
1794.45, 0.864200
1795.07, 0.863918
1795.69, 0.863918
1796.31, 0.863974
1796.93, 0.863861
1797.56, 0.863974
1798.18, 0.864313
1798.8, 0.864483
1799.43, 0.864539
1800.05, 0.864596
1800.68, 0.864709
1801.3, 0.864709
1801.93, 0.864822
1802.56, 0.864765
1803.18, 0.864709
1803.81, 0.864935
1804.44, 0.864991
1805.07, 0.864822
1805.7, 0.865161
1806.33, 0.864991
1806.95, 0.864991
1807.58, 0.864991
1808.22, 0.865217
1808.85, 0.865274
1809.48, 0.865387
1810.11, 0.865330
1810.74, 0.865500
1811.38, 0.865443
1812.01, 0.865443
1812.64, 0.865387
1813.28, 0.865613
1813.91, 0.865443
1814.55, 0.865500
1815.18, 0.865556
1815.82, 0.866008
1816.45, 0.866121
1817.09, 0.866008
1817.73, 0.865839
1818.36, 0.866121
1819.0, 0.866065
1819.64, 0.866065
1820.28, 0.866121
1820.92, 0.866234
1821.56, 0.866290
1822.2, 0.866404
1822.84, 0.866347
1823.48, 0.866460
1824.12, 0.866460
1824.76, 0.866629
1825.41, 0.866799
1826.05, 0.867194
1826.69, 0.867138
1827.34, 0.866968
1827.98, 0.867025
1828.63, 0.867420
1829.27, 0.867420
1829.92, 0.867307
1830.56, 0.867307
1831.21, 0.867533
1831.86, 0.867703
1832.5, 0.868098
1833.15, 0.868098
1833.8, 0.867872
1834.45, 0.867872
1835.1, 0.868268
1835.75, 0.868324
1836.4, 0.868663
1837.05, 0.868550
1837.7, 0.868607
1838.35, 0.868776
1839.01, 0.868776
1839.66, 0.868833
1840.31, 0.868889
1840.96, 0.869059
1841.62, 0.869341
1842.27, 0.869454
1842.93, 0.869398
1843.58, 0.869398
1844.24, 0.869454
1844.9, 0.869285
1845.55, 0.869454
1846.21, 0.869793
1846.87, 0.870188
1847.53, 0.870301
1848.18, 0.870414
1848.84, 0.870527
1849.5, 0.870301
1850.16, 0.870188
1850.82, 0.870584
1851.48, 0.870471
1852.14, 0.870358
1852.81, 0.870471
1853.47, 0.871036
1854.13, 0.871149
1854.8, 0.870979
1855.46, 0.870697
1856.12, 0.870979
1856.79, 0.871262
1857.45, 0.871205
1858.12, 0.870979
1858.79, 0.870866
1859.45, 0.871092
1860.12, 0.871488
1860.79, 0.871318
1861.46, 0.871149
1862.12, 0.871036
1862.79, 0.871149
1863.46, 0.871262
1864.13, 0.871375
1864.8, 0.871375
1865.48, 0.871601
1866.15, 0.871431
1866.82, 0.871488
1867.49, 0.871883
1868.16, 0.871827
1868.84, 0.871544
1869.51, 0.871488
1870.19, 0.871375
1870.86, 0.871601
1871.54, 0.871714
1872.21, 0.871601
1872.89, 0.871714
1873.56, 0.871544
1874.24, 0.871205
1874.92, 0.871092
1875.6, 0.871205
1876.28, 0.871149
1876.96, 0.871149
1877.64, 0.871036
1878.32, 0.870866
1879.0, 0.870866
1879.68, 0.870810
1880.36, 0.870810
1881.04, 0.870810
1881.73, 0.870640
1882.41, 0.870527
1883.09, 0.870414
1883.78, 0.870697
1884.46, 0.870866
1885.15, 0.870527
1885.83, 0.870414
1886.52, 0.870358
1887.21, 0.869962
1887.89, 0.869793
1888.58, 0.869906
1889.27, 0.869850
1889.96, 0.869906
1890.65, 0.869906
1891.34, 0.869736
1892.03, 0.869623
1892.72, 0.869680
1893.41, 0.869736
1894.1, 0.869850
1894.79, 0.869454
1895.49, 0.869341
1896.18, 0.869228
1896.87, 0.869059
1897.57, 0.868776
1898.26, 0.868776
1898.96, 0.868889
1899.65, 0.869002
1900.35, 0.868833
1901.05, 0.868607
1901.74, 0.868550
1902.44, 0.868946
1903.14, 0.869059
1903.84, 0.868550
1904.54, 0.868550
1905.24, 0.868889
1905.94, 0.868776
1906.64, 0.868607
1907.34, 0.868437
1908.04, 0.868381
1908.75, 0.868324
1909.45, 0.868098
1910.15, 0.868155
1910.86, 0.868381
1911.56, 0.868494
1912.27, 0.868494
1912.97, 0.868550
1913.68, 0.868776
1914.39, 0.868663
1915.09, 0.868437
1915.8, 0.868324
1916.51, 0.868268
1917.22, 0.868098
1917.93, 0.868155
1918.64, 0.868381
1919.35, 0.868494
1920.06, 0.868607
1920.77, 0.868663
1921.48, 0.868494
1922.19, 0.868494
1922.91, 0.868155
1923.62, 0.868324
1924.33, 0.868720
1925.05, 0.868663
1925.76, 0.868663
1926.48, 0.868889
1927.19, 0.868833
1927.91, 0.868833
1928.63, 0.868889
1929.35, 0.868889
1930.07, 0.868833
1930.78, 0.868833
1931.5, 0.868889
1932.22, 0.869002
1932.94, 0.869115
1933.66, 0.869285
1934.39, 0.869172
1935.11, 0.869285
1935.83, 0.869510
1936.55, 0.869623
1937.28, 0.869793
1938.0, 0.869793
1938.73, 0.869793
1939.45, 0.869906
1940.18, 0.869906
1940.9, 0.869962
1941.63, 0.870019
1942.36, 0.870132
1943.09, 0.870132
1943.81, 0.870188
1944.54, 0.870245
1945.27, 0.870132
1946.0, 0.870132
1946.73, 0.870132
1947.47, 0.870414
1948.2, 0.870471
1948.93, 0.870301
1949.66, 0.870414
1950.4, 0.870753
1951.13, 0.870640
1951.86, 0.870471
1952.6, 0.870697
1953.34, 0.870753
1954.07, 0.870584
1954.81, 0.870414
1955.55, 0.870471
1956.29, 0.870753
1957.02, 0.871036
1957.76, 0.870979
1958.5, 0.870866
1959.24, 0.870584
1959.98, 0.870753
1960.72, 0.870640
1961.47, 0.870640
1962.21, 0.870471
1962.95, 0.870471
1963.7, 0.870527
1964.44, 0.870753
1965.18, 0.870640
1965.93, 0.870584
1966.67, 0.870697
1967.42, 0.870810
1968.17, 0.870753
1968.92, 0.870584
1969.66, 0.870640
1970.41, 0.870584
1971.16, 0.870527
1971.91, 0.870527
1972.66, 0.870697
1973.41, 0.870866
1974.16, 0.870753
1974.92, 0.870640
1975.67, 0.870640
1976.42, 0.870753
1977.18, 0.870810
1977.93, 0.870923
1978.69, 0.870866
1979.44, 0.870753
1980.2, 0.870697
1980.95, 0.870810
1981.71, 0.870753
1982.47, 0.870866
1983.23, 0.870866
1983.99, 0.870810
1984.74, 0.870584
1985.51, 0.870584
1986.27, 0.870697
1987.03, 0.870640
1987.79, 0.870584
1988.55, 0.870471
1989.32, 0.870527
1990.08, 0.870188
1990.84, 0.870188
1991.61, 0.870188
1992.37, 0.870132
1993.14, 0.870245
1993.9, 0.870245
1994.67, 0.870075
1995.44, 0.869962
1996.21, 0.869962
1996.98, 0.869736
1997.75, 0.869567
1998.52, 0.869680
1999.29, 0.869793
2000.06, 0.869567
2000.83, 0.869510
2001.6, 0.869454
2002.38, 0.869341
2003.15, 0.869341
2003.93, 0.869228
2004.7, 0.869228
2005.48, 0.869454
2006.25, 0.869510
2007.03, 0.869398
2007.81, 0.869228
2008.58, 0.869115
2009.36, 0.869341
2010.14, 0.869341
2010.92, 0.869341
2011.7, 0.869454
2012.48, 0.869398
2013.26, 0.869454
2014.05, 0.869623
2014.83, 0.869850
2015.61, 0.869962
2016.4, 0.870132
2017.18, 0.870132
2017.97, 0.870019
2018.75, 0.869906
2019.54, 0.870245
2020.32, 0.870358
2021.11, 0.870527
2021.9, 0.870471
2022.69, 0.870471
2023.48, 0.870301
2024.27, 0.870301
2025.06, 0.870414
2025.85, 0.870584
2026.64, 0.870414
2027.44, 0.870188
2028.23, 0.870245
2029.02, 0.870414
2029.82, 0.870301
2030.61, 0.870584
2031.41, 0.870527
2032.2, 0.870245
2033.0, 0.870075
2033.8, 0.870188
2034.6, 0.869962
2035.4, 0.869962
2036.2, 0.870019
2037.0, 0.870245
2037.8, 0.870019
2038.6, 0.869906
2039.4, 0.869736
2040.2, 0.869623
2041.01, 0.869341
2041.81, 0.869172
2042.61, 0.868946
2043.42, 0.868889
2044.22, 0.868663
2045.03, 0.868437
2045.84, 0.868098
2046.65, 0.867816
2047.46, 0.867703
2048.26, 0.867477
2049.07, 0.867081
2049.88, 0.866573
2050.69, 0.866065
2051.51, 0.865782
2052.32, 0.865387
2053.13, 0.864709
2053.94, 0.864087
2054.76, 0.863296
2055.57, 0.862675
2056.39, 0.861884
2057.2, 0.861037
2058.02, 0.860246
2058.84, 0.859286
2059.66, 0.858269
2060.48, 0.857083
2061.29, 0.855670
2062.11, 0.854032
2062.94, 0.852394
2063.76, 0.850304
2064.58, 0.848270
2065.4, 0.845954
2066.22, 0.843073
2067.05, 0.839683
2067.87, 0.836124
2068.7, 0.832000
2069.52, 0.826973
2070.35, 0.821211
2071.18, 0.814432
2072.0, 0.806297
2072.83, 0.796750
2073.66, 0.785056
2074.49, 0.771781
2075.32, 0.756754
2076.15, 0.739468
2076.98, 0.719922
2077.82, 0.698060
2078.65, 0.673261
2079.48, 0.645975
2080.32, 0.618634
2081.15, 0.595698
2081.99, 0.582479
2082.83, 0.582084
2083.66, 0.593213
2084.5, 0.612081
2085.34, 0.635016
2086.18, 0.658968
2087.02, 0.682186
2087.86, 0.703596
2088.7, 0.723368
2089.54, 0.740880
2090.39, 0.755964
2091.23, 0.769239
2092.07, 0.780707
2092.92, 0.790479
2093.76, 0.798614
2094.61, 0.805506
2095.45, 0.811438
2096.3, 0.816352
2097.15, 0.820476
2098.0, 0.824431
2098.85, 0.827933
2099.7, 0.830871
2100.55, 0.833413
2101.4, 0.835446
2102.25, 0.837480
2103.1, 0.839288
2103.96, 0.840757
2104.81, 0.841999
2105.67, 0.843355
2106.52, 0.844541
2107.38, 0.845502
2108.24, 0.846575
2109.09, 0.847422
2109.95, 0.848326
2110.81, 0.848948
2111.67, 0.849626
2112.53, 0.850529
2113.39, 0.851320
2114.25, 0.851716
2115.12, 0.852055
2115.98, 0.852394
2116.84, 0.852846
2117.71, 0.853072
2118.58, 0.853185
2119.44, 0.853411
2120.31, 0.853238
2121.18, 0.852893
2122.04, 0.852605
2122.91, 0.852662
2123.78, 0.852662
2124.65, 0.852720
2125.52, 0.853411
2126.4, 0.852893
2127.27, 0.852605
2128.14, 0.851108
2129.02, 0.849727
2129.89, 0.848749
2130.77, 0.847943
2131.64, 0.846619
2132.52, 0.845065
2133.4, 0.843569
2134.27, 0.841957
2135.15, 0.840231
2136.03, 0.838734
2136.91, 0.836893
2137.79, 0.834590
2138.68, 0.832634
2139.56, 0.831482
2140.44, 0.830677
2141.33, 0.829929
2142.21, 0.829123
2143.1, 0.828490
2143.99, 0.827742
2144.87, 0.827281
2145.76, 0.826706
2146.65, 0.825669
2147.54, 0.824864
2148.43, 0.823310
2149.32, 0.821929
2150.21, 0.820950
2151.1, 0.820259
2151.99, 0.819396
2152.89, 0.819339
2153.78, 0.819857
2154.68, 0.820490
2155.57, 0.821813
2156.47, 0.823137
2157.37, 0.824519
2158.27, 0.826303
2159.16, 0.828259
2160.06, 0.829698
2160.96, 0.831252
2161.86, 0.832288
2162.77, 0.833785
2163.67, 0.835339
2164.57, 0.835799
2165.48, 0.835857
2166.38, 0.835857
2167.29, 0.835626
2168.2, 0.835857
2169.1, 0.836144
2170.01, 0.835914
2170.92, 0.835972
2171.83, 0.835684
2172.74, 0.835511
2173.65, 0.835857
2174.56, 0.837008
2175.47, 0.838101
2176.39, 0.839483
2177.3, 0.839828
2178.22, 0.840058
2179.13, 0.840864
2180.05, 0.841209
2180.96, 0.841727
2181.88, 0.842130
2182.8, 0.842245
2183.72, 0.842878
2184.64, 0.843972
2185.56, 0.844662
2186.48, 0.844950
2187.41, 0.845411
2188.33, 0.845641
2189.25, 0.845468
2190.18, 0.845353
2191.1, 0.844893
2192.03, 0.844375
2192.96, 0.843799
2193.89, 0.843799
2194.82, 0.843281
2195.74, 0.842418
2196.68, 0.841957
2197.61, 0.840979
2198.54, 0.840346
2199.47, 0.840461
2200.4, 0.839770
2201.34, 0.839483
2202.28, 0.839080
2203.21, 0.838562
2204.15, 0.838734
2205.08, 0.838965
2206.02, 0.838562
2206.96, 0.838734
2207.9, 0.838965
2208.84, 0.838504
2209.78, 0.838159
2210.73, 0.837756
2211.67, 0.837871
2212.61, 0.838159
2213.56, 0.838274
2214.5, 0.838849
2215.45, 0.839483
2216.4, 0.841094
2217.35, 0.842303
2218.3, 0.843626
2219.24, 0.844605
2220.2, 0.845698
2221.15, 0.846274
2222.1, 0.847655
2223.05, 0.848979
2224.0, 0.850590
2224.96, 0.850878
2225.91, 0.850993
2226.87, 0.851742
2227.83, 0.852605
2228.79, 0.853065
2229.74, 0.853353
2230.7, 0.853238
2231.66, 0.853411
2232.63, 0.853813
2233.59, 0.853813
2234.55, 0.853756
2235.51, 0.853929
2236.48, 0.853411
2237.44, 0.853468
2238.41, 0.853641
2239.38, 0.853468
2240.34, 0.853295
2241.31, 0.853295
2242.28, 0.853583
2243.25, 0.852835
2244.22, 0.853353
2245.19, 0.853353
2246.17, 0.852893
2247.14, 0.852490
2248.12, 0.852202
2249.09, 0.851857
2250.07, 0.851626
2251.04, 0.850821
2252.02, 0.850072
2253.0, 0.848634
2253.98, 0.846792
2254.96, 0.844835
2255.94, 0.842188
2256.92, 0.838907
2257.91, 0.835223
2258.89, 0.831598
2259.88, 0.828835
2260.86, 0.827108
2261.85, 0.827224
2262.83, 0.829756
2263.82, 0.832173
2264.81, 0.834418
2265.8, 0.836720
2266.79, 0.838677
2267.78, 0.840173
2268.78, 0.841669
2269.77, 0.843223
2270.76, 0.844260
2271.76, 0.845411
2272.75, 0.845756
2273.75, 0.846677
2274.75, 0.847310
2275.75, 0.847310
2276.75, 0.847425
2277.75, 0.847655
2278.75, 0.847713
2279.75, 0.848058
2280.75, 0.848634
2281.76, 0.848346
2282.76, 0.847943
2283.77, 0.847828
2284.77, 0.847367
2285.78, 0.846562
2286.79, 0.846216
2287.8, 0.845871
2288.81, 0.845008
2289.82, 0.844202
2290.83, 0.843454
2291.84, 0.842590
2292.86, 0.841152
2293.87, 0.840288
2294.89, 0.839195
2295.91, 0.838216
2296.92, 0.837238
2297.94, 0.835972
2298.96, 0.835108
2299.98, 0.833842
2301.0, 0.833382
2302.02, 0.833094
2303.04, 0.831885
2304.07, 0.831310
2305.09, 0.831195
2306.12, 0.830849
2307.15, 0.830216
2308.17, 0.829986
2309.2, 0.829986
2310.23, 0.829180
2311.26, 0.828720
2312.29, 0.827972
2313.32, 0.827166
2314.35, 0.826993
2315.39, 0.826706
2316.42, 0.826130
2317.46, 0.825612
2318.5, 0.825152
2319.53, 0.824231
2320.57, 0.823137
2321.61, 0.821813
2322.65, 0.820432
2323.69, 0.819454
2324.73, 0.818878
2325.78, 0.818015
2326.82, 0.817900
2327.86, 0.817670
2328.91, 0.817727
2329.96, 0.817439
2331.01, 0.817267
2332.05, 0.817152
2333.1, 0.816979
2334.15, 0.816749
2335.21, 0.816691
2336.26, 0.816634
2337.31, 0.816576
2338.36, 0.815943
2339.42, 0.815425
2340.48, 0.815022
2341.53, 0.814734
2342.59, 0.814792
2343.65, 0.814907
2344.71, 0.815080
2345.77, 0.815195
2346.83, 0.815137
2347.9, 0.814907
2348.96, 0.814907
2350.02, 0.815655
2351.09, 0.816346
2352.16, 0.816461
2353.23, 0.816403
2354.29, 0.816346
2355.36, 0.816231
2356.43, 0.815425
2357.51, 0.814562
2358.58, 0.813871
2359.65, 0.813180
2360.73, 0.812259
2361.8, 0.811799
2362.88, 0.811741
2363.96, 0.811569
2365.03, 0.811396
2366.11, 0.810821
2367.19, 0.809842
2368.27, 0.809094
2369.36, 0.808231
2370.44, 0.807367
2371.53, 0.806677
2372.61, 0.806159
2373.7, 0.805928
2374.78, 0.805583
2375.87, 0.805353
2376.96, 0.805468
2378.05, 0.806101
2379.14, 0.806331
2380.24, 0.806274
2381.33, 0.806331
2382.42, 0.806389
2383.52, 0.806619
2384.61, 0.806446
2385.71, 0.806389
2386.81, 0.806331
2387.91, 0.805583
2389.01, 0.804662
2390.11, 0.803914
2391.22, 0.803396
2392.32, 0.803051
2393.42, 0.802360
2394.53, 0.801727
2395.64, 0.801094
2396.74, 0.800634
2397.85, 0.800346
2398.96, 0.799713
2400.07, 0.799425
2401.18, 0.799080
2402.3, 0.798446
2403.41, 0.798274
2404.52, 0.798101
2405.64, 0.797698
2406.76, 0.797008
2407.88, 0.796087
2408.99, 0.794245
2410.11, 0.792346
2411.23, 0.790331
2412.36, 0.788432
2413.48, 0.787223
2414.6, 0.786475
2415.73, 0.785382
2416.85, 0.784576
2417.98, 0.784173
2419.11, 0.783540
2420.24, 0.783482
2421.37, 0.783598
2422.5, 0.783195
2423.64, 0.783137
2424.77, 0.782677
2425.9, 0.782504
2427.04, 0.782504
2428.18, 0.782677
2429.31, 0.782677
2430.45, 0.782619
2431.59, 0.782562
2432.73, 0.782389
2433.88, 0.782562
2435.02, 0.783482
2436.16, 0.784403
2437.31, 0.785094
2438.45, 0.786015
2439.6, 0.786245
2440.75, 0.786015
2441.9, 0.785612
2443.05, 0.784749
2444.2, 0.782964
2445.35, 0.780892
2446.51, 0.779108
2447.67, 0.777957
2448.82, 0.777324
2449.98, 0.776116
2451.14, 0.774677
2452.3, 0.773295
2453.46, 0.771857
2454.62, 0.769900
2455.78, 0.767482
2456.94, 0.765008
2458.11, 0.762993
2459.28, 0.760518
2460.44, 0.757986
2461.61, 0.755972
2462.78, 0.754072
2463.95, 0.752461
2465.12, 0.750792
2466.3, 0.749065
2467.47, 0.747223
2468.65, 0.745669
2469.82, 0.744749
2471.0, 0.743828
2472.18, 0.743252
2473.36, 0.743310
2474.54, 0.743598
2475.72, 0.743598
2476.9, 0.743367
2478.08, 0.743367
2479.27, 0.743022
2480.46, 0.742504
2481.64, 0.741526
2482.83, 0.739281
2484.02, 0.736461
2485.21, 0.733756
2486.4, 0.731684
2487.6, 0.730015
2488.79, 0.728518
2489.99, 0.727597
2491.18, 0.725871
2492.38, 0.723166
2493.58, 0.719367
2494.78, 0.715166
2495.98, 0.709871
2497.18, 0.704749
2498.39, 0.700950
2499.59, 0.697785
2500.8, 0.695540
2502.01, 0.694159
2503.21, 0.693123
2504.42, 0.692720
2505.63, 0.692892
2506.84, 0.693008
2508.06, 0.692317
2509.27, 0.690993
2510.49, 0.688691
2511.7, 0.685526
2512.92, 0.681554
2514.14, 0.676547
2515.36, 0.670446
2516.58, 0.664749
2517.8, 0.660317
2519.03, 0.656979
2520.25, 0.655252
2521.48, 0.654101
2522.7, 0.653180
2523.93, 0.652490
2525.16, 0.651339
2526.39, 0.649324
2527.62, 0.645986
2528.86, 0.642533
2530.09, 0.638734
2531.33, 0.635799
2532.56, 0.634590
2533.8, 0.634820
2535.04, 0.634705
2536.28, 0.635741
2537.52, 0.638159
2538.76, 0.640633
2540.01, 0.642590
2541.25, 0.642072
2542.5, 0.639770
2543.75, 0.637353
2544.99, 0.634648
2546.24, 0.633094
2547.49, 0.633094
2548.75, 0.634130
2550.0, 0.634936
2551.26, 0.636835
2552.51, 0.640115
2553.77, 0.644950
2555.03, 0.650187
2556.29, 0.656231
2557.55, 0.662159
2558.81, 0.666878
2560.08, 0.669641
2561.34, 0.672000
2562.61, 0.674705
2563.88, 0.678619
2565.14, 0.683741
2566.41, 0.688461
2567.68, 0.690878
2568.96, 0.692029
2570.23, 0.695367
2571.51, 0.698821
2572.78, 0.700490
2574.06, 0.705727
2575.34, 0.709526
2576.62, 0.712691
2577.9, 0.717813
2579.18, 0.721382
2580.47, 0.722936
2581.75, 0.723914
2583.04, 0.721669
2584.32, 0.720921
2585.61, 0.718964
2586.9, 0.715454
2588.2, 0.715166
2589.49, 0.716490
2590.78, 0.717065
2592.08, 0.715166
2593.37, 0.709468
2594.67, 0.705727
2595.97, 0.707741
2597.27, 0.707396
2598.57, 0.704864
2599.88, 0.701871
2601.18, 0.700317
2602.49, 0.700490
2603.79, 0.700950
2605.1, 0.701813
2606.41, 0.705036
2607.72, 0.707396
2609.03, 0.708777
2610.35, 0.710504
2611.66, 0.711425
2612.98, 0.710964
2614.3, 0.709928
2615.62, 0.705957
2616.94, 0.703713
2618.26, 0.703828
2619.58, 0.702446
2620.91, 0.705727
2622.23, 0.710389
2623.56, 0.713497
2624.89, 0.715454
2626.22, 0.717583
2627.55, 0.723339
2628.88, 0.725008
2630.21, 0.726792
2631.55, 0.732490
2632.89, 0.734792
2634.22, 0.737094
2635.56, 0.739914
2636.9, 0.741123
2638.25, 0.742274
2639.59, 0.743252
2640.93, 0.743713
2642.28, 0.744634
2643.63, 0.745497
2644.98, 0.745209
2646.33, 0.745727
2647.68, 0.747166
2649.03, 0.747684
2650.39, 0.746936
2651.74, 0.745554
2653.1, 0.746303
2654.46, 0.746821
2655.82, 0.746993
2657.18, 0.747396
2658.54, 0.745554
2659.9, 0.744921
2661.27, 0.744864
2662.64, 0.743770
2664.01, 0.740259
2665.38, 0.738360
2666.74, 0.738533
2668.12, 0.739223
2669.49, 0.735310
2670.87, 0.736000
2672.24, 0.738187
2673.62, 0.736461
2675.0, 0.733008
2676.38, 0.730245
2677.76, 0.729324
2679.15, 0.728403
2680.54, 0.728691
2681.92, 0.726562
2683.31, 0.724317
2684.7, 0.722015
2686.09, 0.719482
2687.48, 0.717526
2688.88, 0.715569
2690.27, 0.712864
2691.67, 0.708662
2693.07, 0.703252
2694.47, 0.700087
2695.87, 0.697497
2697.27, 0.694562
2698.67, 0.689785
2700.08, 0.684432
2701.49, 0.679597
2702.9, 0.675569
2704.31, 0.670043
2705.72, 0.664346
2707.13, 0.657266
2708.54, 0.648806
2709.96, 0.640288
2711.38, 0.633842
2712.8, 0.627223
2714.22, 0.618072
2715.64, 0.607252
2717.06, 0.594763
2718.49, 0.580662
2719.91, 0.564202
2721.34, 0.548892
2722.77, 0.531569
2724.2, 0.509583
2725.63, 0.486159
2727.07, 0.458993
2728.5, 0.426533
2729.94, 0.387108
2731.38, 0.339453
2732.82, 0.282072
2734.26, 0.216576
2735.7, 0.152518
2737.15, 0.105094
2738.59, 0.0754530
2740.04, 0.0669930
2741.49, 0.0776400
2742.94, 0.0988200
2744.39, 0.123396
2745.84, 0.147453
2747.3, 0.167597
2748.76, 0.185209
2750.21, 0.210302
2751.67, 0.248345
2753.14, 0.292835
2754.6, 0.339108
2756.06, 0.385497
2757.53, 0.420489
2759.0, 0.444892
2760.46, 0.463137
2761.94, 0.478101
2763.41, 0.492662
2764.88, 0.505784
2766.36, 0.516317
2767.83, 0.525410
2769.31, 0.531569
2770.79, 0.535022
2772.27, 0.538245
2773.76, 0.542101
2775.24, 0.546533
2776.73, 0.550504
2778.22, 0.553439
2779.71, 0.554418
2781.2, 0.555108
2782.69, 0.557123
2784.18, 0.559425
2785.68, 0.560518
2787.18, 0.561842
2788.68, 0.563799
2790.18, 0.565238
2791.68, 0.566331
2793.19, 0.567367
2794.69, 0.568518
2796.2, 0.569439
2797.71, 0.569957
2799.22, 0.570533
2800.73, 0.570245
2802.24, 0.569497
2803.76, 0.570187
2805.28, 0.571281
2806.8, 0.571914
2808.32, 0.571971
2809.84, 0.571741
2811.36, 0.571454
2812.89, 0.570936
2814.42, 0.570302
2815.94, 0.569785
2817.48, 0.568518
2819.01, 0.567195
2820.54, 0.566159
2822.08, 0.565583
2823.61, 0.564489
2825.15, 0.562878
2826.69, 0.561669
2828.23, 0.561324
2829.78, 0.561727
2831.32, 0.562763
2832.87, 0.563684
2834.42, 0.564202
2835.97, 0.564432
2837.52, 0.564317
2839.08, 0.563914
2840.63, 0.563223
2842.19, 0.562418
2843.75, 0.561612
2845.31, 0.560461
2846.87, 0.559137
2848.44, 0.557641
2850.0, 0.556144
2851.57, 0.554418
2853.14, 0.552403
2854.71, 0.550331
2856.28, 0.548144
2857.86, 0.545784
2859.43, 0.543022
2861.01, 0.540202
2862.59, 0.537324
2864.17, 0.534101
2865.76, 0.531166
2867.34, 0.529439
2868.93, 0.528921
2870.52, 0.528691
2872.11, 0.529036
2873.7, 0.529727
2875.29, 0.530360
2876.89, 0.530936
2878.49, 0.531511
2880.08, 0.531972
2881.69, 0.532317
2883.29, 0.532547
2884.89, 0.532662
2886.5, 0.532720
2888.11, 0.532892
2889.72, 0.532662
2891.33, 0.531914
2892.94, 0.531051
2894.56, 0.530130
2896.17, 0.529209
2897.79, 0.528518
2899.42, 0.527770
2901.04, 0.527828
2902.66, 0.528806
2904.29, 0.529209
2905.92, 0.528058
2907.55, 0.525007
2909.18, 0.522303
2910.81, 0.523108
2912.45, 0.526734
2914.08, 0.530015
2915.72, 0.532029
2917.36, 0.532662
2919.01, 0.532374
2920.65, 0.531799
2922.3, 0.531108
2923.94, 0.531051
2925.59, 0.532202
2927.25, 0.533756
2928.9, 0.535195
2930.56, 0.535885
2932.21, 0.536288
2933.87, 0.536461
2935.53, 0.536864
2937.2, 0.537266
2938.86, 0.537209
2940.53, 0.536806
2942.2, 0.536173
2943.87, 0.535597
2945.54, 0.535252
2947.22, 0.534964
2948.89, 0.534216
2950.57, 0.533065
2952.25, 0.531741
2953.93, 0.530705
2955.62, 0.529900
2957.3, 0.528979
2958.99, 0.527770
2960.68, 0.526792
2962.37, 0.525871
2964.07, 0.524720
2965.76, 0.523971
2967.46, 0.523971
2969.16, 0.524259
2970.86, 0.524662
2972.56, 0.524892
2974.27, 0.525065
2975.98, 0.524777
2977.69, 0.524144
2979.4, 0.523799
2981.11, 0.523971
2982.83, 0.524202
2984.54, 0.524547
2986.26, 0.525007
2987.98, 0.526101
2989.71, 0.527770
2991.43, 0.529036
2993.16, 0.530130
2994.89, 0.531051
2996.62, 0.531914
2998.35, 0.532605
3000.09, 0.533295
3001.83, 0.533698
3003.57, 0.533986
3005.31, 0.534619
3007.05, 0.535540
3008.79, 0.536518
3010.54, 0.537727
3012.29, 0.539108
3014.04, 0.540605
3015.8, 0.541928
3017.55, 0.543195
3019.31, 0.544403
3021.07, 0.545382
3022.83, 0.546130
3024.59, 0.546590
3026.36, 0.546763
3028.13, 0.546993
3029.9, 0.547626
3031.67, 0.548144
3033.44, 0.548432
3035.22, 0.549007
3037.0, 0.549756
3038.78, 0.550734
3040.56, 0.551713
3042.34, 0.552749
3044.13, 0.553612
3045.92, 0.554245
3047.71, 0.554878
3049.5, 0.555569
3051.3, 0.556202
3053.09, 0.556892
3054.89, 0.557468
3056.69, 0.558274
3058.5, 0.559137
3060.3, 0.559885
3062.11, 0.560518
3063.92, 0.560921
3065.73, 0.561324
3067.55, 0.561612
3069.36, 0.562015
3071.18, 0.562475
3073.0, 0.562820
3074.82, 0.563108
3076.65, 0.563454
3078.48, 0.563856
3080.31, 0.564144
3082.14, 0.564605
3083.97, 0.565353
3085.8, 0.565871
3087.64, 0.566274
3089.48, 0.566619
3091.33, 0.567310
3093.17, 0.567943
3095.02, 0.568403
3096.87, 0.569094
3098.72, 0.569497
3100.57, 0.569957
3102.43, 0.570648
3104.28, 0.571223
3106.14, 0.571799
3108.01, 0.572374
3109.87, 0.572892
3111.74, 0.573410
3113.61, 0.573986
3115.48, 0.574389
3117.35, 0.574964
3119.23, 0.575655
3121.1, 0.576288
3122.98, 0.576748
3124.87, 0.577036
3126.75, 0.577554
3128.64, 0.578015
3130.53, 0.578360
3132.42, 0.578763
3134.31, 0.579166
3136.21, 0.579626
3138.11, 0.580259
3140.01, 0.580720
3141.91, 0.581065
3143.82, 0.581641
3145.73, 0.582159
3147.64, 0.582446
3149.55, 0.583080
3151.46, 0.583713
3153.38, 0.584288
3155.3, 0.584403
3157.22, 0.584691
3159.14, 0.585094
3161.07, 0.585497
3163.0, 0.585957
3164.93, 0.586533
3166.86, 0.587051
3168.8, 0.587741
3170.74, 0.588432
3172.68, 0.589007
3174.62, 0.589468
3176.56, 0.590043
3178.51, 0.590677
3180.46, 0.591252
3182.42, 0.591713
3184.37, 0.592346
3186.33, 0.592921
3188.29, 0.593324
3190.25, 0.593785
3192.21, 0.594360
3194.18, 0.594820
3196.15, 0.595281
3198.12, 0.595741
3200.09, 0.596202
3202.07, 0.596777
3204.05, 0.597123
3206.03, 0.597468
3208.02, 0.598101
3210.0, 0.598561
3211.99, 0.599137
3213.98, 0.599540
3215.98, 0.600058
3217.97, 0.600461
3219.97, 0.600806
3221.97, 0.601382
3223.98, 0.601957
3225.98, 0.602245
3227.99, 0.602648
3230.0, 0.603108
3232.02, 0.603511
3234.03, 0.603914
3236.05, 0.604374
3238.07, 0.604720
3240.1, 0.604950
3242.12, 0.605410
3244.15, 0.605986
3246.18, 0.606504
3248.22, 0.607137
3250.25, 0.607597
3252.29, 0.608058
3254.33, 0.608461
3256.38, 0.608979
3258.43, 0.609497
3260.47, 0.610072
3262.53, 0.610648
3264.58, 0.611166
3266.64, 0.611569
3268.7, 0.611972
3270.76, 0.612490
3272.82, 0.612950
3274.89, 0.613526
3276.96, 0.614159
3279.04, 0.614677
3281.11, 0.615310
3283.19, 0.615828
3285.27, 0.616403
3287.35, 0.616806
3289.44, 0.617151
3291.53, 0.617669
3293.62, 0.618072
3295.71, 0.618245
3297.81, 0.618533
3299.91, 0.619108
3302.01, 0.619626
3304.11, 0.620202
3306.22, 0.620605
3308.33, 0.620950
3310.44, 0.621180
3312.56, 0.621468
3314.68, 0.622043
3316.8, 0.622504
3318.92, 0.622964
3321.05, 0.623137
3323.18, 0.623367
3325.31, 0.623713
3327.44, 0.624115
3329.58, 0.624346
3331.72, 0.624518
3333.86, 0.624749
3336.01, 0.624921
3338.16, 0.624979
3340.31, 0.625036
3342.46, 0.624921
3344.61, 0.624864
3346.77, 0.624691
3348.94, 0.624288
3351.1, 0.623770
3353.27, 0.623310
3355.44, 0.622849
3357.61, 0.622101
3359.79, 0.621065
3361.97, 0.620029
3364.15, 0.618993
3366.33, 0.618130
3368.52, 0.617554
3370.71, 0.617094
3372.9, 0.616979
3375.1, 0.617094
3377.3, 0.617324
3379.5, 0.617497
3381.71, 0.617842
3383.91, 0.618130
3386.12, 0.618245
3388.34, 0.618187
3390.55, 0.617900
3392.77, 0.617497
3394.99, 0.616806
3397.22, 0.616000
3399.45, 0.614964
3401.68, 0.613813
3403.91, 0.612835
3406.15, 0.611856
3408.39, 0.610705
3410.63, 0.609727
3412.87, 0.609094
3415.12, 0.609094
3417.37, 0.609382
3419.63, 0.610130
3421.88, 0.611626
3424.14, 0.613641
3426.41, 0.615713
3428.67, 0.617554
3430.94, 0.619281
3433.21, 0.620777
3435.49, 0.622159
3437.77, 0.623137
3440.05, 0.624058
3442.33, 0.624921
3444.62, 0.625727
3446.91, 0.626590
3449.2, 0.627511
3451.5, 0.628432
3453.8, 0.629180
3456.1, 0.629928
3458.41, 0.630562
3460.72, 0.631310
3463.03, 0.632000
3465.34, 0.632518
3467.66, 0.632749
3469.98, 0.632979
3472.31, 0.633324
3474.63, 0.633497
3476.96, 0.633669
3479.3, 0.633900
3481.64, 0.634072
3483.97, 0.634072
3486.32, 0.633900
3488.66, 0.633612
3491.01, 0.633497
3493.36, 0.632979
3495.72, 0.632403
3498.08, 0.631943
3500.44, 0.632231
3502.81, 0.633036
3505.18, 0.634418
3507.55, 0.636317
3509.92, 0.638504
3512.3, 0.640749
3514.68, 0.642821
3517.06, 0.644720
3519.45, 0.646389
3521.84, 0.647885
3524.24, 0.649036
3526.64, 0.650015
3529.04, 0.650763
3531.44, 0.651511
3533.85, 0.652374
3536.26, 0.652950
3538.67, 0.653468
3541.09, 0.653928
3543.51, 0.654331
3545.93, 0.654964
3548.36, 0.655540
3550.79, 0.656173
3553.22, 0.656691
3555.66, 0.657209
3558.1, 0.657612
3560.54, 0.657957
3562.99, 0.658418
3565.44, 0.658936
3567.9, 0.659396
3570.35, 0.659856
3572.81, 0.660317
3575.28, 0.660720
3577.75, 0.661008
3580.22, 0.661468
3582.69, 0.661756
3585.17, 0.662101
3587.65, 0.662389
3590.14, 0.662561
3592.62, 0.662792
3595.11, 0.663080
3597.61, 0.663367
3600.11, 0.663482
3602.61, 0.663713
3605.11, 0.664000
3607.62, 0.664288
3610.14, 0.664576
3612.65, 0.664806
3615.17, 0.665036
3617.69, 0.665267
3620.22, 0.665324
3622.75, 0.665382
3625.28, 0.665554
3627.82, 0.665900
3630.36, 0.666130
3632.9, 0.666475
3635.45, 0.666648
3638.0, 0.666878
3640.56, 0.667223
3643.12, 0.667454
3645.68, 0.667626
3648.24, 0.667799
3650.81, 0.668259
3653.39, 0.668490
3655.96, 0.668720
3658.54, 0.669123
3661.13, 0.669526
3663.71, 0.669928
3666.3, 0.670274
3668.9, 0.670619
3671.5, 0.671022
3674.1, 0.671367
3676.7, 0.671713
3679.31, 0.672115
3681.93, 0.672576
3684.54, 0.672921
3687.17, 0.673382
3689.79, 0.673727
3692.42, 0.674015
3695.05, 0.674418
3697.69, 0.674878
3700.32, 0.675166
3702.97, 0.675339
3705.61, 0.675454
3708.27, 0.675108
3710.92, 0.673497
3713.58, 0.671137
3716.24, 0.671425
3718.91, 0.674072
3721.58, 0.675914
3724.25, 0.676720
3726.93, 0.677180
3729.61, 0.677698
3732.29, 0.677986
3734.98, 0.678274
3737.67, 0.678446
3740.37, 0.678562
3743.07, 0.678677
3745.78, 0.678792
3748.49, 0.678792
3751.2, 0.678677
3753.91, 0.678677
3756.63, 0.678734
3759.36, 0.678619
3762.09, 0.678619
3764.82, 0.678562
3767.55, 0.678562
3770.29, 0.678504
3773.04, 0.678331
3775.78, 0.678331
3778.54, 0.678159
3781.29, 0.677986
3784.05, 0.677871
3786.82, 0.677756
3789.59, 0.677468
3792.36, 0.677353
3795.13, 0.677123
3797.92, 0.676892
3800.7, 0.676720
3803.49, 0.676374
3806.28, 0.676087
3809.08, 0.675914
3811.88, 0.675741
3814.68, 0.675454
3817.49, 0.675223
3820.31, 0.675051
3823.12, 0.674763
3825.94, 0.674590
3828.77, 0.674187
3831.6, 0.673842
3834.43, 0.673669
3837.27, 0.673497
3840.11, 0.673209
3842.96, 0.673036
3845.81, 0.672979
3848.67, 0.672864
3851.53, 0.672749
3854.39, 0.672749
3857.26, 0.672864
3860.13, 0.673036
3863.01, 0.673324
3865.89, 0.673554
3868.77, 0.673785
3871.66, 0.674072
3874.55, 0.674705
3877.45, 0.675223
3880.35, 0.675626
3883.26, 0.676144
3886.17, 0.676605
3889.09, 0.677123
3892.01, 0.677698
3894.93, 0.678159
3897.86, 0.678446
3900.79, 0.678734
3903.73, 0.678964
3906.67, 0.679252
3909.62, 0.679482
3912.57, 0.679540
3915.52, 0.679713
3918.48, 0.679885
3921.45, 0.679770
3924.42, 0.679713
3927.39, 0.679770
3930.37, 0.679655
3933.35, 0.679597
3936.34, 0.679482
3939.33, 0.679367
3942.32, 0.679252
3945.32, 0.679252
3948.33, 0.679195
3951.34, 0.679195
3954.35, 0.679195
3957.37, 0.678907
3960.39, 0.678677
3963.42, 0.678562
3966.45, 0.678504
3969.49, 0.678562
3972.53, 0.678446
3975.58, 0.678331
3978.63, 0.678216
3981.68, 0.678216
3984.75, 0.678216
3987.81, 0.678044
3990.88, 0.677986
3993.95, 0.677698
3997.03, 0.677410
4000.12, 0.677008
4003.21, 0.676374
4006.3, 0.675569
4009.4, 0.674648
4012.5, 0.673612
4015.61, 0.672288
4018.72, 0.671137
4021.84, 0.670274
4024.96, 0.670159
4028.09, 0.670734
4031.22, 0.671540
4034.36, 0.672576
4037.5, 0.673727
4040.65, 0.674648
4043.8, 0.675396
4046.96, 0.675972
4050.12, 0.676432
4053.29, 0.676662
4056.46, 0.676950
4059.64, 0.677123
4062.82, 0.677295
4066.0, 0.677410
4069.19, 0.677583
4072.39, 0.677468
4075.59, 0.677353
4078.8, 0.677123
4082.01, 0.677065
4085.23, 0.677065
4088.45, 0.677008
4091.68, 0.676835
4094.91, 0.676777
4098.15, 0.676662
4101.39, 0.676432
4104.63, 0.676259
4107.89, 0.676144
4111.14, 0.676087
4114.41, 0.675972
4117.67, 0.675914
4120.95, 0.675856
4124.23, 0.675741
4127.51, 0.675684
4130.8, 0.675569
4134.09, 0.675339
4137.39, 0.675339
4140.7, 0.675281
4144.01, 0.675108
4147.32, 0.675051
4150.64, 0.674878
4153.97, 0.674820
4157.3, 0.674763
4160.64, 0.674648
4163.98, 0.674475
4167.33, 0.674418
4170.68, 0.674303
4174.04, 0.674072
4177.4, 0.673785
4180.77, 0.673727
4184.14, 0.673497
4187.52, 0.673209
4190.91, 0.673036
4194.3, 0.672633
4197.69, 0.672173
4201.1, 0.671482
4204.5, 0.670734
4207.92, 0.669756
4211.34, 0.668490
4214.76, 0.667108
4218.19, 0.665727
4221.62, 0.664231
4225.06, 0.662734
4228.51, 0.661180
4231.96, 0.659741
4235.42, 0.658590
4238.88, 0.657612
4242.35, 0.656864
4245.83, 0.656058
4249.31, 0.655252
4252.79, 0.654274
4256.28, 0.652374
4259.78, 0.648749
4263.29, 0.643914
4266.79, 0.638849
4270.31, 0.633669
4273.83, 0.627972
4277.35, 0.621583
4280.89, 0.614504
4284.42, 0.606734
4287.97, 0.597986
4291.52, 0.587972
4295.07, 0.576691
4298.63, 0.564432
4302.2, 0.551655
4305.78, 0.539799
4309.35, 0.530475
4312.94, 0.525928
4316.53, 0.527655
4320.13, 0.535425
4323.73, 0.546993
4327.34, 0.560518
4330.96, 0.574216
4334.58, 0.587051
4338.21, 0.598331
4341.84, 0.608173
4345.48, 0.616633
4349.12, 0.624000
4352.77, 0.630504
4356.43, 0.636144
4360.1, 0.640921
4363.76, 0.645007
4367.44, 0.648403
4371.12, 0.651223
4374.81, 0.653468
4378.51, 0.655195
4382.21, 0.656518
4385.92, 0.657669
4389.63, 0.658590
4393.35, 0.659281
4397.08, 0.659684
4400.81, 0.660144
4404.55, 0.660662
4408.29, 0.660892
4412.04, 0.660892
4415.8, 0.660950
4419.57, 0.660950
4423.34, 0.660892
4427.12, 0.660835
4430.9, 0.660720
4434.69, 0.660605
4438.49, 0.660547
4442.29, 0.660374
4446.1, 0.660144
4449.92, 0.659914
4453.74, 0.659684
4457.57, 0.659454
4461.41, 0.659338
4465.25, 0.658993
4469.1, 0.658763
4472.95, 0.658533
4476.82, 0.658360
4480.69, 0.658015
4484.56, 0.657785
4488.44, 0.657439
4492.33, 0.657151
4496.23, 0.656921
4500.13, 0.656749
4504.04, 0.656403
4507.96, 0.656058
4511.88, 0.655655
4515.81, 0.655195
4519.75, 0.654792
4523.69, 0.654274
4527.65, 0.653641
4531.6, 0.652950
4535.57, 0.652259
4539.54, 0.651569
4543.52, 0.650820
4547.5, 0.650130
4551.5, 0.649382
4555.5, 0.648864
4559.5, 0.648173
4563.52, 0.647482
4567.54, 0.646907
4571.56, 0.646331
4575.6, 0.645813
4579.64, 0.645238
4583.69, 0.644662
4587.75, 0.644144
4591.81, 0.643511
4595.88, 0.642878
4599.96, 0.642245
4604.04, 0.641669
4608.14, 0.641036
4612.24, 0.640461
4616.34, 0.639885
4620.46, 0.639482
4624.58, 0.639137
4628.71, 0.639022
4632.84, 0.638849
4636.99, 0.638619
4641.14, 0.638389
4645.3, 0.638331
4649.47, 0.638274
4653.64, 0.638159
4657.82, 0.637986
4662.01, 0.637871
4666.21, 0.637583
4670.41, 0.637353
4674.62, 0.637008
4678.84, 0.636720
4683.07, 0.636432
4687.3, 0.636202
4691.54, 0.635856
4695.79, 0.635511
4700.05, 0.635166
4704.31, 0.634820
4708.59, 0.634475
4712.87, 0.634245
4717.15, 0.633842
4721.45, 0.633382
4725.76, 0.632979
4730.07, 0.632518
4734.39, 0.632000
4738.72, 0.631540
4743.05, 0.631022
4747.39, 0.630331
4751.75, 0.629641
4756.1, 0.629123
4760.47, 0.628547
4764.85, 0.627972
4769.23, 0.627338
4773.62, 0.626590
4778.02, 0.625727
4782.43, 0.624864
4786.85, 0.624000
4791.27, 0.623079
4795.7, 0.621928
4800.14, 0.620720
4804.59, 0.619396
4809.05, 0.618015
4813.51, 0.616518
4817.99, 0.614907
4822.47, 0.613180
4826.96, 0.611396
4831.46, 0.609382
4835.96, 0.607310
4840.48, 0.605123
4845.0, 0.602820
4849.54, 0.600288
4854.08, 0.597525
4858.63, 0.594533
4863.18, 0.591482
4867.75, 0.588144
4872.33, 0.584288
4876.91, 0.580087
4881.5, 0.575367
4886.1, 0.570475
4890.71, 0.565180
4895.33, 0.559195
4899.96, 0.552749
4904.59, 0.545900
4909.24, 0.538763
4913.89, 0.531454
4918.55, 0.524144
4923.22, 0.517007
4927.9, 0.510216
4932.59, 0.504230
4937.29, 0.499223
4942.0, 0.495022
4946.71, 0.491741
4951.44, 0.489784
4956.17, 0.488921
4960.91, 0.489094
4965.67, 0.490130
4970.43, 0.491741
4975.2, 0.493583
4979.98, 0.495482
4984.76, 0.497209
4989.56, 0.498648
4994.37, 0.499569
4999.18, 0.500087
5004.01, 0.500029
5008.84, 0.499626
5013.69, 0.498993
5018.54, 0.498015
5023.4, 0.496806
5028.28, 0.495310
5033.16, 0.493756
5038.05, 0.491971
5042.95, 0.490072
5047.86, 0.488000
5052.78, 0.485698
5057.71, 0.483396
5062.65, 0.480921
5067.6, 0.478274
5072.56, 0.475396
5077.53, 0.472403
5082.5, 0.469238
5087.49, 0.465957
5092.49, 0.462619
5097.5, 0.459051
5102.51, 0.455367
5107.54, 0.451914
5112.58, 0.448576
5117.62, 0.445180
5122.68, 0.441784
5127.75, 0.438389
5132.82, 0.435108
5137.91, 0.432058
5143.01, 0.428892
5148.12, 0.425727
5153.23, 0.422331
5158.36, 0.418648
5163.5, 0.414849
5168.65, 0.410763
5173.81, 0.406446
5178.98, 0.401784
5184.15, 0.396777
5189.34, 0.391482
5194.54, 0.385727
5199.75, 0.379799
5204.98, 0.373410
5210.21, 0.366619
5215.45, 0.359597
5220.7, 0.352461
5225.96, 0.344979
5231.23, 0.337439
5236.52, 0.329842
5241.81, 0.322475
5247.12, 0.315396
5252.44, 0.308777
5257.76, 0.302734
5263.1, 0.297324
5268.45, 0.292432
5273.81, 0.288173
5279.18, 0.284317
5284.56, 0.280979
5289.95, 0.277813
5295.36, 0.274820
5300.77, 0.271827
5306.2, 0.268835
5311.63, 0.265784
5317.08, 0.262849
5322.54, 0.259856
5328.01, 0.256921
5333.49, 0.254158
5338.98, 0.251856
5344.49, 0.249727
5350.0, 0.247885
5355.53, 0.246216
5361.07, 0.244892
5366.62, 0.243856
5372.18, 0.243223
5377.75, 0.242705
5383.34, 0.242763
5388.93, 0.242993
5394.54, 0.243453
5400.16, 0.243799
5405.79, 0.244202
5411.44, 0.244374
5417.09, 0.244259
5422.76, 0.243684
5428.43, 0.242763
5434.12, 0.241324
5439.83, 0.239597
5445.54, 0.237583
5451.26, 0.235568
5457.0, 0.233209
5462.75, 0.231137
5468.52, 0.229295
5474.29, 0.227511
5480.08, 0.226015
5485.88, 0.224806
5491.69, 0.223597
5497.51, 0.222791
5503.35, 0.221871
5509.2, 0.221122
5515.06, 0.220489
5520.93, 0.220489
5526.82, 0.220777
5532.71, 0.221813
5538.63, 0.223194
5544.55, 0.225324
5550.49, 0.228029
5556.44, 0.231597
5562.4, 0.235684
5568.37, 0.240403
5574.36, 0.245353
5580.36, 0.251511
5586.37, 0.257957
5592.4, 0.264576
5598.44, 0.271540
5604.49, 0.279079
5610.56, 0.286446
5616.63, 0.293813
5622.73, 0.300720
5628.83, 0.307338
5634.95, 0.313266
5641.08, 0.319310
5647.23, 0.325238
5653.39, 0.330360
5659.56, 0.335194
5665.74, 0.339338
5671.94, 0.343079
5678.15, 0.346935
5684.38, 0.350158
5690.62, 0.352979
5696.87, 0.355281
5703.14, 0.356835
5709.42, 0.358158
5715.72, 0.359022
5722.03, 0.359137
5728.35, 0.358561
5734.69, 0.357410
5741.03, 0.355741
5747.4, 0.353784
5753.78, 0.351597
5760.17, 0.348777
5766.58, 0.346648
5773.0, 0.345209
5779.44, 0.344000
5785.88, 0.343137
5792.35, 0.343137
5798.83, 0.343885
5805.32, 0.345381
5811.83, 0.346993
5818.35, 0.349007
5824.89, 0.352058
5831.45, 0.355338
5838.01, 0.358561
5844.59, 0.361899
5851.19, 0.365295
5857.8, 0.368633
5864.43, 0.371799
5871.07, 0.374158
5877.73, 0.375540
5884.4, 0.377612
5891.09, 0.378763
5897.79, 0.380317
5904.5, 0.382331
5911.23, 0.384173
5917.98, 0.386302
5924.75, 0.388144
5931.53, 0.389698
5938.32, 0.392000
5945.13, 0.393842
5951.96, 0.394820
5958.8, 0.395166
5965.65, 0.395051
5972.53, 0.395108
5979.42, 0.394302
5986.32, 0.393094
5993.24, 0.391828
6000.18, 0.390159
6007.13, 0.388029
6014.1, 0.385842
6021.08, 0.383828
6028.09, 0.381698
6035.1, 0.379166
6042.14, 0.376403
6049.19, 0.374274
6056.25, 0.373007
6063.34, 0.370705
6070.44, 0.368403
6077.55, 0.366561
6084.69, 0.364835
6091.84, 0.362878
6099.0, 0.361151
6106.19, 0.359310
6113.39, 0.357871
6120.61, 0.356950
6127.84, 0.355799
6135.09, 0.354475
6142.36, 0.353324
6149.65, 0.352288
6156.95, 0.351194
6164.27, 0.350216
6171.61, 0.349065
6178.97, 0.347338
6186.34, 0.346130
6193.73, 0.345151
6201.14, 0.343712
6208.57, 0.342446
6216.01, 0.341295
6223.47, 0.340144
6230.95, 0.339051
6238.45, 0.337899
6245.97, 0.336748
6253.5, 0.335655
6261.06, 0.334676
6268.63, 0.333928
6276.21, 0.333295
6283.82, 0.332662
6291.45, 0.332087
6299.1, 0.331511
6306.76, 0.330993
6314.44, 0.330417
6322.14, 0.329727
6329.86, 0.328748
6337.6, 0.327597
6345.35, 0.326676
6353.13, 0.326101
6360.92, 0.324835
6368.74, 0.323684
6376.57, 0.322878
6384.43, 0.321957
6392.3, 0.320863
6400.19, 0.319712
6408.1, 0.318158
6416.03, 0.317410
6423.98, 0.316662
6431.95, 0.315396
6439.94, 0.314130
6447.95, 0.312748
6455.98, 0.311367
6464.03, 0.309698
6472.1, 0.308029
6480.19, 0.306417
6488.31, 0.304806
6496.44, 0.303828
6504.59, 0.303310
6512.76, 0.302216
6520.95, 0.301295
6529.16, 0.300604
6537.4, 0.299569
6545.65, 0.298417
6553.92, 0.297266
6562.22, 0.296000
6570.54, 0.294389
6578.88, 0.293007
6587.23, 0.291223
6595.61, 0.289497
6604.02, 0.287597
6612.44, 0.285698
6620.89, 0.283453
6629.35, 0.280921
6637.84, 0.278676
6646.35, 0.276950
6654.88, 0.274993
6663.44, 0.272806
6672.01, 0.270734
6680.61, 0.268892
6689.23, 0.267108
6697.88, 0.265209
6706.54, 0.263310
6715.23, 0.261640
6723.94, 0.259971
6732.67, 0.258475
6741.42, 0.257094
6750.2, 0.256115
6759.0, 0.255425
6767.82, 0.254849
6776.67, 0.254043
6785.54, 0.253295
6794.44, 0.252720
6803.35, 0.252202
6812.29, 0.251338
6821.26, 0.250360
6830.24, 0.249381
6839.25, 0.248288
6848.29, 0.246849
6857.35, 0.245295
6866.43, 0.243914
6875.54, 0.242705
6884.67, 0.241036
6893.82, 0.239309
6903.0, 0.237353
6912.2, 0.235568
6921.43, 0.233669
6930.69, 0.231770
6939.96, 0.229640
6949.27, 0.227626
6958.59, 0.225497
6967.95, 0.223770
6977.33, 0.221928
6986.73, 0.220259
6996.16, 0.218590
7005.61, 0.217324
7015.09, 0.216000
7024.6, 0.215022
7034.13, 0.214101
7043.69, 0.213410
7053.27, 0.212950
7062.88, 0.212317
7072.52, 0.211511
7082.18, 0.210705
7091.87, 0.209554
7101.58, 0.208345
7111.32, 0.207022
7121.09, 0.205640
7130.88, 0.204144
7140.71, 0.202417
7150.56, 0.200461
7160.43, 0.198791
7170.33, 0.196950
7180.27, 0.195166
7190.23, 0.193324
7200.21, 0.191597
7210.23, 0.189640
7220.27, 0.187684
7230.34, 0.185727
7240.44, 0.183597
7250.56, 0.181410
7260.72, 0.179396
7270.9, 0.177324
7281.12, 0.175425
7291.36, 0.173468
7301.63, 0.171511
7311.93, 0.169496
7322.25, 0.167367
7332.61, 0.165065
7343.0, 0.162590
7353.41, 0.160115
7363.86, 0.157640
7374.33, 0.155108
7384.83, 0.152691
7395.37, 0.150273
7405.93, 0.148144
7416.53, 0.145842
7427.15, 0.143597
7437.81, 0.141410
7448.5, 0.139511
7459.22, 0.137496
7469.96, 0.135655
7480.74, 0.133755
7491.55, 0.132086
7502.39, 0.130302
7513.27, 0.128748
7524.17, 0.126964
7535.11, 0.125122
7546.08, 0.123108
7557.08, 0.121266
7568.11, 0.119137
7579.17, 0.117237
7590.27, 0.115511
7601.4, 0.113957
7612.56, 0.112288
7623.76, 0.110734
7634.98, 0.109122
7646.24, 0.107511
7657.54, 0.105899
7668.87, 0.104576
7680.23, 0.102907
7691.62, 0.101410
7703.05, 0.0998560
7714.51, 0.0983020
7726.01, 0.0964600
7737.54, 0.0945610
7749.11, 0.0924890
7760.71, 0.0903600
7772.35, 0.0880580
7784.02, 0.0856400
7795.72, 0.0828780
7807.46, 0.0802300
7819.23, 0.0774680
7831.04, 0.0750500
7842.89, 0.0725760
7854.77, 0.0703890
7866.69, 0.0679710
7878.65, 0.0658420
7890.64, 0.0635400
7902.67, 0.0614680
7914.74, 0.0591660
7926.84, 0.0571510
7938.98, 0.0551370
7951.16, 0.0531220
7963.37, 0.0509930
7975.62, 0.0492090
7987.91, 0.0473670
8000.24, 0.0456400
8012.6, 0.0438560
8025.01, 0.0421870
8037.45, 0.0405760
8049.93, 0.0390790
8062.45, 0.0375250
8075.01, 0.0361440
8087.61, 0.0345320
8100.24, 0.0331510
8112.91, 0.0318850
8125.63, 0.0306190
8138.39, 0.0292950
8151.18, 0.0280860
8164.02, 0.0265320
8176.9, 0.0253240
8189.81, 0.0238850
8202.77, 0.0224460
8215.77, 0.0210650
8228.82, 0.0197990
8241.9, 0.0184750
8255.02, 0.0173810
8268.19, 0.0162880
8281.39, 0.0154240
8294.65, 0.0142160
8307.94, 0.0132370
8321.28, 0.0123740
8334.66, 0.0115680
8348.08, 0.0107050
8361.54, 0.0100720
8375.05, 0.00943900
8388.6, 0.00886300
8402.2, 0.00828800
8415.84, 0.00800000
8429.52, 0.00765500
8443.25, 0.00742400
8457.02, 0.00719400
8470.84, 0.00742400
8484.7, 0.00782700
8498.61, 0.00857600
8512.57, 0.00955400
8526.57, 0.0111650
8540.62, 0.0126040
8554.71, 0.0139280
8568.85, 0.0143310
8583.04, 0.0141580
8597.27, 0.0131800
8611.55, 0.0119710
8625.88, 0.0107630
8640.26, 0.00995700
8654.68, 0.00926600
8669.16, 0.00886300
8683.68, 0.00828800
8698.25, 0.00782700
8712.87, 0.00736700
8727.53, 0.00707900
8742.25, 0.00679100
8757.02, 0.00661900
8771.83, 0.00638800
8786.7, 0.00627300
8801.62, 0.00627300
8816.59, 0.00638800
8831.61, 0.00656100
8846.68, 0.00713700
8861.8, 0.00742400
8876.97, 0.00788500
8892.2, 0.00840300
8907.48, 0.00926600
8922.81, 0.0100140
8938.2, 0.0109350
8953.63, 0.0120290
8969.13, 0.0133530
8984.67, 0.0146190
9000.27, 0.0161150
9015.92, 0.0176690
9031.63, 0.0194530
9047.39, 0.0211800
9063.21, 0.0231370
9079.08, 0.0256690
9095.01, 0.0286620
9111.0, 0.0314820
9127.04, 0.0347050
9143.13, 0.0382160
9159.28, 0.0420720
9175.49, 0.0462730
9191.76, 0.0509930
9208.09, 0.0557700
9224.47, 0.0611220
9240.92, 0.0665900
9257.42, 0.0721730
9273.98, 0.0779280
9290.6, 0.0840860
9307.28, 0.0898990
9324.02, 0.0957700
9340.82, 0.101525
9357.68, 0.107568
9374.6, 0.113439
9391.58, 0.119137
9408.62, 0.124489
9425.73, 0.130014
9442.9, 0.135597
9460.13, 0.140835
9477.42, 0.145842
9494.78, 0.150791
9512.2, 0.155338
9529.69, 0.159540
9547.24, 0.163166
9564.86, 0.166389
9582.54, 0.168691
9600.28, 0.170475
9618.1, 0.172086
9635.97, 0.173410
9653.92, 0.174504
9671.93, 0.175712
9690.01, 0.176633
9708.16, 0.177669
9726.37, 0.178763
9744.65, 0.179741
9763.0, 0.180777
9781.43, 0.181640
9799.92, 0.182273
9818.48, 0.182791
9837.1, 0.183137
9855.8, 0.183540
9874.58, 0.183079
9893.42, 0.181525
9912.34, 0.178993
9931.33, 0.175425
9950.39, 0.171453
9969.52, 0.167540
9988.74, 0.163511
10008.0, 0.159943
10027.4, 0.156547
10046.8, 0.153957
10066.3, 0.152173
10085.9, 0.150849
10105.6, 0.149928
10125.3, 0.149928
10145.1, 0.151367
10165.0, 0.155108
10185.0, 0.161151
10205.0, 0.169151
10225.2, 0.178130
10245.4, 0.186820
10265.7, 0.193727
10286.0, 0.198907
10306.5, 0.203166
10327.0, 0.206561
10347.6, 0.209497
10368.3, 0.212317
10389.1, 0.214446
10409.9, 0.216230
10430.9, 0.217439
10451.9, 0.218015
10473.0, 0.218533
10494.2, 0.219108
10515.5, 0.219281
10536.9, 0.218763
10558.4, 0.217266
10579.9, 0.214849
10601.5, 0.211108
10623.3, 0.206273
10645.1, 0.200173
10667.0, 0.193324
10689.0, 0.187166
10711.1, 0.183194
10733.2, 0.181698
10755.5, 0.182446
10777.9, 0.184403
10800.3, 0.186245
10822.9, 0.187166
10845.5, 0.187108
10868.2, 0.185784
10891.1, 0.183827
10914.0, 0.181525
10937.0, 0.179971
10960.2, 0.180317
10983.4, 0.182273
11006.7, 0.185266
11030.1, 0.188950
11053.6, 0.192288
11077.3, 0.194532
11101.0, 0.195281
11124.8, 0.194705
11148.7, 0.193381
11172.7, 0.191770
11196.9, 0.190619
11221.1, 0.191367
11245.4, 0.193209
11269.9, 0.195281
11294.4, 0.196835
11319.1, 0.197583
11343.9, 0.197525
11368.8, 0.196432
11393.7, 0.194302
11418.8, 0.191885
11444.0, 0.188950
11469.4, 0.185612
11494.8, 0.181813
11520.3, 0.177439
11546.0, 0.172835
11571.8, 0.168691
11597.7, 0.164029
11623.7, 0.158561
11649.8, 0.152576
11676.0, 0.146130
11702.4, 0.139453
11728.9, 0.133698
11755.5, 0.129209
11782.2, 0.125871
11809.0, 0.122993
11836.0, 0.120576
11863.0, 0.118734
11890.3, 0.117353
11917.6, 0.115914
11945.0, 0.114878
11972.6, 0.114245
12000.4, 0.114014
12028.2, 0.113899
12056.2, 0.113957
12084.3, 0.113899
12112.5, 0.114360
12140.9, 0.114705
12169.4, 0.115108
12198.0, 0.115108
12226.8, 0.115281
12255.7, 0.115281
12284.7, 0.115511
12313.9, 0.116029
12343.2, 0.116374
12372.7, 0.116489
12402.3, 0.116777
12432.0, 0.117180
12461.9, 0.117986
12491.9, 0.117986
12522.1, 0.117583
12552.4, 0.116835
12582.9, 0.115971
12613.5, 0.115223
12644.3, 0.114475
12675.2, 0.113381
12706.3, 0.111425
12737.5, 0.108950
12768.9, 0.106245
12800.4, 0.102849
12832.1, 0.0985320
12863.9, 0.0928920
12895.9, 0.0871370
12928.1, 0.0813240
12960.4, 0.0772370
12992.9, 0.0754530
13025.5, 0.0764890
13058.3, 0.0789070
13091.3, 0.0812090
13124.4, 0.0827050
13157.8, 0.0828780
13191.2, 0.0813810
13224.9, 0.0794820
13258.7, 0.0776980
13292.7, 0.0760290
13326.9, 0.0734390
13361.2, 0.0706760
13395.7, 0.0681440
13430.4, 0.0655540
13465.3, 0.0621580
13500.4, 0.0584750
13535.7, 0.0548490
13571.1, 0.0516260
13606.7, 0.0477700
13642.5, 0.0435110
13678.5, 0.0391370
13714.7, 0.0350500
13751.1, 0.0310220
13787.6, 0.0270500
13824.4, 0.0230220
13861.4, 0.0193960
13898.5, 0.0163450
13935.9, 0.0137550
13973.5, 0.0121440
14011.2, 0.0127770
14049.2, 0.0142730
14087.4, 0.0164030
14125.8, 0.0188200
14164.3, 0.0204320
14203.2, 0.0200290
14242.2, 0.0188200
14281.4, 0.0178420
14320.9, 0.0178990
14360.5, 0.0191080
14400.4, 0.0221580
14440.5, 0.0277410
14480.9, 0.0357990
14521.4, 0.0455250
14562.2, 0.0564600
14603.3, 0.0669930
14644.5, 0.0761440
14686.0, 0.0841440
14727.7, 0.0926040
14769.7, 0.101928
14811.9, 0.112863
14854.3, 0.123799
14897.0, 0.133640
14939.9, 0.141295
14983.1, 0.149065
15026.5, 0.157237
15070.2, 0.164317
15114.2, 0.169842
15158.3, 0.174619
15202.8, 0.179338
15247.5, 0.183137
15292.5, 0.185957
15337.7, 0.188317
15383.2, 0.190676
15429.0, 0.192633
15475.1, 0.193669
15521.4, 0.195108
15568.0, 0.196604
15614.9, 0.197007
15662.1, 0.196662
15709.6, 0.196892
15757.3, 0.196835
15805.4, 0.195799
15853.7, 0.194302
15902.3, 0.192806
15951.2, 0.191540
16000.5, 0.190101
16050.0, 0.187684
16099.8, 0.185266
16150.0, 0.181986
16200.5, 0.177669
16251.3, 0.171856
16302.4, 0.164892
16353.8, 0.156489
16405.5, 0.147281
16457.6, 0.137727
16510.0, 0.128518
16562.8, 0.119022
16615.9, 0.110504
16669.3, 0.103655
16723.1, 0.0967480
16777.2, 0.0902450
16831.7, 0.0839710
16886.5, 0.0764890
16941.7, 0.0701580
16997.2, 0.0685470
17053.1, 0.0710220
17109.4, 0.0724600
17166.1, 0.0716550
17223.1, 0.0694680
17280.5, 0.0666480
17338.3, 0.0627910
17396.5, 0.0597990
17455.1, 0.0588780
17514.0, 0.0596830
17573.4, 0.0613530
17633.2, 0.0623310
17693.4, 0.0614100
17754.0, 0.0613530
17815.0, 0.0654960
17876.4, 0.0771800
17938.3, 0.0970360
18000.5, 0.120000
18063.3, 0.138763
18126.4, 0.152806
18190.0, 0.163626
18254.1, 0.169784
18318.6, 0.170302
18383.5, 0.168115
18449.0, 0.163684
18514.9, 0.157410
18581.2, 0.151943
18648.0, 0.145554
18715.4, 0.137899
18783.2, 0.133295
18851.5, 0.132892
18920.3, 0.132835
18989.6, 0.130130
19059.4, 0.127137
19129.7, 0.121669
19200.6, 0.115338
19272.0, 0.110734
19343.9, 0.108892
19416.3, 0.107914
19489.3, 0.109583
19562.8, 0.113151
19637.0, 0.114705
19711.6, 0.116317
19786.8, 0.120921
19862.6, 0.129324
19939.0, 0.139684
20016.0, 0.147511
20093.6, 0.150101
20171.8, 0.147856
20250.6, 0.146302
20330.0, 0.143022
20410.0, 0.136863
20490.7, 0.140029
20572.0, 0.155223
20654.0, 0.163511
20736.6, 0.157698
20819.9, 0.145784
20903.8, 0.135770
20988.5, 0.123799
21073.8, 0.111712
21159.8, 0.111367
21246.5, 0.134389
21334.0, 0.168345
21422.1, 0.192748
21511.0, 0.200863
21600.7, 0.202935
21691.0, 0.208230
21782.1, 0.214849
21874.0, 0.217324
21966.7, 0.216058
22060.2, 0.210878
22154.5, 0.202532
22249.6, 0.194878
22345.5, 0.190331
22442.2, 0.186935
22539.8, 0.181698
22638.2, 0.175597
22737.5, 0.173986
22837.7, 0.170935
22938.7, 0.162130
23040.7, 0.153439
23143.5, 0.150216
23247.3, 0.146878
23352.1, 0.140374
23457.7, 0.131626
23564.4, 0.123856
23672.0, 0.125353
23780.5, 0.134676
23890.1, 0.134216
24000.7, 0.132950
24112.3, 0.130532
24225.0, 0.126676
24338.7, 0.121727
24453.5, 0.117237
24569.4, 0.112806
24686.4, 0.110158
24804.5, 0.107166
24923.8, 0.113094
