Database of Origin, USGS Spectral Database
Sample Description, See USGS database for additional info
Date Added,2016-08-03 21:23:53.316067

Data ID,USGS_cli03          
Sample ID, clinochlore_gds157.5580
Mineral Name, clinochlore
Material Class,Phyllosilicate

Wavelength
1520.28, 0.156538
1520.73, 0.156355
1521.17, 0.156599
1521.62, 0.156722
1522.07, 0.156294
1522.51, 0.156722
1522.96, 0.157333
1523.41, 0.156477
1523.85, 0.156355
1524.3, 0.157394
1524.75, 0.157516
1525.2, 0.157638
1525.65, 0.158188
1526.1, 0.158310
1526.55, 0.158554
1527.0, 0.158982
1527.45, 0.158799
1527.9, 0.157882
1528.35, 0.157760
1528.8, 0.158677
1529.25, 0.159715
1529.7, 0.159899
1530.15, 0.160265
1530.6, 0.160632
1531.05, 0.160937
1531.51, 0.160815
1531.96, 0.160998
1532.41, 0.161671
1532.87, 0.161487
1533.32, 0.161671
1533.77, 0.162282
1534.23, 0.163076
1534.68, 0.163687
1535.14, 0.163565
1535.59, 0.163381
1536.05, 0.163320
1536.5, 0.164176
1536.96, 0.165092
1537.41, 0.165031
1537.87, 0.165459
1538.32, 0.166742
1538.78, 0.166986
1539.24, 0.167414
1539.7, 0.167658
1540.15, 0.167964
1540.61, 0.168086
1541.07, 0.168880
1541.53, 0.169308
1541.98, 0.169430
1542.44, 0.169736
1542.9, 0.170530
1543.36, 0.171080
1543.82, 0.171691
1544.28, 0.171997
1544.74, 0.172546
1545.2, 0.172852
1545.66, 0.173646
1546.12, 0.173829
1546.59, 0.174563
1547.05, 0.174929
1547.51, 0.175174
1547.97, 0.175479
1548.43, 0.176457
1548.9, 0.177190
1549.36, 0.177801
1549.82, 0.178045
1550.29, 0.178656
1550.75, 0.179451
1551.21, 0.179634
1551.68, 0.179573
1552.14, 0.180123
1552.61, 0.180673
1553.07, 0.181589
1553.54, 0.181650
1554.0, 0.181956
1554.47, 0.182567
1554.93, 0.183361
1555.4, 0.184216
1555.87, 0.184522
1556.34, 0.184583
1556.8, 0.185744
1557.27, 0.186783
1557.74, 0.187088
1558.21, 0.187088
1558.68, 0.187455
1559.14, 0.187944
1559.61, 0.189104
1560.08, 0.189838
1560.55, 0.190021
1561.02, 0.190388
1561.49, 0.191365
1561.96, 0.191854
1562.43, 0.192221
1562.9, 0.192404
1563.38, 0.192893
1563.85, 0.193443
1564.32, 0.194481
1564.79, 0.195092
1565.26, 0.195826
1565.74, 0.196437
1566.21, 0.196986
1566.68, 0.196925
1567.16, 0.197170
1567.63, 0.198025
1568.1, 0.198453
1568.58, 0.198758
1569.05, 0.199614
1569.53, 0.200041
1570.0, 0.201080
1570.48, 0.201752
1570.96, 0.201874
1571.43, 0.201936
1571.91, 0.202608
1572.39, 0.203341
1572.86, 0.204135
1573.34, 0.204441
1573.82, 0.204502
1574.3, 0.204868
1574.77, 0.206274
1575.25, 0.207312
1575.73, 0.207679
1576.21, 0.207435
1576.69, 0.207923
1577.17, 0.208718
1577.65, 0.209206
1578.13, 0.209329
1578.61, 0.210001
1579.09, 0.211101
1579.57, 0.211711
1580.05, 0.211895
1580.54, 0.212811
1581.02, 0.213606
1581.5, 0.213972
1581.98, 0.214339
1582.47, 0.215194
1582.95, 0.215744
1583.43, 0.216050
1583.92, 0.216294
1584.4, 0.216844
1584.88, 0.217760
1585.37, 0.218494
1585.85, 0.218494
1586.34, 0.219166
1586.82, 0.220021
1587.31, 0.220449
1587.8, 0.220143
1588.28, 0.220693
1588.77, 0.221610
1589.26, 0.222282
1589.74, 0.222587
1590.23, 0.223382
1590.72, 0.223748
1591.21, 0.224237
1591.7, 0.224665
1592.19, 0.225276
1592.67, 0.225459
1593.16, 0.225948
1593.65, 0.226375
1594.14, 0.226925
1594.63, 0.227903
1595.12, 0.228697
1595.61, 0.228881
1596.11, 0.229614
1596.6, 0.229980
1597.09, 0.230591
1597.58, 0.231447
1598.08, 0.231936
1598.57, 0.231691
1599.06, 0.232119
1599.55, 0.232974
1600.05, 0.233463
1600.54, 0.233463
1601.04, 0.233891
1601.53, 0.234563
1602.03, 0.235296
1602.52, 0.235602
1603.02, 0.236396
1603.51, 0.237251
1604.01, 0.237679
1604.5, 0.237862
1605.0, 0.238473
1605.5, 0.238718
1606.0, 0.239451
1606.49, 0.240184
1606.99, 0.240429
1607.49, 0.240795
1607.99, 0.241039
1608.49, 0.240978
1608.99, 0.241895
1609.49, 0.242628
1609.99, 0.243239
1610.49, 0.243789
1610.99, 0.244033
1611.49, 0.244522
1611.99, 0.245316
1612.49, 0.245500
1612.99, 0.245805
1613.49, 0.246355
1614.0, 0.247272
1614.5, 0.247699
1615.0, 0.247822
1615.51, 0.247883
1616.01, 0.248433
1616.51, 0.249105
1617.02, 0.249899
1617.52, 0.250327
1618.03, 0.250632
1618.53, 0.251060
1619.04, 0.251671
1619.54, 0.251854
1620.05, 0.252282
1620.55, 0.252587
1621.06, 0.252710
1621.57, 0.253198
1622.08, 0.253809
1622.58, 0.254420
1623.09, 0.254909
1623.6, 0.255276
1624.11, 0.255826
1624.62, 0.256009
1625.13, 0.256314
1625.64, 0.256803
1626.15, 0.257537
1626.66, 0.257903
1627.17, 0.258025
1627.68, 0.258331
1628.19, 0.259003
1628.7, 0.259431
1629.21, 0.259980
1629.72, 0.260408
1630.24, 0.261080
1630.75, 0.261508
1631.26, 0.261997
1631.78, 0.262302
1632.29, 0.262608
1632.8, 0.262974
1633.32, 0.263524
1633.83, 0.264013
1634.35, 0.264380
1634.86, 0.264502
1635.38, 0.264807
1635.9, 0.265174
1636.41, 0.265846
1636.93, 0.266457
1637.45, 0.266763
1637.96, 0.267007
1638.48, 0.267679
1639.0, 0.268168
1639.52, 0.268412
1640.04, 0.268840
1640.56, 0.269695
1641.08, 0.270001
1641.59, 0.270123
1642.11, 0.270673
1642.63, 0.271406
1643.16, 0.271712
1643.68, 0.271956
1644.2, 0.272078
1644.72, 0.272445
1645.24, 0.272812
1645.76, 0.273300
1646.29, 0.273911
1646.81, 0.274339
1647.33, 0.274583
1647.86, 0.274889
1648.38, 0.275439
1648.9, 0.276172
1649.43, 0.276233
1649.95, 0.276233
1650.48, 0.276722
1651.0, 0.277516
1651.53, 0.277700
1652.06, 0.277822
1652.58, 0.278433
1653.11, 0.278921
1653.64, 0.279349
1654.17, 0.279899
1654.69, 0.280449
1655.22, 0.280999
1655.75, 0.281121
1656.28, 0.281488
1656.81, 0.281488
1657.34, 0.281732
1657.87, 0.282160
1658.4, 0.282893
1658.93, 0.283565
1659.46, 0.283871
1659.99, 0.283932
1660.52, 0.284298
1661.05, 0.284604
1661.59, 0.285398
1662.12, 0.285826
1662.65, 0.286070
1663.19, 0.286559
1663.72, 0.287170
1664.26, 0.287475
1664.79, 0.288025
1665.32, 0.288270
1665.86, 0.288514
1666.39, 0.288636
1666.93, 0.288759
1667.47, 0.289553
1668.0, 0.289919
1668.54, 0.290103
1669.08, 0.290836
1669.61, 0.291080
1670.15, 0.291508
1670.69, 0.291936
1671.23, 0.292363
1671.77, 0.292486
1672.31, 0.292975
1672.85, 0.293402
1673.39, 0.293769
1673.93, 0.294135
1674.47, 0.294930
1675.01, 0.295174
1675.55, 0.295357
1676.09, 0.295663
1676.64, 0.296213
1677.18, 0.296763
1677.72, 0.297252
1678.26, 0.297374
1678.81, 0.297435
1679.35, 0.297496
1679.89, 0.298107
1680.44, 0.298351
1680.98, 0.298901
1681.53, 0.299207
1682.07, 0.299512
1682.62, 0.299695
1683.17, 0.300062
1683.71, 0.300490
1684.26, 0.300734
1684.81, 0.301162
1685.36, 0.301590
1685.9, 0.302078
1686.45, 0.302934
1687.0, 0.303178
1687.55, 0.303239
1688.1, 0.303728
1688.65, 0.304278
1689.2, 0.304278
1689.75, 0.304217
1690.3, 0.304583
1690.85, 0.305317
1691.41, 0.305439
1691.96, 0.305378
1692.51, 0.305989
1693.06, 0.306783
1693.61, 0.307455
1694.17, 0.307638
1694.72, 0.307577
1695.28, 0.307700
1695.83, 0.308005
1696.39, 0.308861
1696.94, 0.309655
1697.5, 0.309716
1698.05, 0.309594
1698.61, 0.309655
1699.17, 0.309960
1699.72, 0.310449
1700.28, 0.310755
1700.84, 0.311305
1701.4, 0.311610
1701.95, 0.311793
1702.51, 0.311977
1703.07, 0.312588
1703.63, 0.313015
1704.19, 0.313015
1704.75, 0.313260
1705.31, 0.313810
1705.88, 0.314115
1706.44, 0.314421
1707.0, 0.314543
1707.56, 0.314848
1708.12, 0.315459
1708.69, 0.315948
1709.25, 0.316192
1709.81, 0.316620
1710.38, 0.316987
1710.94, 0.317170
1711.51, 0.317415
1712.07, 0.317964
1712.64, 0.317842
1713.2, 0.318270
1713.77, 0.318759
1714.34, 0.318881
1714.9, 0.319125
1715.47, 0.319492
1716.04, 0.319797
1716.61, 0.320225
1717.18, 0.320469
1717.74, 0.321081
1718.31, 0.321447
1718.88, 0.321814
1719.45, 0.321997
1720.02, 0.322364
1720.59, 0.322486
1721.17, 0.322852
1721.74, 0.323219
1722.31, 0.323830
1722.88, 0.324319
1723.45, 0.324441
1724.03, 0.324808
1724.6, 0.325419
1725.18, 0.325602
1725.75, 0.325907
1726.33, 0.326335
1726.9, 0.326457
1727.48, 0.326580
1728.05, 0.327068
1728.63, 0.327374
1729.2, 0.327863
1729.78, 0.328168
1730.36, 0.328351
1730.94, 0.328657
1731.51, 0.329085
1732.09, 0.329451
1732.67, 0.330001
1733.25, 0.330307
1733.83, 0.330673
1734.41, 0.330918
1734.99, 0.331223
1735.57, 0.331406
1736.15, 0.331895
1736.73, 0.332323
1737.32, 0.332689
1737.9, 0.332873
1738.48, 0.333423
1739.07, 0.333728
1739.65, 0.333728
1740.23, 0.334034
1740.82, 0.334584
1741.4, 0.334828
1741.99, 0.335256
1742.57, 0.335439
1743.16, 0.335928
1743.74, 0.336355
1744.33, 0.336722
1744.92, 0.337150
1745.51, 0.337516
1746.09, 0.337761
1746.68, 0.338066
1747.27, 0.338372
1747.86, 0.338433
1748.45, 0.338861
1749.04, 0.339410
1749.63, 0.339227
1750.22, 0.339044
1750.81, 0.339349
1751.4, 0.339838
1751.99, 0.340266
1752.59, 0.340938
1753.18, 0.341427
1753.77, 0.341793
1754.37, 0.342160
1754.96, 0.342160
1755.56, 0.342221
1756.15, 0.342588
1756.74, 0.342832
1757.34, 0.343443
1757.94, 0.343871
1758.53, 0.344299
1759.13, 0.344604
1759.73, 0.344848
1760.32, 0.345154
1760.92, 0.345398
1761.52, 0.345398
1762.12, 0.345887
1762.72, 0.345948
1763.32, 0.346315
1763.92, 0.346743
1764.52, 0.346926
1765.12, 0.347109
1765.72, 0.347476
1766.32, 0.347964
1766.92, 0.348270
1767.53, 0.348637
1768.13, 0.349003
1768.73, 0.348942
1769.34, 0.349003
1769.94, 0.349309
1770.55, 0.349736
1771.15, 0.350042
1771.76, 0.350531
1772.36, 0.350714
1772.97, 0.350836
1773.57, 0.351325
1774.18, 0.351692
1774.79, 0.351753
1775.4, 0.351814
1776.0, 0.351997
1776.61, 0.352608
1777.22, 0.352914
1777.83, 0.353158
1778.44, 0.353158
1779.05, 0.353402
1779.66, 0.353708
1780.27, 0.354258
1780.88, 0.354563
1781.5, 0.354808
1782.11, 0.354930
1782.72, 0.355296
1783.33, 0.355785
1783.95, 0.356152
1784.56, 0.356396
1785.18, 0.356335
1785.79, 0.356152
1786.41, 0.356518
1787.02, 0.356946
1787.64, 0.357313
1788.26, 0.357557
1788.87, 0.357985
1789.49, 0.358474
1790.11, 0.358718
1790.73, 0.358779
1791.35, 0.359024
1791.96, 0.359451
1792.58, 0.359818
1793.21, 0.360062
1793.83, 0.360429
1794.45, 0.360551
1795.07, 0.360551
1795.69, 0.360734
1796.31, 0.361223
1796.93, 0.361712
1797.56, 0.362262
1798.18, 0.362751
1798.8, 0.362995
1799.43, 0.362995
1800.05, 0.362934
1800.68, 0.362995
1801.3, 0.363545
1801.93, 0.363973
1802.56, 0.364217
1803.18, 0.364339
1803.81, 0.364523
1804.44, 0.364828
1805.07, 0.365134
1805.7, 0.365256
1806.33, 0.365683
1806.95, 0.366050
1807.58, 0.366417
1808.22, 0.366539
1808.85, 0.366967
1809.48, 0.367516
1810.11, 0.367700
1810.74, 0.367761
1811.38, 0.368005
1812.01, 0.368127
1812.64, 0.368189
1813.28, 0.368494
1813.91, 0.369044
1814.55, 0.369472
1815.18, 0.369777
1815.82, 0.370083
1816.45, 0.370144
1817.09, 0.370266
1817.73, 0.370633
1818.36, 0.370999
1819.0, 0.371183
1819.64, 0.371244
1820.28, 0.371121
1820.92, 0.371610
1821.56, 0.372221
1822.2, 0.372588
1822.84, 0.372954
1823.48, 0.373443
1824.12, 0.373688
1824.76, 0.373749
1825.41, 0.373810
1826.05, 0.373504
1826.69, 0.374299
1827.34, 0.374910
1827.98, 0.374971
1828.63, 0.375154
1829.27, 0.375398
1829.92, 0.375521
1830.56, 0.375582
1831.21, 0.375643
1831.86, 0.376254
1832.5, 0.376559
1833.15, 0.376926
1833.8, 0.377354
1834.45, 0.377048
1835.1, 0.376865
1835.75, 0.377170
1836.4, 0.377170
1837.05, 0.377720
1837.7, 0.377781
1838.35, 0.378453
1839.01, 0.379003
1839.66, 0.378881
1840.31, 0.379248
1840.96, 0.379248
1841.62, 0.378514
1842.27, 0.379064
1842.93, 0.380042
1843.58, 0.380775
1844.24, 0.381081
1844.9, 0.381203
1845.55, 0.381325
1846.21, 0.380836
1846.87, 0.380103
1847.53, 0.380409
1848.18, 0.380836
1848.84, 0.381814
1849.5, 0.382364
1850.16, 0.382486
1850.82, 0.382791
1851.48, 0.383219
1852.14, 0.383036
1852.81, 0.382669
1853.47, 0.382303
1854.13, 0.382608
1854.8, 0.383280
1855.46, 0.383769
1856.12, 0.383647
1856.79, 0.383708
1857.45, 0.384319
1858.12, 0.384686
1858.79, 0.384625
1859.45, 0.384075
1860.12, 0.384075
1860.79, 0.384808
1861.46, 0.385358
1862.12, 0.385480
1862.79, 0.385663
1863.46, 0.385908
1864.13, 0.386030
1864.8, 0.386335
1865.48, 0.386580
1866.15, 0.386763
1866.82, 0.386396
1867.49, 0.385846
1868.16, 0.386091
1868.84, 0.386763
1869.51, 0.387069
1870.19, 0.386641
1870.86, 0.385969
1871.54, 0.386946
1872.21, 0.387252
1872.89, 0.386519
1873.56, 0.387130
1874.24, 0.388107
1874.92, 0.388290
1875.6, 0.388657
1876.28, 0.388596
1876.96, 0.388107
1877.64, 0.388840
1878.32, 0.389268
1879.0, 0.389757
1879.68, 0.390124
1880.36, 0.390185
1881.04, 0.390368
1881.73, 0.390551
1882.41, 0.390734
1883.09, 0.390857
1883.78, 0.390796
1884.46, 0.391101
1885.15, 0.391529
1885.83, 0.391773
1886.52, 0.392018
1887.21, 0.392323
1887.89, 0.392690
1888.58, 0.393056
1889.27, 0.393301
1889.96, 0.393301
1890.65, 0.393973
1891.34, 0.394339
1892.03, 0.394767
1892.72, 0.395317
1893.41, 0.395317
1894.1, 0.395561
1894.79, 0.396172
1895.49, 0.396600
1896.18, 0.396783
1896.87, 0.396722
1897.57, 0.396967
1898.26, 0.397333
1898.96, 0.397272
1899.65, 0.397028
1900.35, 0.397578
1901.05, 0.398616
1901.74, 0.399166
1902.44, 0.398800
1903.14, 0.398983
1903.84, 0.399899
1904.54, 0.399961
1905.24, 0.399777
1905.94, 0.400205
1906.64, 0.400449
1907.34, 0.401244
1908.04, 0.402160
1908.75, 0.402588
1909.45, 0.402588
1910.15, 0.402527
1910.86, 0.402832
1911.56, 0.403199
1912.27, 0.403566
1912.97, 0.403382
1913.68, 0.403260
1914.39, 0.404054
1915.09, 0.404665
1915.8, 0.404971
1916.51, 0.405215
1917.22, 0.405704
1917.93, 0.405948
1918.64, 0.405948
1919.35, 0.405887
1920.06, 0.405704
1920.77, 0.405887
1921.48, 0.406926
1922.19, 0.407476
1922.91, 0.407476
1923.62, 0.407415
1924.33, 0.407781
1925.05, 0.408270
1925.76, 0.408637
1926.48, 0.408637
1927.19, 0.408576
1927.91, 0.408392
1928.63, 0.408759
1929.35, 0.409248
1930.07, 0.409675
1930.78, 0.409920
1931.5, 0.410103
1932.22, 0.410164
1932.94, 0.410348
1933.66, 0.410470
1934.39, 0.410653
1935.11, 0.410775
1935.83, 0.410836
1936.55, 0.410897
1937.28, 0.411264
1938.0, 0.411325
1938.73, 0.411509
1939.45, 0.411692
1940.18, 0.411692
1940.9, 0.411509
1941.63, 0.411570
1942.36, 0.411997
1943.09, 0.411936
1943.81, 0.411753
1944.54, 0.411875
1945.27, 0.411936
1946.0, 0.412058
1946.73, 0.411875
1947.47, 0.411936
1948.2, 0.412486
1948.93, 0.412853
1949.66, 0.412730
1950.4, 0.412608
1951.13, 0.412547
1951.86, 0.412486
1952.6, 0.412486
1953.34, 0.412486
1954.07, 0.412547
1954.81, 0.412730
1955.55, 0.412853
1956.29, 0.413097
1957.02, 0.413097
1957.76, 0.412975
1958.5, 0.413036
1959.24, 0.413219
1959.98, 0.413464
1960.72, 0.413769
1961.47, 0.413769
1962.21, 0.413891
1962.95, 0.414197
1963.7, 0.414319
1964.44, 0.414380
1965.18, 0.414502
1965.93, 0.414686
1966.67, 0.414930
1967.42, 0.414747
1968.17, 0.414686
1968.92, 0.414869
1969.66, 0.415174
1970.41, 0.415358
1971.16, 0.415480
1971.91, 0.415541
1972.66, 0.415663
1973.41, 0.415419
1974.16, 0.415297
1974.92, 0.415541
1975.67, 0.415847
1976.42, 0.415724
1977.18, 0.415602
1977.93, 0.415602
1978.69, 0.415785
1979.44, 0.415785
1980.2, 0.415663
1980.95, 0.415724
1981.71, 0.415724
1982.47, 0.415724
1983.23, 0.415724
1983.99, 0.415663
1984.74, 0.415969
1985.51, 0.415969
1986.27, 0.415908
1987.03, 0.415785
1987.79, 0.415785
1988.55, 0.415908
1989.32, 0.416152
1990.08, 0.416274
1990.84, 0.416335
1991.61, 0.416458
1992.37, 0.416763
1993.14, 0.416824
1993.9, 0.416824
1994.67, 0.416885
1995.44, 0.416885
1996.21, 0.416885
1996.98, 0.417069
1997.75, 0.417374
1998.52, 0.417741
1999.29, 0.417924
2000.06, 0.418229
2000.83, 0.418413
2001.6, 0.418657
2002.38, 0.418779
2003.15, 0.419085
2003.93, 0.419390
2004.7, 0.419513
2005.48, 0.419696
2006.25, 0.420124
2007.03, 0.420307
2007.81, 0.420735
2008.58, 0.421040
2009.36, 0.421468
2010.14, 0.421896
2010.92, 0.422262
2011.7, 0.422629
2012.48, 0.422995
2013.26, 0.423240
2014.05, 0.423423
2014.83, 0.423851
2015.61, 0.424340
2016.4, 0.424584
2017.18, 0.424828
2017.97, 0.425317
2018.75, 0.425867
2019.54, 0.426478
2020.32, 0.427089
2021.11, 0.427333
2021.9, 0.427761
2022.69, 0.428311
2023.48, 0.428800
2024.27, 0.429289
2025.06, 0.429716
2025.85, 0.430266
2026.64, 0.430816
2027.44, 0.431244
2028.23, 0.431733
2029.02, 0.432283
2029.82, 0.432771
2030.61, 0.433077
2031.41, 0.433505
2032.2, 0.433932
2033.0, 0.434543
2033.8, 0.435093
2034.6, 0.435399
2035.4, 0.435765
2036.2, 0.436376
2037.0, 0.436987
2037.8, 0.437415
2038.6, 0.437965
2039.4, 0.438393
2040.2, 0.438759
2041.01, 0.439187
2041.81, 0.439553
2042.61, 0.439676
2043.42, 0.440103
2044.22, 0.440653
2045.03, 0.440959
2045.84, 0.441386
2046.65, 0.441692
2047.46, 0.442058
2048.26, 0.442425
2049.07, 0.442731
2049.88, 0.442914
2050.69, 0.443219
2051.51, 0.443769
2052.32, 0.444075
2053.13, 0.444441
2053.94, 0.444747
2054.76, 0.444930
2055.57, 0.445236
2056.39, 0.445541
2057.2, 0.445908
2058.02, 0.446213
2058.84, 0.446335
2059.66, 0.446702
2060.48, 0.447008
2061.29, 0.447374
2062.11, 0.447863
2062.94, 0.448168
2063.76, 0.448352
2064.58, 0.448413
2065.4, 0.448596
2066.22, 0.448841
2067.05, 0.449146
2067.87, 0.449207
2068.7, 0.449452
2069.52, 0.449696
2070.35, 0.450063
2071.18, 0.450490
2072.0, 0.450857
2072.83, 0.451101
2073.66, 0.451285
2074.49, 0.451529
2075.32, 0.451773
2076.15, 0.451896
2076.98, 0.451957
2077.82, 0.452262
2078.65, 0.452751
2079.48, 0.452934
2080.32, 0.453118
2081.15, 0.453240
2081.99, 0.453484
2082.83, 0.453606
2083.66, 0.453790
2084.5, 0.454095
2085.34, 0.454523
2086.18, 0.455012
2087.02, 0.455134
2087.86, 0.455134
2088.7, 0.455500
2089.54, 0.455867
2090.39, 0.455928
2091.23, 0.456173
2092.07, 0.456600
2092.92, 0.456722
2093.76, 0.456967
2094.61, 0.457150
2095.45, 0.457395
2096.3, 0.457639
2097.15, 0.457883
2098.0, 0.458250
2098.85, 0.458433
2099.7, 0.458311
2100.55, 0.458372
2101.4, 0.458739
2102.25, 0.458983
2103.1, 0.459044
2103.96, 0.459289
2104.81, 0.459655
2105.67, 0.460022
2106.52, 0.459961
2107.38, 0.459900
2108.24, 0.460083
2109.09, 0.460389
2109.95, 0.460389
2110.81, 0.460511
2111.67, 0.460877
2112.53, 0.460999
2113.39, 0.460999
2114.25, 0.461061
2115.12, 0.461122
2115.98, 0.461366
2116.84, 0.461672
2117.71, 0.461733
2118.58, 0.461733
2119.44, 0.462038
2120.31, 0.462405
2121.18, 0.462405
2122.04, 0.462466
2122.91, 0.462527
2123.78, 0.462466
2124.65, 0.462710
2125.52, 0.462894
2126.4, 0.462955
2127.27, 0.463199
2128.14, 0.463443
2129.02, 0.463749
2129.89, 0.464054
2130.77, 0.464177
2131.64, 0.464299
2132.52, 0.464421
2133.4, 0.464666
2134.27, 0.464910
2135.15, 0.465154
2136.03, 0.465277
2136.91, 0.465215
2137.79, 0.465277
2138.68, 0.465704
2139.56, 0.465949
2140.44, 0.466132
2141.33, 0.466254
2142.21, 0.466376
2143.1, 0.466621
2143.99, 0.466804
2144.87, 0.466865
2145.76, 0.467048
2146.65, 0.467110
2147.54, 0.467048
2148.43, 0.467232
2149.32, 0.467293
2150.21, 0.467537
2151.1, 0.467537
2151.99, 0.467537
2152.89, 0.467782
2153.78, 0.467965
2154.68, 0.467843
2155.57, 0.467721
2156.47, 0.467843
2157.37, 0.468087
2158.27, 0.468148
2159.16, 0.467965
2160.06, 0.467965
2160.96, 0.468087
2161.86, 0.468148
2162.77, 0.468148
2163.67, 0.468148
2164.57, 0.468209
2165.48, 0.468209
2166.38, 0.468087
2167.29, 0.468270
2168.2, 0.468332
2169.1, 0.468270
2170.01, 0.468270
2170.92, 0.468270
2171.83, 0.468209
2172.74, 0.468270
2173.65, 0.468148
2174.56, 0.468148
2175.47, 0.467965
2176.39, 0.467782
2177.3, 0.467782
2178.22, 0.467721
2179.13, 0.467843
2180.05, 0.468026
2180.96, 0.467965
2181.88, 0.467721
2182.8, 0.467659
2183.72, 0.467537
2184.64, 0.467537
2185.56, 0.467354
2186.48, 0.467293
2187.41, 0.467293
2188.33, 0.467171
2189.25, 0.467048
2190.18, 0.466804
2191.1, 0.466621
2192.03, 0.466498
2192.96, 0.466376
2193.89, 0.466254
2194.82, 0.466132
2195.74, 0.465826
2196.68, 0.465704
2197.61, 0.465643
2198.54, 0.465643
2199.47, 0.465643
2200.4, 0.465460
2201.34, 0.465215
2202.28, 0.465032
2203.21, 0.464849
2204.15, 0.464604
2205.08, 0.464604
2206.02, 0.464421
2206.96, 0.464177
2207.9, 0.463932
2208.84, 0.463688
2209.78, 0.463505
2210.73, 0.463199
2211.67, 0.462955
2212.61, 0.462649
2213.56, 0.462344
2214.5, 0.462160
2215.45, 0.461794
2216.4, 0.461427
2217.35, 0.461427
2218.3, 0.461183
2219.24, 0.460633
2220.2, 0.459961
2221.15, 0.459411
2222.1, 0.458861
2223.05, 0.458006
2224.0, 0.457211
2224.96, 0.456661
2225.91, 0.455867
2226.87, 0.455195
2227.83, 0.454217
2228.79, 0.453179
2229.74, 0.452201
2230.7, 0.450918
2231.66, 0.449513
2232.63, 0.447985
2233.59, 0.446519
2234.55, 0.444869
2235.51, 0.442914
2236.48, 0.440837
2237.44, 0.438393
2238.41, 0.435765
2239.38, 0.433077
2240.34, 0.430450
2241.31, 0.427517
2242.28, 0.424095
2243.25, 0.420612
2244.22, 0.417374
2245.19, 0.414441
2246.17, 0.411631
2247.14, 0.408698
2248.12, 0.406132
2249.09, 0.403810
2250.07, 0.401732
2251.04, 0.400144
2252.02, 0.399044
2253.0, 0.398128
2253.98, 0.397639
2254.96, 0.397394
2255.94, 0.397578
2256.92, 0.397761
2257.91, 0.398005
2258.89, 0.398616
2259.88, 0.399594
2260.86, 0.400816
2261.85, 0.401916
2262.83, 0.402954
2263.82, 0.403932
2264.81, 0.404910
2265.8, 0.406132
2266.79, 0.407354
2267.78, 0.408392
2268.78, 0.409492
2269.77, 0.410531
2270.76, 0.411325
2271.76, 0.412120
2272.75, 0.412914
2273.75, 0.413830
2274.75, 0.414441
2275.75, 0.414930
2276.75, 0.415541
2277.75, 0.416152
2278.75, 0.416213
2279.75, 0.416274
2280.75, 0.416519
2281.76, 0.416396
2282.76, 0.416091
2283.77, 0.415785
2284.77, 0.415480
2285.78, 0.415052
2286.79, 0.414319
2287.8, 0.413586
2288.81, 0.412853
2289.82, 0.412181
2290.83, 0.411325
2291.84, 0.410409
2292.86, 0.409309
2293.87, 0.408270
2294.89, 0.407415
2295.91, 0.406376
2296.92, 0.405337
2297.94, 0.404482
2298.96, 0.403688
2299.98, 0.402893
2301.0, 0.402038
2302.02, 0.401060
2303.04, 0.400388
2304.07, 0.399716
2305.09, 0.398922
2306.12, 0.398128
2307.15, 0.397333
2308.17, 0.396661
2309.2, 0.396050
2310.23, 0.395561
2311.26, 0.394950
2312.29, 0.394339
2313.32, 0.393912
2314.35, 0.393362
2315.39, 0.392690
2316.42, 0.392079
2317.46, 0.391651
2318.5, 0.391101
2319.53, 0.390551
2320.57, 0.390001
2321.61, 0.389390
2322.65, 0.388596
2323.69, 0.387680
2324.73, 0.386946
2325.78, 0.386213
2326.82, 0.385480
2327.86, 0.384686
2328.91, 0.383647
2329.96, 0.382853
2331.01, 0.382119
2332.05, 0.381325
2333.1, 0.380409
2334.15, 0.379370
2335.21, 0.378514
2336.26, 0.377659
2337.31, 0.376681
2338.36, 0.375643
2339.42, 0.374604
2340.48, 0.373810
2341.53, 0.373321
2342.59, 0.372893
2343.65, 0.372343
2344.71, 0.372038
2345.77, 0.371916
2346.83, 0.372038
2347.9, 0.372221
2348.96, 0.372282
2350.02, 0.372588
2351.09, 0.373138
2352.16, 0.373749
2353.23, 0.374360
2354.29, 0.375337
2355.36, 0.376376
2356.43, 0.377476
2357.51, 0.378759
2358.58, 0.380042
2359.65, 0.381325
2360.73, 0.382730
2361.8, 0.384197
2362.88, 0.385724
2363.96, 0.387496
2365.03, 0.389329
2366.11, 0.391040
2367.19, 0.392812
2368.27, 0.394828
2369.36, 0.396661
2370.44, 0.398616
2371.53, 0.400388
2372.61, 0.402282
2373.7, 0.404238
2374.78, 0.406009
2375.87, 0.407842
2376.96, 0.409614
2378.05, 0.411325
2379.14, 0.412914
2380.24, 0.414686
2381.33, 0.416213
2382.42, 0.417557
2383.52, 0.418718
2384.61, 0.419940
2385.71, 0.421162
2386.81, 0.422140
2387.91, 0.422995
2389.01, 0.423667
2390.11, 0.424462
2391.22, 0.425256
2392.32, 0.426050
2393.42, 0.426661
2394.53, 0.426967
2395.64, 0.427333
2396.74, 0.427944
2397.85, 0.428372
2398.96, 0.428739
2400.07, 0.429044
2401.18, 0.429472
2402.3, 0.429839
2403.41, 0.430205
2404.52, 0.430633
2405.64, 0.430877
2406.76, 0.431244
2407.88, 0.431672
2408.99, 0.431977
2410.11, 0.432344
2411.23, 0.432710
2412.36, 0.433138
2413.48, 0.433566
2414.6, 0.433932
2415.73, 0.434177
2416.85, 0.434421
2417.98, 0.434788
2419.11, 0.435093
2420.24, 0.435215
2421.37, 0.435582
2422.5, 0.435704
2423.64, 0.435704
2424.77, 0.435826
2425.9, 0.435887
2427.04, 0.435887
2428.18, 0.435887
2429.31, 0.435826
2430.45, 0.435643
2431.59, 0.435460
2432.73, 0.435338
2433.88, 0.435215
2435.02, 0.434971
2436.16, 0.434727
2437.31, 0.434604
2438.45, 0.434421
2439.6, 0.434115
2440.75, 0.433810
2441.9, 0.433505
2443.05, 0.433321
2444.2, 0.433077
2445.35, 0.432588
2446.51, 0.431977
2447.67, 0.431610
2448.82, 0.431183
2449.98, 0.430694
2451.14, 0.430327
2452.3, 0.429839
2453.46, 0.429228
2454.62, 0.428678
2455.78, 0.428067
2456.94, 0.427333
2458.11, 0.426539
2459.28, 0.425867
2460.44, 0.425317
2461.61, 0.424584
2462.78, 0.423851
2463.95, 0.423056
2465.12, 0.422262
2466.3, 0.421529
2467.47, 0.420673
2468.65, 0.420001
2469.82, 0.419207
2471.0, 0.418413
2472.18, 0.417741
2473.36, 0.417130
2474.54, 0.416519
2475.72, 0.415969
2476.9, 0.415236
2478.08, 0.414502
2479.27, 0.413830
2480.46, 0.413341
2481.64, 0.412975
2482.83, 0.412425
2484.02, 0.411936
2485.21, 0.411509
2486.4, 0.411142
2487.6, 0.410836
2488.79, 0.410470
2489.99, 0.410348
2491.18, 0.410042
2492.38, 0.409614
2493.58, 0.409370
2494.78, 0.409248
2495.98, 0.409065
2497.18, 0.409003
2498.39, 0.409003
2499.59, 0.408881
2500.8, 0.408698
2502.01, 0.408820
2503.21, 0.408759
2504.42, 0.408392
2505.63, 0.408148
2506.84, 0.408331
2508.06, 0.408453
2509.27, 0.408392
2510.49, 0.408209
2511.7, 0.408270
2512.92, 0.408270
2514.14, 0.408270
2515.36, 0.408026
2516.58, 0.407781
2517.8, 0.407781
2519.03, 0.407781
2520.25, 0.407598
2521.48, 0.407476
2522.7, 0.407231
2523.93, 0.407109
2525.16, 0.407109
2526.39, 0.406987
2527.62, 0.406682
2528.86, 0.406621
2530.09, 0.406193
2531.33, 0.405521
2532.56, 0.405154
2533.8, 0.405276
2535.04, 0.404910
2536.28, 0.404482
2537.52, 0.404910
2538.76, 0.405154
2540.01, 0.404910
2541.25, 0.404299
2542.5, 0.403321
2543.75, 0.403321
2544.99, 0.403749
2546.24, 0.403504
2547.49, 0.402771
2548.75, 0.402893
2550.0, 0.402343
2551.26, 0.401427
2552.51, 0.400877
2553.77, 0.401549
2555.03, 0.402343
2556.29, 0.402343
2557.55, 0.402099
2558.81, 0.401244
2560.08, 0.398678
2561.34, 0.396417
2562.61, 0.396233
2563.88, 0.396600
2565.14, 0.398433
2566.41, 0.400205
2567.68, 0.399655
2568.96, 0.397456
2570.23, 0.397456
2571.51, 0.398372
2572.78, 0.395745
2574.06, 0.395745
2575.34, 0.396600
2576.62, 0.395500
2577.9, 0.396906
2579.18, 0.397944
2580.47, 0.396295
2581.75, 0.395561
2583.04, 0.392934
2584.32, 0.392568
2585.61, 0.394645
2586.9, 0.393545
2588.2, 0.393973
2589.49, 0.395378
2590.78, 0.396417
2592.08, 0.395134
2593.37, 0.388902
2594.67, 0.382914
2595.97, 0.388107
2597.27, 0.394156
2598.57, 0.396233
2599.88, 0.395684
2601.18, 0.394523
2602.49, 0.393728
2603.79, 0.391895
2605.1, 0.389513
2606.41, 0.390734
2607.72, 0.392873
2609.03, 0.393545
2610.35, 0.394462
2611.66, 0.395134
2612.98, 0.394523
2614.3, 0.394584
2615.62, 0.391590
2616.94, 0.389390
2618.26, 0.392018
2619.58, 0.390796
2620.91, 0.391101
2622.23, 0.394828
2623.56, 0.395684
2624.89, 0.394217
2626.22, 0.390979
2627.55, 0.392018
2628.88, 0.391162
2630.21, 0.387802
2631.55, 0.390246
2632.89, 0.391773
2634.22, 0.391651
2635.56, 0.393056
2636.9, 0.393179
2638.25, 0.392629
2639.59, 0.392201
2640.93, 0.391529
2642.28, 0.390857
2643.63, 0.390551
2644.98, 0.388902
2646.33, 0.388535
2647.68, 0.389390
2649.03, 0.389451
2650.39, 0.388352
2651.74, 0.385969
2653.1, 0.385419
2654.46, 0.385541
2655.82, 0.385052
2657.18, 0.385663
2658.54, 0.383891
2659.9, 0.382425
2661.27, 0.382364
2662.64, 0.381997
2664.01, 0.377904
2665.38, 0.373688
2666.74, 0.373138
2668.12, 0.375521
2669.49, 0.371732
2670.87, 0.370205
2672.24, 0.375459
2673.62, 0.376132
2675.0, 0.373015
2676.38, 0.369227
2677.76, 0.368861
2679.15, 0.368922
2680.54, 0.370571
2681.92, 0.369899
2683.31, 0.367761
2684.7, 0.366356
2686.09, 0.364828
2687.48, 0.363728
2688.88, 0.362506
2690.27, 0.360979
2691.67, 0.358229
2693.07, 0.352791
2694.47, 0.349614
2695.87, 0.349003
2697.27, 0.348331
2698.67, 0.346132
2700.08, 0.342282
2701.49, 0.338433
2702.9, 0.335928
2704.31, 0.331651
2705.72, 0.325480
2707.13, 0.316681
2708.54, 0.304339
2709.96, 0.289370
2711.38, 0.274400
2712.8, 0.261386
2714.22, 0.247149
2715.64, 0.232730
2717.06, 0.219349
2718.49, 0.207923
2719.91, 0.197109
2721.34, 0.189715
2722.77, 0.184644
2724.2, 0.178229
2725.63, 0.174257
2727.07, 0.171324
2728.5, 0.168453
2729.94, 0.165764
2731.38, 0.163565
2732.82, 0.161610
2734.26, 0.159593
2735.7, 0.158188
2737.15, 0.156905
2738.59, 0.154033
2740.04, 0.151650
2741.49, 0.150734
2742.94, 0.150550
2744.39, 0.149878
2745.84, 0.149145
2747.3, 0.148717
2748.76, 0.148656
2750.21, 0.148717
2751.67, 0.148717
2753.14, 0.148290
2754.6, 0.146884
2756.06, 0.146396
2757.53, 0.147556
2759.0, 0.147679
2760.46, 0.147312
2761.94, 0.146334
2763.41, 0.145907
2764.88, 0.145785
2766.36, 0.145051
2767.83, 0.143524
2769.31, 0.141508
2770.79, 0.138758
2772.27, 0.135703
2773.76, 0.132220
2775.24, 0.128188
2776.73, 0.123972
2778.22, 0.119878
2779.71, 0.115662
2781.2, 0.111630
2782.69, 0.107780
2784.18, 0.104359
2785.68, 0.100815
2787.18, 0.0977600
2788.68, 0.0951940
2790.18, 0.0931160
2791.68, 0.0909170
2793.19, 0.0891450
2794.69, 0.0873730
2796.2, 0.0860290
2797.71, 0.0846850
2799.22, 0.0835240
2800.73, 0.0823020
2802.24, 0.0813240
2803.76, 0.0804080
2805.28, 0.0801020
2806.8, 0.0796130
2808.32, 0.0792470
2809.84, 0.0786970
2811.36, 0.0784520
2812.89, 0.0781470
2814.42, 0.0780250
2815.94, 0.0780250
2817.48, 0.0779640
2819.01, 0.0779030
2820.54, 0.0780860
2822.08, 0.0781470
2823.61, 0.0784520
2825.15, 0.0786970
2826.69, 0.0790630
2828.23, 0.0792470
2829.78, 0.0795520
2831.32, 0.0797970
2832.87, 0.0802240
2834.42, 0.0805300
2835.97, 0.0812020
2837.52, 0.0816300
2839.08, 0.0820570
2840.63, 0.0823020
2842.19, 0.0827290
2843.75, 0.0832180
2845.31, 0.0837070
2846.87, 0.0841960
2848.44, 0.0846240
2850.0, 0.0849900
2851.57, 0.0854790
2853.14, 0.0857840
2854.71, 0.0861510
2856.28, 0.0863340
2857.86, 0.0867010
2859.43, 0.0868840
2861.01, 0.0871290
2862.59, 0.0872510
2864.17, 0.0873120
2865.76, 0.0871290
2867.34, 0.0871290
2868.93, 0.0869450
2870.52, 0.0867010
2872.11, 0.0863340
2873.7, 0.0861510
2875.29, 0.0857230
2876.89, 0.0852960
2878.49, 0.0848070
2880.08, 0.0844400
2881.69, 0.0838290
2883.29, 0.0832790
2884.89, 0.0826070
2886.5, 0.0818740
2888.11, 0.0811410
2889.72, 0.0807130
2891.33, 0.0800410
2892.94, 0.0793080
2894.56, 0.0785750
2896.17, 0.0780250
2897.79, 0.0774140
2899.42, 0.0768030
2901.04, 0.0763140
2902.66, 0.0758860
2904.29, 0.0752750
2905.92, 0.0748470
2907.55, 0.0742980
2909.18, 0.0739310
2910.81, 0.0735030
2912.45, 0.0733200
2914.08, 0.0730760
2915.72, 0.0729530
2917.36, 0.0726480
2919.01, 0.0725260
2920.65, 0.0722810
2922.3, 0.0721590
2923.94, 0.0720980
2925.59, 0.0720370
2927.25, 0.0719150
2928.9, 0.0720370
2930.56, 0.0720980
2932.21, 0.0720980
2933.87, 0.0722200
2935.53, 0.0723420
2937.2, 0.0723420
2938.86, 0.0724650
2940.53, 0.0725870
2942.2, 0.0728920
2943.87, 0.0730140
2945.54, 0.0731980
2947.22, 0.0732590
2948.89, 0.0736870
2950.57, 0.0739310
2952.25, 0.0742360
2953.93, 0.0743590
2955.62, 0.0747250
2957.3, 0.0749700
2958.99, 0.0753360
2960.68, 0.0755810
2962.37, 0.0760080
2964.07, 0.0763750
2965.76, 0.0769250
2967.46, 0.0772300
2969.16, 0.0776580
2970.86, 0.0780250
2972.56, 0.0785750
2974.27, 0.0789410
2975.98, 0.0796130
2977.69, 0.0801020
2979.4, 0.0805910
2981.11, 0.0810190
2982.83, 0.0817520
2984.54, 0.0822410
2986.26, 0.0827910
2987.98, 0.0832790
2989.71, 0.0838900
2991.43, 0.0845620
2993.16, 0.0851730
2994.89, 0.0857230
2996.62, 0.0863950
2998.35, 0.0870060
3000.09, 0.0877400
3001.83, 0.0884730
3003.57, 0.0892060
3005.31, 0.0899390
3007.05, 0.0906720
3008.79, 0.0912220
3010.54, 0.0920170
3012.29, 0.0927500
3014.04, 0.0936660
3015.8, 0.0944000
3017.55, 0.0952550
3019.31, 0.0959270
3021.07, 0.0967820
3022.83, 0.0976380
3024.59, 0.0984930
3026.36, 0.0992260
3028.13, 0.100204
3029.9, 0.101059
3031.67, 0.101915
3033.44, 0.102892
3035.22, 0.103809
3037.0, 0.104603
3038.78, 0.105581
3040.56, 0.106619
3042.34, 0.107658
3044.13, 0.108636
3045.92, 0.109613
3047.71, 0.110469
3049.5, 0.111630
3051.3, 0.112546
3053.09, 0.113646
3054.89, 0.114807
3056.69, 0.115907
3058.5, 0.116884
3060.3, 0.117923
3062.11, 0.118962
3063.92, 0.120184
3065.73, 0.121345
3067.55, 0.122506
3069.36, 0.123544
3071.18, 0.124644
3073.0, 0.125744
3074.82, 0.127027
3076.65, 0.128310
3078.48, 0.129593
3080.31, 0.130754
3082.14, 0.131915
3083.97, 0.133137
3085.8, 0.134481
3087.64, 0.135703
3089.48, 0.136986
3091.33, 0.138086
3093.17, 0.139308
3095.02, 0.140469
3096.87, 0.141874
3098.72, 0.143096
3100.57, 0.144379
3102.43, 0.145662
3104.28, 0.147007
3106.14, 0.148167
3108.01, 0.149512
3109.87, 0.150734
3111.74, 0.152078
3113.61, 0.153422
3115.48, 0.154644
3117.35, 0.155683
3119.23, 0.157027
3121.1, 0.158432
3122.98, 0.159715
3124.87, 0.160815
3126.75, 0.162220
3128.64, 0.163443
3130.53, 0.164603
3132.42, 0.165948
3134.31, 0.167414
3136.21, 0.168575
3138.11, 0.169858
3140.01, 0.171019
3141.91, 0.172119
3143.82, 0.173463
3145.73, 0.174868
3147.64, 0.176151
3149.55, 0.177373
3151.46, 0.178534
3153.38, 0.179756
3155.3, 0.180978
3157.22, 0.182383
3159.14, 0.183605
3161.07, 0.184889
3163.0, 0.186233
3164.93, 0.187455
3166.86, 0.188677
3168.8, 0.190082
3170.74, 0.191365
3172.68, 0.192587
3174.62, 0.193809
3176.56, 0.195031
3178.51, 0.196314
3180.46, 0.197659
3182.42, 0.198819
3184.37, 0.200286
3186.33, 0.201691
3188.29, 0.202913
3190.25, 0.204196
3192.21, 0.205479
3194.18, 0.206762
3196.15, 0.208045
3198.12, 0.209267
3200.09, 0.210551
3202.07, 0.211834
3204.05, 0.213117
3206.03, 0.214278
3208.02, 0.215439
3210.0, 0.216661
3211.99, 0.217944
3213.98, 0.219227
3215.98, 0.220388
3217.97, 0.221487
3219.97, 0.222709
3221.97, 0.223809
3223.98, 0.224970
3225.98, 0.226253
3227.99, 0.227414
3230.0, 0.228453
3232.02, 0.229614
3234.03, 0.230714
3236.05, 0.231752
3238.07, 0.232791
3240.1, 0.233952
3242.12, 0.234930
3244.15, 0.235846
3246.18, 0.236885
3248.22, 0.237862
3250.25, 0.238779
3252.29, 0.239756
3254.33, 0.240734
3256.38, 0.241773
3258.43, 0.242750
3260.47, 0.243422
3262.53, 0.244156
3264.58, 0.245133
3266.64, 0.245927
3268.7, 0.246661
3270.76, 0.247394
3272.82, 0.248249
3274.89, 0.249166
3276.96, 0.250082
3279.04, 0.250693
3281.11, 0.251365
3283.19, 0.252099
3285.27, 0.253015
3287.35, 0.253809
3289.44, 0.254420
3291.53, 0.255215
3293.62, 0.255948
3295.71, 0.256681
3297.81, 0.257475
3299.91, 0.258270
3302.01, 0.259125
3304.11, 0.259919
3306.22, 0.260775
3308.33, 0.261569
3310.44, 0.262302
3312.56, 0.263097
3314.68, 0.263952
3316.8, 0.264624
3318.92, 0.265418
3321.05, 0.266152
3323.18, 0.266885
3325.31, 0.267740
3327.44, 0.268535
3329.58, 0.269207
3331.72, 0.269940
3333.86, 0.270734
3336.01, 0.271528
3338.16, 0.272384
3340.31, 0.273056
3342.46, 0.273850
3344.61, 0.274583
3346.77, 0.275317
3348.94, 0.275867
3351.1, 0.276477
3353.27, 0.277333
3355.44, 0.277944
3357.61, 0.278433
3359.79, 0.279044
3361.97, 0.279777
3364.15, 0.280693
3366.33, 0.281365
3368.52, 0.282038
3370.71, 0.282771
3372.9, 0.283504
3375.1, 0.284237
3377.3, 0.284909
3379.5, 0.285704
3381.71, 0.286315
3383.91, 0.286926
3386.12, 0.287720
3388.34, 0.288575
3390.55, 0.289370
3392.77, 0.289981
3394.99, 0.290592
3397.22, 0.291325
3399.45, 0.292058
3401.68, 0.292730
3403.91, 0.293463
3406.15, 0.294135
3408.39, 0.294746
3410.63, 0.295235
3412.87, 0.295907
3415.12, 0.296579
3417.37, 0.297374
3419.63, 0.298107
3421.88, 0.298840
3424.14, 0.299695
3426.41, 0.300551
3428.67, 0.301345
3430.94, 0.302139
3433.21, 0.302934
3435.49, 0.303606
3437.77, 0.304461
3440.05, 0.305256
3442.33, 0.305806
3444.62, 0.306539
3446.91, 0.307333
3449.2, 0.307944
3451.5, 0.308555
3453.8, 0.309288
3456.1, 0.309899
3458.41, 0.310449
3460.72, 0.311060
3463.03, 0.311732
3465.34, 0.312343
3467.66, 0.312832
3469.98, 0.313260
3472.31, 0.313748
3474.63, 0.314421
3476.96, 0.315032
3479.3, 0.315582
3481.64, 0.316192
3483.97, 0.316742
3486.32, 0.317292
3488.66, 0.317964
3491.01, 0.318514
3493.36, 0.318881
3495.72, 0.319370
3498.08, 0.319920
3500.44, 0.320592
3502.81, 0.321203
3505.18, 0.321814
3507.55, 0.322486
3509.92, 0.323158
3512.3, 0.323708
3514.68, 0.324502
3517.06, 0.325235
3519.45, 0.325907
3521.84, 0.326518
3524.24, 0.327252
3526.64, 0.327863
3529.04, 0.328413
3531.44, 0.329085
3533.85, 0.329879
3536.26, 0.330551
3538.67, 0.331162
3541.09, 0.331773
3543.51, 0.332323
3545.93, 0.332934
3548.36, 0.333789
3550.79, 0.334645
3553.22, 0.335622
3555.66, 0.336294
3558.1, 0.336844
3560.54, 0.337455
3562.99, 0.338250
3565.44, 0.339044
3567.9, 0.339960
3570.35, 0.340938
3572.81, 0.341549
3575.28, 0.342343
3577.75, 0.343260
3580.22, 0.344054
3582.69, 0.344971
3585.17, 0.345887
3587.65, 0.346743
3590.14, 0.347598
3592.62, 0.348453
3595.11, 0.349248
3597.61, 0.350103
3600.11, 0.350775
3602.61, 0.351569
3605.11, 0.352303
3607.62, 0.352852
3610.14, 0.353464
3612.65, 0.354197
3615.17, 0.354991
3617.69, 0.355724
3620.22, 0.356335
3622.75, 0.356885
3625.28, 0.357618
3627.82, 0.358290
3630.36, 0.358963
3632.9, 0.359573
3635.45, 0.360307
3638.0, 0.361101
3640.56, 0.361651
3643.12, 0.362201
3645.68, 0.362690
3648.24, 0.363362
3650.81, 0.363851
3653.39, 0.364462
3655.96, 0.365134
3658.54, 0.365683
3661.13, 0.366295
3663.71, 0.366906
3666.3, 0.367455
3668.9, 0.368066
3671.5, 0.368494
3674.1, 0.368983
3676.7, 0.369472
3679.31, 0.370022
3681.93, 0.370510
3684.54, 0.370999
3687.17, 0.371427
3689.79, 0.371916
3692.42, 0.372466
3695.05, 0.373015
3697.69, 0.373382
3700.32, 0.373871
3702.97, 0.374360
3705.61, 0.374787
3708.27, 0.375215
3710.92, 0.375521
3713.58, 0.375826
3716.24, 0.376315
3718.91, 0.376743
3721.58, 0.377231
3724.25, 0.377781
3726.93, 0.378148
3729.61, 0.378576
3732.29, 0.379126
3734.98, 0.379492
3737.67, 0.379981
3740.37, 0.380409
3743.07, 0.380836
3745.78, 0.381020
3748.49, 0.381570
3751.2, 0.381997
3753.91, 0.382486
3756.63, 0.382914
3759.36, 0.383219
3762.09, 0.383647
3764.82, 0.384075
3767.55, 0.384625
3770.29, 0.384991
3773.04, 0.385113
3775.78, 0.385419
3778.54, 0.385724
3781.29, 0.386030
3784.05, 0.386396
3786.82, 0.386763
3789.59, 0.386824
3792.36, 0.387130
3795.13, 0.387374
3797.92, 0.387741
3800.7, 0.388046
3803.49, 0.388290
3806.28, 0.388352
3809.08, 0.388596
3811.88, 0.388902
3814.68, 0.389268
3817.49, 0.389390
3820.31, 0.389635
3823.12, 0.389818
3825.94, 0.390124
3828.77, 0.390307
3831.6, 0.390490
3834.43, 0.390857
3837.27, 0.391284
3840.11, 0.391468
3842.96, 0.391590
3845.81, 0.391834
3848.67, 0.392262
3851.53, 0.392506
3854.39, 0.392751
3857.26, 0.392812
3860.13, 0.393056
3863.01, 0.393362
3865.89, 0.393728
3868.77, 0.393912
3871.66, 0.394156
3874.55, 0.394156
3877.45, 0.394217
3880.35, 0.394523
3883.26, 0.394828
3886.17, 0.394889
3889.09, 0.395134
3892.01, 0.395195
3894.93, 0.395317
3897.86, 0.395317
3900.79, 0.395439
3903.73, 0.395561
3906.67, 0.395928
3909.62, 0.396111
3912.57, 0.396233
3915.52, 0.396295
3918.48, 0.396539
3921.45, 0.396783
3924.42, 0.397028
3927.39, 0.397150
3930.37, 0.397333
3933.35, 0.397456
3936.34, 0.397578
3939.33, 0.397578
3942.32, 0.397700
3945.32, 0.397700
3948.33, 0.397822
3951.34, 0.398067
3954.35, 0.398372
3957.37, 0.398616
3960.39, 0.398983
3963.42, 0.399166
3966.45, 0.399227
3969.49, 0.399227
3972.53, 0.399472
3975.58, 0.399655
3978.63, 0.399961
3981.68, 0.400144
3984.75, 0.400388
3987.81, 0.400511
3990.88, 0.400633
3993.95, 0.400816
3997.03, 0.401060
4000.12, 0.401244
4003.21, 0.401610
4006.3, 0.401732
4009.4, 0.401855
4012.5, 0.401916
4015.61, 0.401977
4018.72, 0.402038
4021.84, 0.402343
4024.96, 0.402527
4028.09, 0.402649
4031.22, 0.402588
4034.36, 0.402710
4037.5, 0.402588
4040.65, 0.402466
4043.8, 0.402405
4046.96, 0.402466
4050.12, 0.402527
4053.29, 0.402649
4056.46, 0.402466
4059.64, 0.402343
4062.82, 0.402343
4066.0, 0.402405
4069.19, 0.402160
4072.39, 0.402038
4075.59, 0.401916
4078.8, 0.401855
4082.01, 0.401794
4085.23, 0.401671
4088.45, 0.401610
4091.68, 0.401610
4094.91, 0.401366
4098.15, 0.401305
4101.39, 0.401060
4104.63, 0.400816
4107.89, 0.400633
4111.14, 0.400633
4114.41, 0.400755
4117.67, 0.400755
4120.95, 0.400388
4124.23, 0.400144
4127.51, 0.400022
4130.8, 0.399961
4134.09, 0.399777
4137.39, 0.399716
4140.7, 0.399533
4144.01, 0.399350
4147.32, 0.399166
4150.64, 0.399044
4153.97, 0.398678
4157.3, 0.398494
4160.64, 0.398311
4163.98, 0.398128
4167.33, 0.397822
4170.68, 0.397700
4174.04, 0.397456
4177.4, 0.397150
4180.77, 0.396967
4184.14, 0.396906
4187.52, 0.396539
4190.91, 0.396111
4194.3, 0.395684
4197.69, 0.395256
4201.1, 0.394828
4204.5, 0.394339
4207.92, 0.393606
4211.34, 0.392873
4214.76, 0.392018
4218.19, 0.391223
4221.62, 0.390429
4225.06, 0.389757
4228.51, 0.388963
4231.96, 0.388596
4235.42, 0.388535
4238.88, 0.388229
4242.35, 0.388107
4245.83, 0.388413
4249.31, 0.388779
4252.79, 0.389268
4256.28, 0.389757
4259.78, 0.389268
4263.29, 0.387863
4266.79, 0.387007
4270.31, 0.386274
4273.83, 0.385602
4277.35, 0.385541
4280.89, 0.385663
4284.42, 0.385419
4287.97, 0.384930
4291.52, 0.384441
4295.07, 0.384441
4298.63, 0.384380
4302.2, 0.384380
4305.78, 0.384319
4309.35, 0.384319
4312.94, 0.384319
4316.53, 0.384319
4320.13, 0.384197
4323.73, 0.384014
4327.34, 0.383769
4330.96, 0.383525
4334.58, 0.383158
4338.21, 0.383036
4341.84, 0.382853
4345.48, 0.382486
4349.12, 0.382364
4352.77, 0.382303
4356.43, 0.381631
4360.1, 0.381081
4363.76, 0.380836
4367.44, 0.380531
4371.12, 0.379798
4374.81, 0.379126
4378.51, 0.378820
4382.21, 0.378576
4385.92, 0.378026
4389.63, 0.377231
4393.35, 0.376620
4397.08, 0.376193
4400.81, 0.375521
4404.55, 0.374971
4408.29, 0.374421
4412.04, 0.373382
4415.8, 0.372588
4419.57, 0.372221
4423.34, 0.371855
4427.12, 0.371183
4430.9, 0.370388
4434.69, 0.369716
4438.49, 0.369105
4442.29, 0.368311
4446.1, 0.367272
4449.92, 0.366417
4453.74, 0.365622
4457.57, 0.364767
4461.41, 0.363728
4465.25, 0.363056
4469.1, 0.362017
4472.95, 0.361040
4476.82, 0.360246
4480.69, 0.359329
4484.56, 0.358290
4488.44, 0.357374
4492.33, 0.356457
4496.23, 0.355296
4500.13, 0.354258
4504.04, 0.353769
4507.96, 0.353097
4511.88, 0.352364
4515.81, 0.351386
4519.75, 0.350408
4523.69, 0.349553
4527.65, 0.348514
4531.6, 0.347353
4535.57, 0.346681
4539.54, 0.345765
4543.52, 0.344848
4547.5, 0.343932
4551.5, 0.343076
4555.5, 0.342099
4559.5, 0.340877
4563.52, 0.339655
4567.54, 0.338555
4571.56, 0.337211
4575.6, 0.335867
4579.64, 0.334645
4583.69, 0.333239
4587.75, 0.331529
4591.81, 0.329818
4595.88, 0.328168
4599.96, 0.326702
4604.04, 0.325235
4608.14, 0.323891
4612.24, 0.322608
4616.34, 0.321447
4620.46, 0.320164
4624.58, 0.318881
4628.71, 0.317720
4632.84, 0.316926
4636.99, 0.316131
4641.14, 0.315154
4645.3, 0.314176
4649.47, 0.313321
4653.64, 0.312526
4657.82, 0.311427
4662.01, 0.310082
4666.21, 0.309227
4670.41, 0.308311
4674.62, 0.307394
4678.84, 0.306600
4683.07, 0.305072
4687.3, 0.303850
4691.54, 0.302384
4695.79, 0.300734
4700.05, 0.299757
4704.31, 0.298596
4708.59, 0.297435
4712.87, 0.296213
4717.15, 0.294746
4721.45, 0.292730
4725.76, 0.291080
4730.07, 0.289614
4734.39, 0.288636
4738.72, 0.287720
4743.05, 0.286315
4747.39, 0.284787
4751.75, 0.283076
4756.1, 0.282160
4760.47, 0.280693
4764.85, 0.278921
4769.23, 0.278005
4773.62, 0.277761
4778.02, 0.277088
4782.43, 0.276600
4786.85, 0.275500
4791.27, 0.274950
4795.7, 0.274033
4800.14, 0.273117
4804.59, 0.272384
4809.05, 0.272995
4813.51, 0.272445
4817.99, 0.270734
4822.47, 0.270184
4826.96, 0.269879
4831.46, 0.269268
4835.96, 0.268473
4840.48, 0.267129
4845.0, 0.265907
4849.54, 0.265113
4854.08, 0.264746
4858.63, 0.263341
4863.18, 0.262241
4867.75, 0.260653
4872.33, 0.259797
4876.91, 0.259797
4881.5, 0.258758
4886.1, 0.257109
4890.71, 0.256009
4895.33, 0.255031
4899.96, 0.254176
4904.59, 0.253565
4909.24, 0.252954
4913.89, 0.251610
4918.55, 0.250754
4923.22, 0.250082
4927.9, 0.249288
4932.59, 0.248127
4937.29, 0.247088
4942.0, 0.245622
4946.71, 0.244339
4951.44, 0.244583
4956.17, 0.245133
4960.91, 0.244217
4965.67, 0.243422
4970.43, 0.241956
4975.2, 0.241223
4979.98, 0.240673
4984.76, 0.240001
4989.56, 0.239695
4994.37, 0.239756
4999.18, 0.239756
5004.01, 0.239817
5008.84, 0.239940
5013.69, 0.239940
5018.54, 0.240001
5023.4, 0.240123
5028.28, 0.240245
5033.16, 0.240429
5038.05, 0.240123
5042.95, 0.239573
5047.86, 0.239695
5052.78, 0.239756
5057.71, 0.239879
5062.65, 0.240062
5067.6, 0.239817
5072.56, 0.240001
5077.53, 0.239451
5082.5, 0.239268
5087.49, 0.239023
5092.49, 0.239084
5097.5, 0.239512
5102.51, 0.239451
5107.54, 0.238840
5112.58, 0.238046
5117.62, 0.238412
5122.68, 0.238840
5127.75, 0.238534
5132.82, 0.238534
5137.91, 0.237862
5143.01, 0.237129
5148.12, 0.236701
5153.23, 0.238168
5158.36, 0.238107
5163.5, 0.237435
5168.65, 0.236824
5173.81, 0.236518
5178.98, 0.235785
5184.15, 0.235907
5189.34, 0.235418
5194.54, 0.234991
5199.75, 0.235296
5204.98, 0.234868
5210.21, 0.233891
5215.45, 0.234135
5220.7, 0.234257
5225.96, 0.233463
5231.23, 0.232486
5236.52, 0.231569
5241.81, 0.231080
5247.12, 0.231202
5252.44, 0.230775
5257.76, 0.230225
5263.1, 0.229797
5268.45, 0.229858
5273.81, 0.228697
5279.18, 0.227475
5284.56, 0.227353
5289.95, 0.227597
5295.36, 0.227170
5300.77, 0.226803
