Database of Origin, USGS Spectral Database
Sample Description, See USGS database for additional info
Date Added,2017-07-03 06:06:53.705220

Data ID,USGS_oli19          
Sample ID, olivine_hs420.16748
Mineral Name, olivine
Material Class,Nesosilicate

Wavelength
1618.53, 0.387094
1619.04, 0.387301
1619.54, 0.387611
1620.05, 0.387818
1620.55, 0.388128
1621.06, 0.389472
1621.57, 0.389782
1622.08, 0.390092
1622.58, 0.390505
1623.09, 0.390815
1623.6, 0.391436
1624.11, 0.392573
1624.62, 0.392366
1625.13, 0.392573
1625.64, 0.393296
1626.15, 0.393710
1626.66, 0.393813
1627.17, 0.394330
1627.68, 0.394020
1628.19, 0.393916
1628.7, 0.394123
1629.21, 0.394743
1629.72, 0.395880
1630.24, 0.396914
1630.75, 0.396707
1631.26, 0.396087
1631.78, 0.396914
1632.29, 0.398051
1632.8, 0.398774
1633.32, 0.398464
1633.83, 0.398774
1634.35, 0.399498
1634.86, 0.399601
1635.38, 0.400635
1635.9, 0.400532
1636.41, 0.400738
1636.93, 0.401152
1637.45, 0.401462
1637.96, 0.402082
1638.48, 0.402392
1639.0, 0.402289
1639.52, 0.403116
1640.04, 0.403529
1640.56, 0.403529
1641.08, 0.403426
1641.59, 0.403839
1642.11, 0.404356
1642.63, 0.404356
1643.16, 0.405080
1643.68, 0.405596
1644.2, 0.406423
1644.72, 0.406630
1645.24, 0.406217
1645.76, 0.406217
1646.29, 0.407147
1646.81, 0.407767
1647.33, 0.407767
1647.86, 0.408284
1648.38, 0.408491
1648.9, 0.409214
1649.43, 0.410248
1649.95, 0.410661
1650.48, 0.410041
1651.0, 0.409938
1651.53, 0.410661
1652.06, 0.410971
1652.58, 0.410454
1653.11, 0.411281
1653.64, 0.412005
1654.17, 0.412522
1654.69, 0.412832
1655.22, 0.412728
1655.75, 0.413349
1656.28, 0.413969
1656.81, 0.413969
1657.34, 0.414382
1657.87, 0.414589
1658.4, 0.414796
1658.93, 0.414796
1659.46, 0.414899
1659.99, 0.415519
1660.52, 0.416243
1661.05, 0.416553
1661.59, 0.416656
1662.12, 0.416346
1662.65, 0.416243
1663.19, 0.416863
1663.72, 0.417380
1664.26, 0.417690
1664.79, 0.417897
1665.32, 0.417587
1665.86, 0.416966
1666.39, 0.417793
1666.93, 0.419240
1667.47, 0.419344
1668.0, 0.419654
1668.54, 0.420274
1669.08, 0.420584
1669.61, 0.420584
1670.15, 0.420584
1670.69, 0.420687
1671.23, 0.421101
1671.77, 0.421514
1672.31, 0.422445
1672.85, 0.422858
1673.39, 0.422548
1673.93, 0.422961
1674.47, 0.423271
1675.01, 0.423478
1675.55, 0.423582
1676.09, 0.423375
1676.64, 0.423685
1677.18, 0.423892
1677.72, 0.423582
1678.26, 0.423892
1678.81, 0.424098
1679.35, 0.424512
1679.89, 0.425545
1680.44, 0.425856
1680.98, 0.425752
1681.53, 0.425339
1682.07, 0.425339
1682.62, 0.425959
1683.17, 0.426269
1683.71, 0.426166
1684.26, 0.426889
1684.81, 0.427303
1685.36, 0.427199
1685.9, 0.426993
1686.45, 0.427096
1687.0, 0.428130
1687.55, 0.428750
1688.1, 0.428440
1688.65, 0.428750
1689.2, 0.429370
1689.75, 0.429783
1690.3, 0.429990
1690.85, 0.430300
1691.41, 0.430093
1691.96, 0.430610
1692.51, 0.430714
1693.06, 0.430093
1693.61, 0.429783
1694.17, 0.430714
1694.72, 0.431437
1695.28, 0.431127
1695.83, 0.430714
1696.39, 0.431437
1696.94, 0.432264
1697.5, 0.432264
1698.05, 0.432678
1698.61, 0.432988
1699.17, 0.432884
1699.72, 0.432884
1700.28, 0.433504
1700.84, 0.433711
1701.4, 0.433401
1701.95, 0.433194
1702.51, 0.433814
1703.07, 0.434435
1703.63, 0.434641
1704.19, 0.434641
1704.75, 0.434848
1705.31, 0.434952
1705.88, 0.435055
1706.44, 0.435158
1707.0, 0.434952
1707.56, 0.436089
1708.12, 0.436915
1708.69, 0.437122
1709.25, 0.436812
1709.81, 0.436399
1710.38, 0.436502
1710.94, 0.436915
1711.51, 0.437432
1712.07, 0.437536
1712.64, 0.437432
1713.2, 0.437536
1713.77, 0.437846
1714.34, 0.438259
1714.9, 0.438259
1715.47, 0.438466
1716.04, 0.438879
1716.61, 0.438879
1717.18, 0.438776
1717.74, 0.439293
1718.31, 0.439189
1718.88, 0.439189
1719.45, 0.439189
1720.02, 0.438983
1720.59, 0.439396
1721.17, 0.439913
1721.74, 0.440120
1722.31, 0.440223
1722.88, 0.440430
1723.45, 0.440223
1724.03, 0.440326
1724.6, 0.440947
1725.18, 0.441360
1725.75, 0.441050
1726.33, 0.441257
1726.9, 0.441670
1727.48, 0.441980
1728.05, 0.442187
1728.63, 0.441980
1729.2, 0.441773
1729.78, 0.442187
1730.36, 0.442807
1730.94, 0.442910
1731.51, 0.442807
1732.09, 0.443531
1732.67, 0.443531
1733.25, 0.442910
1733.83, 0.443427
1734.41, 0.443841
1734.99, 0.443221
1735.57, 0.443324
1736.15, 0.443944
1736.73, 0.444254
1737.32, 0.444254
1737.9, 0.444254
1738.48, 0.444564
1739.07, 0.444461
1739.65, 0.444668
1740.23, 0.445081
1740.82, 0.445391
1741.4, 0.445805
1741.99, 0.446011
1742.57, 0.446218
1743.16, 0.446632
1743.74, 0.446425
1744.33, 0.446425
1744.92, 0.446425
1745.51, 0.446942
1746.09, 0.447148
1746.68, 0.447458
1747.27, 0.447665
1747.86, 0.447872
1748.45, 0.448182
1749.04, 0.448389
1749.63, 0.448182
1750.22, 0.447872
1750.81, 0.447665
1751.4, 0.447975
1751.99, 0.448079
1752.59, 0.448389
1753.18, 0.448802
1753.77, 0.449216
1754.37, 0.449629
1754.96, 0.449836
1755.56, 0.449422
1756.15, 0.449216
1756.74, 0.449319
1757.34, 0.449836
1757.94, 0.449939
1758.53, 0.450146
1759.13, 0.450663
1759.73, 0.450456
1760.32, 0.450249
1760.92, 0.450663
1761.52, 0.451076
1762.12, 0.451076
1762.72, 0.451283
1763.32, 0.451386
1763.92, 0.451076
1764.52, 0.451076
1765.12, 0.451179
1765.72, 0.451593
1766.32, 0.452110
1766.92, 0.452006
1767.53, 0.451593
1768.13, 0.451490
1768.73, 0.451386
1769.34, 0.451800
1769.94, 0.452316
1770.55, 0.452420
1771.15, 0.452420
1771.76, 0.452627
1772.36, 0.452833
1772.97, 0.453247
1773.57, 0.453143
1774.18, 0.453247
1774.79, 0.453350
1775.4, 0.453247
1776.0, 0.453453
1776.61, 0.453764
1777.22, 0.453557
1777.83, 0.453453
1778.44, 0.453660
1779.05, 0.453867
1779.66, 0.453660
1780.27, 0.454074
1780.88, 0.454694
1781.5, 0.454694
1782.11, 0.454901
1782.72, 0.455004
1783.33, 0.455314
1783.95, 0.455521
1784.56, 0.455521
1785.18, 0.455314
1785.79, 0.455004
1786.41, 0.455211
1787.02, 0.455521
1787.64, 0.455727
1788.26, 0.455831
1788.87, 0.455521
1789.49, 0.455624
1790.11, 0.456038
1790.73, 0.456038
1791.35, 0.456141
1791.96, 0.456141
1792.58, 0.456761
1793.21, 0.456761
1793.83, 0.456451
1794.45, 0.456658
1795.07, 0.457381
1795.69, 0.457485
1796.31, 0.457381
1796.93, 0.457485
1797.56, 0.457588
1798.18, 0.457588
1798.8, 0.457485
1799.43, 0.457588
1800.05, 0.458105
1800.68, 0.458105
1801.3, 0.457898
1801.93, 0.457691
1802.56, 0.457898
1803.18, 0.458208
1803.81, 0.458622
1804.44, 0.458725
1805.07, 0.458622
1805.7, 0.458828
1806.33, 0.458932
1806.95, 0.458932
1807.58, 0.459035
1808.22, 0.459138
1808.85, 0.459035
1809.48, 0.459138
1810.11, 0.459965
1810.74, 0.460379
1811.38, 0.459862
1812.01, 0.459862
1812.64, 0.460275
1813.28, 0.460069
1813.91, 0.460172
1814.55, 0.460172
1815.18, 0.460586
1815.82, 0.460689
1816.45, 0.460586
1817.09, 0.460689
1817.73, 0.460999
1818.36, 0.460999
1819.0, 0.460999
1819.64, 0.461619
1820.28, 0.462136
1820.92, 0.462033
1821.56, 0.462033
1822.2, 0.461723
1822.84, 0.461723
1823.48, 0.461929
1824.12, 0.462033
1824.76, 0.462239
1825.41, 0.462859
1826.05, 0.463273
1826.69, 0.462859
1827.34, 0.462136
1827.98, 0.462343
1828.63, 0.462653
1829.27, 0.462963
1829.92, 0.463480
1830.56, 0.464100
1831.21, 0.463996
1831.86, 0.463480
1832.5, 0.463583
1833.15, 0.463273
1833.8, 0.463273
1834.45, 0.463790
1835.1, 0.464307
1835.75, 0.464927
1836.4, 0.464927
1837.05, 0.465133
1837.7, 0.465030
1838.35, 0.463893
1839.01, 0.464720
1839.66, 0.465754
1840.31, 0.464823
1840.96, 0.465444
1841.62, 0.466270
1842.27, 0.465133
1842.93, 0.464410
1843.58, 0.464617
1844.24, 0.464203
1844.9, 0.464513
1845.55, 0.465340
1846.21, 0.466477
1846.87, 0.467097
1847.53, 0.466581
1848.18, 0.466167
1848.84, 0.465237
1849.5, 0.465030
1850.16, 0.465444
1850.82, 0.465547
1851.48, 0.465547
1852.14, 0.465857
1852.81, 0.466477
1853.47, 0.467201
1854.13, 0.466787
1854.8, 0.465960
1855.46, 0.465960
1856.12, 0.466581
1856.79, 0.467201
1857.45, 0.466477
1858.12, 0.466064
1858.79, 0.466684
1859.45, 0.467924
1860.12, 0.468028
1860.79, 0.466994
1861.46, 0.466374
1862.12, 0.467097
1862.79, 0.467201
1863.46, 0.467201
1864.13, 0.466891
1864.8, 0.466787
1865.48, 0.466994
1866.15, 0.467201
1866.82, 0.467924
1867.49, 0.469475
1868.16, 0.468855
1868.84, 0.468234
1869.51, 0.468441
1870.19, 0.469061
1870.86, 0.470198
1871.54, 0.469165
1872.21, 0.468855
1872.89, 0.469992
1873.56, 0.469371
1874.24, 0.468234
1874.92, 0.468648
1875.6, 0.468338
1876.28, 0.468958
1876.96, 0.469578
1877.64, 0.468441
1878.32, 0.467924
1879.0, 0.467821
1879.68, 0.468338
1880.36, 0.468544
1881.04, 0.468338
1881.73, 0.467924
1882.41, 0.467924
1883.09, 0.468441
1883.78, 0.469475
1884.46, 0.469061
1885.15, 0.468648
1885.83, 0.468855
1886.52, 0.469061
1887.21, 0.468855
1887.89, 0.468958
1888.58, 0.468958
1889.27, 0.469475
1889.96, 0.470405
1890.65, 0.469888
1891.34, 0.469888
1892.03, 0.469992
1892.72, 0.469992
1893.41, 0.469888
1894.1, 0.469578
1894.79, 0.469888
1895.49, 0.469992
1896.18, 0.469888
1896.87, 0.470095
1897.57, 0.470198
1898.26, 0.469888
1898.96, 0.471025
1899.65, 0.471955
1900.35, 0.471439
1901.05, 0.470922
1901.74, 0.471232
1902.44, 0.472162
1903.14, 0.471955
1903.84, 0.470612
1904.54, 0.471439
1905.24, 0.472472
1905.94, 0.472059
1906.64, 0.471439
1907.34, 0.470715
1908.04, 0.470612
1908.75, 0.470818
1909.45, 0.471232
1910.15, 0.471335
1910.86, 0.471335
1911.56, 0.471645
1912.27, 0.471542
1912.97, 0.472369
1913.68, 0.472472
1914.39, 0.471645
1915.09, 0.471335
1915.8, 0.471749
1916.51, 0.471852
1917.22, 0.471542
1917.93, 0.471645
1918.64, 0.471852
1919.35, 0.472782
1920.06, 0.473713
1920.77, 0.473713
1921.48, 0.472679
1922.19, 0.472162
1922.91, 0.472369
1923.62, 0.472989
1924.33, 0.472679
1925.05, 0.472162
1925.76, 0.472266
1926.48, 0.472679
1927.19, 0.473092
1927.91, 0.473299
1928.63, 0.473506
1929.35, 0.473506
1930.07, 0.472989
1930.78, 0.472989
1931.5, 0.473196
1932.22, 0.473299
1932.94, 0.473403
1933.66, 0.473609
1934.39, 0.473403
1935.11, 0.473196
1935.83, 0.473609
1936.55, 0.473713
1937.28, 0.473609
1938.0, 0.473713
1938.73, 0.474023
1939.45, 0.474229
1940.18, 0.473919
1940.9, 0.473816
1941.63, 0.474023
1942.36, 0.474023
1943.09, 0.473816
1943.81, 0.473816
1944.54, 0.473919
1945.27, 0.474229
1946.0, 0.474539
1946.73, 0.474643
1947.47, 0.474850
1948.2, 0.474333
1948.93, 0.474436
1949.66, 0.474436
1950.4, 0.474539
1951.13, 0.474539
1951.86, 0.474333
1952.6, 0.474643
1953.34, 0.475160
1954.07, 0.475056
1954.81, 0.474953
1955.55, 0.474953
1956.29, 0.474953
1957.02, 0.474850
1957.76, 0.474953
1958.5, 0.475160
1959.24, 0.475160
1959.98, 0.474953
1960.72, 0.475160
1961.47, 0.475470
1962.21, 0.475470
1962.95, 0.475263
1963.7, 0.475160
1964.44, 0.475263
1965.18, 0.475470
1965.93, 0.475573
1966.67, 0.475573
1967.42, 0.475366
1968.17, 0.475160
1968.92, 0.474953
1969.66, 0.475056
1970.41, 0.474953
1971.16, 0.475263
1971.91, 0.475677
1972.66, 0.475470
1973.41, 0.475470
1974.16, 0.475573
1974.92, 0.475366
1975.67, 0.475573
1976.42, 0.475677
1977.18, 0.475677
1977.93, 0.475780
1978.69, 0.476193
1979.44, 0.476297
1980.2, 0.476297
1980.95, 0.476503
1981.71, 0.476503
1982.47, 0.476503
1983.23, 0.476607
1983.99, 0.476400
1984.74, 0.476607
1985.51, 0.477434
1986.27, 0.477640
1987.03, 0.477434
1987.79, 0.477330
1988.55, 0.476917
1989.32, 0.476917
1990.08, 0.477330
1990.84, 0.477537
1991.61, 0.477330
1992.37, 0.477537
1993.14, 0.477640
1993.9, 0.477744
1994.67, 0.477950
1995.44, 0.478261
1996.21, 0.477744
1996.98, 0.477847
1997.75, 0.478571
1998.52, 0.478881
1999.29, 0.478674
2000.06, 0.478571
2000.83, 0.478571
2001.6, 0.478881
2002.38, 0.478674
2003.15, 0.478467
2003.93, 0.478364
2004.7, 0.478571
2005.48, 0.479191
2006.25, 0.479708
2007.03, 0.479708
2007.81, 0.479294
2008.58, 0.479708
2009.36, 0.480328
2010.14, 0.480121
2010.92, 0.480121
2011.7, 0.480328
2012.48, 0.480431
2013.26, 0.480741
2014.05, 0.480741
2014.83, 0.480638
2015.61, 0.480638
2016.4, 0.480535
2017.18, 0.480431
2017.97, 0.480431
2018.75, 0.480535
2019.54, 0.480845
2020.32, 0.481465
2021.11, 0.481672
2021.9, 0.481465
2022.69, 0.481672
2023.48, 0.481568
2024.27, 0.481465
2025.06, 0.481465
2025.85, 0.481465
2026.64, 0.481672
2027.44, 0.481878
2028.23, 0.481982
2029.02, 0.481878
2029.82, 0.481982
2030.61, 0.482085
2031.41, 0.482085
2032.2, 0.482292
2033.0, 0.482809
2033.8, 0.482705
2034.6, 0.482498
2035.4, 0.482705
2036.2, 0.482809
2037.0, 0.483222
2037.8, 0.483325
2038.6, 0.482912
2039.4, 0.483119
2040.2, 0.483532
2041.01, 0.483222
2041.81, 0.483325
2042.61, 0.483739
2043.42, 0.483739
2044.22, 0.483739
2045.03, 0.483739
2045.84, 0.483532
2046.65, 0.483429
2047.46, 0.483429
2048.26, 0.483532
2049.07, 0.483842
2049.88, 0.484152
2050.69, 0.484152
2051.51, 0.484049
2052.32, 0.484152
2053.13, 0.484256
2053.94, 0.484256
2054.76, 0.484359
2055.57, 0.484566
2056.39, 0.484669
2057.2, 0.484462
2058.02, 0.484152
2058.84, 0.484359
2059.66, 0.484359
2060.48, 0.484566
2061.29, 0.484669
2062.11, 0.484772
2062.94, 0.484669
2063.76, 0.484566
2064.58, 0.484876
2065.4, 0.484876
2066.22, 0.484979
2067.05, 0.484979
2067.87, 0.484876
2068.7, 0.485083
2069.52, 0.485289
2070.35, 0.485496
2071.18, 0.485393
2072.0, 0.485083
2072.83, 0.484979
2073.66, 0.485393
2074.49, 0.485703
2075.32, 0.485496
2076.15, 0.485289
2076.98, 0.485393
2077.82, 0.485393
2078.65, 0.485496
2079.48, 0.485186
2080.32, 0.485186
2081.15, 0.485186
2081.99, 0.485599
2082.83, 0.485806
2083.66, 0.485599
2084.5, 0.485496
2085.34, 0.485703
2086.18, 0.485703
2087.02, 0.485393
2087.86, 0.485496
2088.7, 0.485496
2089.54, 0.485186
2090.39, 0.485393
2091.23, 0.485599
2092.07, 0.485909
2092.92, 0.485806
2093.76, 0.485599
2094.61, 0.485806
2095.45, 0.486323
2096.3, 0.486323
2097.15, 0.486323
2098.0, 0.486426
2098.85, 0.486323
2099.7, 0.486426
2100.55, 0.486530
2101.4, 0.486736
2102.25, 0.486840
2103.1, 0.486840
2103.96, 0.486840
2104.81, 0.487046
2105.67, 0.487046
2106.52, 0.486736
2107.38, 0.486840
2108.24, 0.487253
2109.09, 0.487253
2109.95, 0.487046
2110.81, 0.487253
2111.67, 0.487357
2112.53, 0.487460
2113.39, 0.487563
2114.25, 0.487977
2115.12, 0.488287
2115.98, 0.488080
2116.84, 0.487977
2117.71, 0.488080
2118.58, 0.488080
2119.44, 0.488080
2120.31, 0.488287
2121.18, 0.488494
2122.04, 0.488804
2122.91, 0.489217
2123.78, 0.489217
2124.65, 0.489114
2125.52, 0.488804
2126.4, 0.489010
2127.27, 0.489424
2128.14, 0.489217
2129.02, 0.489114
2129.89, 0.489010
2130.77, 0.489114
2131.64, 0.489320
2132.52, 0.489217
2133.4, 0.489320
2134.27, 0.489527
2135.15, 0.489734
2136.03, 0.489941
2136.91, 0.489941
2137.79, 0.489837
2138.68, 0.490044
2139.56, 0.490251
2140.44, 0.490354
2141.33, 0.490251
2142.21, 0.490044
2143.1, 0.490354
2143.99, 0.490768
2144.87, 0.490974
2145.76, 0.490974
2146.65, 0.491078
2147.54, 0.491078
2148.43, 0.491284
2149.32, 0.491594
2150.21, 0.491594
2151.1, 0.491388
2151.99, 0.491181
2152.89, 0.491491
2153.78, 0.491904
2154.68, 0.491904
2155.57, 0.491388
2156.47, 0.491181
2157.37, 0.491698
2158.27, 0.491698
2159.16, 0.491801
2160.06, 0.491801
2160.96, 0.491904
2161.86, 0.491904
2162.77, 0.491801
2163.67, 0.491801
2164.57, 0.492111
2165.48, 0.492318
2166.38, 0.492215
2167.29, 0.492215
2168.2, 0.492008
2169.1, 0.491904
2170.01, 0.492215
2170.92, 0.492215
2171.83, 0.492111
2172.74, 0.492111
2173.65, 0.492008
2174.56, 0.492111
2175.47, 0.492421
2176.39, 0.492525
2177.3, 0.492111
2178.22, 0.492008
2179.13, 0.492111
2180.05, 0.492421
2180.96, 0.492525
2181.88, 0.492628
2182.8, 0.492525
2183.72, 0.492215
2184.64, 0.491801
2185.56, 0.491904
2186.48, 0.492008
2187.41, 0.491801
2188.33, 0.491698
2189.25, 0.492421
2190.18, 0.492628
2191.1, 0.492215
2192.03, 0.492008
2192.96, 0.491904
2193.89, 0.491698
2194.82, 0.492111
2195.74, 0.492318
2196.68, 0.492111
2197.61, 0.491801
2198.54, 0.492008
2199.47, 0.492111
2200.4, 0.492318
2201.34, 0.492008
2202.28, 0.491904
2203.21, 0.492318
2204.15, 0.492525
2205.08, 0.492525
2206.02, 0.492731
2206.96, 0.492835
2207.9, 0.492628
2208.84, 0.492318
2209.78, 0.492215
2210.73, 0.492111
2211.67, 0.492008
2212.61, 0.491904
2213.56, 0.492008
2214.5, 0.492421
2215.45, 0.492628
2216.4, 0.492628
2217.35, 0.492525
2218.3, 0.492421
2219.24, 0.492318
2220.2, 0.492628
2221.15, 0.492938
2222.1, 0.492835
2223.05, 0.492628
2224.0, 0.492525
2224.96, 0.492731
2225.91, 0.492835
2226.87, 0.492731
2227.83, 0.492421
2228.79, 0.492525
2229.74, 0.492628
2230.7, 0.492731
2231.66, 0.492628
2232.63, 0.492628
2233.59, 0.492731
2234.55, 0.492525
2235.51, 0.491904
2236.48, 0.491904
2237.44, 0.491904
2238.41, 0.491801
2239.38, 0.491801
2240.34, 0.491698
2241.31, 0.491801
2242.28, 0.492421
2243.25, 0.492421
2244.22, 0.492049
2245.19, 0.492049
2246.17, 0.492142
2247.14, 0.492049
2248.12, 0.491956
2249.09, 0.491584
2250.07, 0.491770
2251.04, 0.491863
2252.02, 0.491863
2253.0, 0.492142
2253.98, 0.492514
2254.96, 0.492235
2255.94, 0.492328
2256.92, 0.492235
2257.91, 0.492421
2258.89, 0.492700
2259.88, 0.492794
2260.86, 0.492514
2261.85, 0.492421
2262.83, 0.492700
2263.82, 0.492421
2264.81, 0.491677
2265.8, 0.491677
2266.79, 0.491584
2267.78, 0.491212
2268.78, 0.490746
2269.77, 0.490839
2270.76, 0.490653
2271.76, 0.490839
2272.75, 0.491212
2273.75, 0.491119
2274.75, 0.491026
2275.75, 0.490746
2276.75, 0.491026
2277.75, 0.491212
2278.75, 0.491119
2279.75, 0.491305
2280.75, 0.491212
2281.76, 0.491398
2282.76, 0.491119
2283.77, 0.490839
2284.77, 0.490653
2285.78, 0.490839
2286.79, 0.491398
2287.8, 0.491677
2288.81, 0.491212
2289.82, 0.490932
2290.83, 0.490746
2291.84, 0.490560
2292.86, 0.490095
2293.87, 0.490560
2294.89, 0.490932
2295.91, 0.490374
2296.92, 0.489630
2297.94, 0.489444
2298.96, 0.489816
2299.98, 0.489537
2301.0, 0.489258
2302.02, 0.488885
2303.04, 0.488606
2304.07, 0.488699
2305.09, 0.487862
2306.12, 0.487583
2307.15, 0.487676
2308.17, 0.487397
2309.2, 0.486652
2310.23, 0.486466
2311.26, 0.486373
2312.29, 0.486094
2313.32, 0.485350
2314.35, 0.484698
2315.39, 0.484047
2316.42, 0.483861
2317.46, 0.483302
2318.5, 0.482372
2319.53, 0.482372
2320.57, 0.482186
2321.61, 0.481534
2322.65, 0.481441
2323.69, 0.481255
2324.73, 0.481348
2325.78, 0.481255
2326.82, 0.481255
2327.86, 0.481162
2328.91, 0.481069
2329.96, 0.481069
2331.01, 0.481441
2332.05, 0.480976
2333.1, 0.480604
2334.15, 0.480511
2335.21, 0.480511
2336.26, 0.480418
2337.31, 0.480883
2338.36, 0.481348
2339.42, 0.481907
2340.48, 0.482372
2341.53, 0.483023
2342.59, 0.483861
2343.65, 0.484791
2344.71, 0.485443
2345.77, 0.486373
2346.83, 0.487117
2347.9, 0.487862
2348.96, 0.488513
2350.02, 0.489351
2351.09, 0.490281
2352.16, 0.490467
2353.23, 0.490374
2354.29, 0.490188
2355.36, 0.490188
2356.43, 0.490653
2357.51, 0.490932
2358.58, 0.491584
2359.65, 0.491677
2360.73, 0.491677
2361.8, 0.491398
2362.88, 0.491491
2363.96, 0.491305
2365.03, 0.491398
2366.11, 0.490932
2367.19, 0.490653
2368.27, 0.490653
2369.36, 0.490746
2370.44, 0.490653
2371.53, 0.490839
2372.61, 0.490839
2373.7, 0.490746
2374.78, 0.490560
2375.87, 0.490560
2376.96, 0.490746
2378.05, 0.490932
2379.14, 0.491026
2380.24, 0.490746
2381.33, 0.490839
2382.42, 0.491212
2383.52, 0.491212
2384.61, 0.491212
2385.71, 0.491677
2386.81, 0.491398
2387.91, 0.490746
2389.01, 0.490653
2390.11, 0.490839
2391.22, 0.490653
2392.32, 0.490560
2393.42, 0.490653
2394.53, 0.490932
2395.64, 0.491119
2396.74, 0.491212
2397.85, 0.491398
2398.96, 0.490932
2400.07, 0.490932
2401.18, 0.491398
2402.3, 0.491863
2403.41, 0.491491
2404.52, 0.491305
2405.64, 0.491677
2406.76, 0.491677
2407.88, 0.491491
2408.99, 0.491584
2410.11, 0.491584
2411.23, 0.491677
2412.36, 0.491770
2413.48, 0.491584
2414.6, 0.491212
2415.73, 0.491119
2416.85, 0.491305
2417.98, 0.490932
2419.11, 0.490374
2420.24, 0.490560
2421.37, 0.490095
2422.5, 0.489816
2423.64, 0.489444
2424.77, 0.489630
2425.9, 0.489537
2427.04, 0.488885
2428.18, 0.488141
2429.31, 0.488048
2430.45, 0.487862
2431.59, 0.487397
2432.73, 0.487024
2433.88, 0.486745
2435.02, 0.486838
2436.16, 0.486745
2437.31, 0.486652
2438.45, 0.486931
2439.6, 0.486745
2440.75, 0.486745
2441.9, 0.486652
2443.05, 0.486373
2444.2, 0.486466
2445.35, 0.486466
2446.51, 0.486280
2447.67, 0.486559
2448.82, 0.486931
2449.98, 0.486745
2451.14, 0.486559
2452.3, 0.486466
2453.46, 0.486373
2454.62, 0.486094
2455.78, 0.486001
2456.94, 0.486280
2458.11, 0.486187
2459.28, 0.485722
2460.44, 0.485350
2461.61, 0.485163
2462.78, 0.485070
2463.95, 0.484977
2465.12, 0.484605
2466.3, 0.484605
2467.47, 0.483954
2468.65, 0.483489
2469.82, 0.482558
2471.0, 0.482279
2472.18, 0.482093
2473.36, 0.481162
2474.54, 0.480325
2475.72, 0.479766
2476.9, 0.479301
2478.08, 0.479115
2479.27, 0.478743
2480.46, 0.478464
2481.64, 0.478464
2482.83, 0.478557
2484.02, 0.478650
2485.21, 0.479022
2486.4, 0.479208
2487.6, 0.479580
2488.79, 0.479580
2489.99, 0.479673
2491.18, 0.479580
2492.38, 0.479208
2493.58, 0.478929
2494.78, 0.479022
2495.98, 0.479208
2497.18, 0.479208
2498.39, 0.479115
2499.59, 0.478650
2500.8, 0.478464
2502.01, 0.478836
2503.21, 0.478929
2504.42, 0.478464
2505.63, 0.478464
2506.84, 0.478836
2508.06, 0.479394
2509.27, 0.479580
2510.49, 0.479860
2511.7, 0.480604
2512.92, 0.481069
2514.14, 0.481255
2515.36, 0.481627
2516.58, 0.482186
2517.8, 0.482558
2519.03, 0.482837
2520.25, 0.482930
2521.48, 0.483489
2522.7, 0.484047
2523.93, 0.484047
2525.16, 0.484047
2526.39, 0.484512
2527.62, 0.484512
2528.86, 0.484605
2530.09, 0.485070
2531.33, 0.485722
2532.56, 0.485629
2533.8, 0.485536
2535.04, 0.485908
2536.28, 0.486094
2537.52, 0.486187
2538.76, 0.486373
2540.01, 0.486094
2541.25, 0.487024
2542.5, 0.488234
2543.75, 0.488234
2544.99, 0.488327
2546.24, 0.488699
2547.49, 0.488513
2548.75, 0.488420
2550.0, 0.488978
2551.26, 0.489258
2552.51, 0.489351
2553.77, 0.488978
2555.03, 0.488606
2556.29, 0.488606
2557.55, 0.488606
2558.81, 0.489723
2560.08, 0.491770
2561.34, 0.492887
2562.61, 0.492700
2563.88, 0.492980
2565.14, 0.492142
2566.41, 0.491119
2567.68, 0.492142
2568.96, 0.494189
2570.23, 0.493538
2571.51, 0.493073
2572.78, 0.495306
2574.06, 0.494468
2575.34, 0.493817
2576.62, 0.494841
2577.9, 0.493910
2579.18, 0.493631
2580.47, 0.494934
2581.75, 0.495306
2583.04, 0.497539
2584.32, 0.496981
2585.61, 0.495492
2586.9, 0.496981
2588.2, 0.496422
2589.49, 0.495771
2590.78, 0.494934
2592.08, 0.496329
2593.37, 0.502005
2594.67, 0.505355
2595.97, 0.498935
2597.27, 0.495027
2598.57, 0.494655
2599.88, 0.495585
2601.18, 0.496329
2602.49, 0.496795
2603.79, 0.498190
2605.1, 0.499679
2606.41, 0.497446
2607.72, 0.496143
2609.03, 0.495957
2610.35, 0.495306
2611.66, 0.494748
2612.98, 0.495120
2614.3, 0.495120
2615.62, 0.497818
2616.94, 0.497911
2618.26, 0.495678
2619.58, 0.497911
2620.91, 0.496236
2622.23, 0.493259
2623.56, 0.493259
2624.89, 0.494748
2626.22, 0.497074
2627.55, 0.495120
2628.88, 0.496050
2630.21, 0.497632
2631.55, 0.494375
2632.89, 0.493631
2634.22, 0.493631
2635.56, 0.492235
2636.9, 0.491863
2638.25, 0.491212
2639.59, 0.491212
2640.93, 0.491305
2642.28, 0.491212
2643.63, 0.490560
2644.98, 0.491119
2646.33, 0.490002
2647.68, 0.488792
2649.03, 0.488048
2650.39, 0.488420
2651.74, 0.489909
2653.1, 0.489816
2654.46, 0.489351
2655.82, 0.489351
2657.18, 0.488420
2658.54, 0.489723
2659.9, 0.489723
2661.27, 0.489165
2662.64, 0.489165
2664.01, 0.492049
2665.38, 0.493538
2666.74, 0.491677
2668.12, 0.488141
2669.49, 0.491584
2670.87, 0.488885
2672.24, 0.481627
2673.62, 0.478836
2675.0, 0.477440
2676.38, 0.475114
2677.76, 0.469810
2679.15, 0.464041
2680.54, 0.456411
2681.92, 0.450735
2683.31, 0.445152
2684.7, 0.437894
2686.09, 0.430171
2687.48, 0.421517
2688.88, 0.411933
2690.27, 0.400581
2691.67, 0.388950
2693.07, 0.375643
2694.47, 0.355731
2695.87, 0.329118
2697.27, 0.293852
2698.67, 0.255237
2700.08, 0.230113
2701.49, 0.216993
2702.9, 0.203687
2704.31, 0.188054
2705.72, 0.173259
2707.13, 0.162745
2708.54, 0.156138
2709.96, 0.150927
2711.38, 0.146740
2712.8, 0.144228
2714.22, 0.144600
2715.64, 0.147578
2717.06, 0.153998
2718.49, 0.163489
2719.91, 0.174655
2721.34, 0.183030
2722.77, 0.190381
2724.2, 0.196894
2725.63, 0.200244
2727.07, 0.203035
2728.5, 0.207316
2729.94, 0.211782
2731.38, 0.214760
2732.82, 0.216528
2734.26, 0.217458
2735.7, 0.216993
2737.15, 0.217644
2738.59, 0.219412
2740.04, 0.220250
2741.49, 0.221087
2742.94, 0.224158
2744.39, 0.229834
2745.84, 0.237464
2747.3, 0.246211
2748.76, 0.255330
2750.21, 0.263797
2751.67, 0.271799
2753.14, 0.278871
2754.6, 0.286315
2756.06, 0.290782
2757.53, 0.293294
2759.0, 0.296086
2760.46, 0.299063
2761.94, 0.302413
2763.41, 0.303809
2764.88, 0.303436
2766.36, 0.302878
2767.83, 0.302599
2769.31, 0.303995
2770.79, 0.306135
2772.27, 0.307065
2773.76, 0.308182
2775.24, 0.309671
2776.73, 0.310694
2778.22, 0.311439
2779.71, 0.313021
2781.2, 0.314789
2782.69, 0.315626
2784.18, 0.316370
2785.68, 0.318138
2787.18, 0.318790
2788.68, 0.317859
2790.18, 0.317208
2791.68, 0.316370
2793.19, 0.315161
2794.69, 0.313951
2796.2, 0.312741
2797.71, 0.311811
2799.22, 0.311346
2800.73, 0.311811
2802.24, 0.312928
2803.76, 0.313207
2805.28, 0.313486
2806.8, 0.314230
2808.32, 0.315719
2809.84, 0.317301
2811.36, 0.318697
2812.89, 0.320092
2814.42, 0.321674
2815.94, 0.322698
2817.48, 0.323908
2819.01, 0.325303
2820.54, 0.326513
2822.08, 0.327164
2823.61, 0.327909
2825.15, 0.328932
2826.69, 0.330235
2828.23, 0.330979
2829.78, 0.331724
2831.32, 0.332468
2832.87, 0.333306
2834.42, 0.334143
2835.97, 0.334794
2837.52, 0.335446
2839.08, 0.335725
2840.63, 0.335818
2842.19, 0.336283
2843.75, 0.337121
2845.31, 0.337772
2846.87, 0.338051
2848.44, 0.338609
2850.0, 0.339261
2851.57, 0.339819
2853.14, 0.340750
2854.71, 0.341308
2856.28, 0.341587
2857.86, 0.342518
2859.43, 0.343355
2861.01, 0.343820
2862.59, 0.344192
2864.17, 0.344844
2865.76, 0.345588
2867.34, 0.346240
2868.93, 0.346798
2870.52, 0.347356
2872.11, 0.347728
2873.7, 0.348101
2875.29, 0.348752
2876.89, 0.349403
2878.49, 0.349869
2880.08, 0.350241
2881.69, 0.350706
2883.29, 0.351078
2884.89, 0.351450
2886.5, 0.351730
2888.11, 0.352009
2889.72, 0.352102
2891.33, 0.352102
2892.94, 0.352288
2894.56, 0.352567
2896.17, 0.352753
2897.79, 0.353218
2899.42, 0.353684
2901.04, 0.353777
2902.66, 0.353684
2904.29, 0.353963
2905.92, 0.354242
2907.55, 0.354242
2909.18, 0.354428
2910.81, 0.354707
2912.45, 0.354986
2914.08, 0.355358
2915.72, 0.355824
2917.36, 0.356196
2919.01, 0.356382
2920.65, 0.356475
2922.3, 0.356661
2923.94, 0.357313
2925.59, 0.357871
2927.25, 0.358243
2928.9, 0.358708
2930.56, 0.358987
2932.21, 0.359360
2933.87, 0.359639
2935.53, 0.360011
2937.2, 0.360290
2938.86, 0.360755
2940.53, 0.361314
2942.2, 0.361779
2943.87, 0.362058
2945.54, 0.362430
2947.22, 0.362896
2948.89, 0.363454
2950.57, 0.363919
2952.25, 0.364570
2953.93, 0.365036
2955.62, 0.365594
2957.3, 0.365966
2958.99, 0.366059
2960.68, 0.366618
2962.37, 0.367269
2964.07, 0.367548
2965.76, 0.367920
2967.46, 0.368292
2969.16, 0.368572
2970.86, 0.368851
2972.56, 0.369409
2974.27, 0.369874
2975.98, 0.370340
2977.69, 0.370991
2979.4, 0.371456
2981.11, 0.371735
2982.83, 0.372014
2984.54, 0.372387
2986.26, 0.372759
2987.98, 0.373131
2989.71, 0.373596
2991.43, 0.374062
2993.16, 0.374248
2994.89, 0.374341
2996.62, 0.374806
2998.35, 0.375178
3000.09, 0.375550
3001.83, 0.375829
3003.57, 0.376109
3005.31, 0.376574
3007.05, 0.377039
3008.79, 0.377411
3010.54, 0.377690
3012.29, 0.377504
3014.04, 0.377784
3015.8, 0.378342
3017.55, 0.378714
3019.31, 0.378900
3021.07, 0.379272
3022.83, 0.379365
3024.59, 0.379645
3026.36, 0.380017
3028.13, 0.380296
3029.9, 0.380296
3031.67, 0.380668
3033.44, 0.380761
3035.22, 0.380947
3037.0, 0.381133
3038.78, 0.381226
3040.56, 0.381319
3042.34, 0.381692
3044.13, 0.381971
3045.92, 0.381971
3047.71, 0.382157
3049.5, 0.382436
3051.3, 0.382715
3053.09, 0.383274
3054.89, 0.383739
3056.69, 0.383739
3058.5, 0.383739
3060.3, 0.384111
3062.11, 0.384390
3063.92, 0.384483
3065.73, 0.384576
3067.55, 0.385041
3069.36, 0.385600
3071.18, 0.385786
3073.0, 0.385879
3074.82, 0.386158
3076.65, 0.386344
3078.48, 0.386623
3080.31, 0.386995
3082.14, 0.387182
3083.97, 0.387461
3085.8, 0.387926
3087.64, 0.388019
3089.48, 0.388298
3091.33, 0.388670
3093.17, 0.388950
3095.02, 0.389229
3096.87, 0.389787
3098.72, 0.390159
3100.57, 0.390252
3102.43, 0.390531
3104.28, 0.391183
3106.14, 0.391741
3108.01, 0.391927
3109.87, 0.391927
3111.74, 0.392206
3113.61, 0.392579
3115.48, 0.392951
3117.35, 0.393323
3119.23, 0.393602
3121.1, 0.393881
3122.98, 0.394160
3124.87, 0.394533
3126.75, 0.394998
3128.64, 0.395277
3130.53, 0.395649
3132.42, 0.396021
3134.31, 0.396207
3136.21, 0.396487
3138.11, 0.396952
3140.01, 0.397417
3141.91, 0.397696
3143.82, 0.398068
3145.73, 0.398627
3147.64, 0.398999
3149.55, 0.399278
3151.46, 0.399650
3153.38, 0.399929
3155.3, 0.400209
3157.22, 0.400674
3159.14, 0.400860
3161.07, 0.401046
3163.0, 0.401325
3164.93, 0.401697
3166.86, 0.401977
3168.8, 0.402349
3170.74, 0.402721
3172.68, 0.402814
3174.62, 0.402814
3176.56, 0.403186
3178.51, 0.403372
3180.46, 0.403465
3182.42, 0.403651
3184.37, 0.404024
3186.33, 0.404303
3188.29, 0.404675
3190.25, 0.404954
3192.21, 0.405326
3194.18, 0.405419
3196.15, 0.405606
3198.12, 0.405699
3200.09, 0.405792
3202.07, 0.405978
3204.05, 0.406350
3206.03, 0.406164
3208.02, 0.406071
3210.0, 0.406350
3211.99, 0.406536
3213.98, 0.406536
3215.98, 0.406629
3217.97, 0.406722
3219.97, 0.406722
3221.97, 0.406629
3223.98, 0.406722
3225.98, 0.406815
3227.99, 0.406908
3230.0, 0.406908
3232.02, 0.407001
3234.03, 0.406908
3236.05, 0.407094
3238.07, 0.407373
3240.1, 0.407746
3242.12, 0.407932
3244.15, 0.408025
3246.18, 0.408211
3248.22, 0.408304
3250.25, 0.408397
3252.29, 0.408490
3254.33, 0.408676
3256.38, 0.408862
3258.43, 0.408769
3260.47, 0.408676
3262.53, 0.408769
3264.58, 0.408862
3266.64, 0.408955
3268.7, 0.409234
3270.76, 0.409421
3272.82, 0.409421
3274.89, 0.409421
3276.96, 0.409607
3279.04, 0.409514
3281.11, 0.409607
3283.19, 0.409700
3285.27, 0.409793
3287.35, 0.409886
3289.44, 0.409886
3291.53, 0.409886
3293.62, 0.409979
3295.71, 0.409979
3297.81, 0.410072
3299.91, 0.409979
3302.01, 0.410165
3304.11, 0.410072
3306.22, 0.409979
3308.33, 0.409886
3310.44, 0.409979
3312.56, 0.409700
3314.68, 0.409234
3316.8, 0.409234
3318.92, 0.409421
3321.05, 0.409421
3323.18, 0.409514
3325.31, 0.409700
3327.44, 0.409886
3329.58, 0.410165
3331.72, 0.410258
3333.86, 0.410351
3336.01, 0.410723
3338.16, 0.411002
3340.31, 0.411095
3342.46, 0.411095
3344.61, 0.411375
3346.77, 0.411375
3348.94, 0.411375
3351.1, 0.411561
3353.27, 0.411747
3355.44, 0.411840
3357.61, 0.411654
3359.79, 0.411375
3361.97, 0.411282
3364.15, 0.411282
3366.33, 0.411282
3368.52, 0.411282
3370.71, 0.411375
3372.9, 0.411375
3375.1, 0.411561
3377.3, 0.411840
3379.5, 0.411747
3381.71, 0.411933
3383.91, 0.412119
3386.12, 0.412212
3388.34, 0.412398
3390.55, 0.412491
3392.77, 0.412584
3394.99, 0.412770
3397.22, 0.412863
3399.45, 0.412770
3401.68, 0.412770
3403.91, 0.412584
3406.15, 0.412398
3408.39, 0.412398
3410.63, 0.412398
3412.87, 0.412491
3415.12, 0.412677
3417.37, 0.412956
3419.63, 0.413515
3421.88, 0.413887
3424.14, 0.414352
3426.41, 0.414911
3428.67, 0.415190
3430.94, 0.415283
3433.21, 0.415655
3435.49, 0.415934
3437.77, 0.416213
3440.05, 0.416399
3442.33, 0.416678
3444.62, 0.416865
3446.91, 0.417051
3449.2, 0.417330
3451.5, 0.417516
3453.8, 0.417423
3456.1, 0.417516
3458.41, 0.417609
3460.72, 0.417888
3463.03, 0.417795
3465.34, 0.417795
3467.66, 0.417795
3469.98, 0.417888
3472.31, 0.417888
3474.63, 0.418074
3476.96, 0.418074
3479.3, 0.417888
3481.64, 0.417795
3483.97, 0.417981
3486.32, 0.417981
3488.66, 0.417888
3491.01, 0.417795
3493.36, 0.417702
3495.72, 0.417609
3498.08, 0.417516
3500.44, 0.417609
3502.81, 0.417795
3505.18, 0.417888
3507.55, 0.417981
3509.92, 0.418167
3512.3, 0.418446
3514.68, 0.418540
3517.06, 0.418540
3519.45, 0.418633
3521.84, 0.418633
3524.24, 0.418726
3526.64, 0.419098
3529.04, 0.419284
3531.44, 0.419377
3533.85, 0.419377
3536.26, 0.419191
3538.67, 0.419098
3541.09, 0.419098
3543.51, 0.419191
3545.93, 0.419098
3548.36, 0.419005
3550.79, 0.419098
3553.22, 0.419005
3555.66, 0.418819
3558.1, 0.418819
3560.54, 0.418912
3562.99, 0.418819
3565.44, 0.418540
3567.9, 0.418446
3570.35, 0.418540
3572.81, 0.418446
3575.28, 0.418260
3577.75, 0.417981
3580.22, 0.417888
3582.69, 0.417795
3585.17, 0.417795
3587.65, 0.417609
3590.14, 0.417423
3592.62, 0.417237
3595.11, 0.417051
3597.61, 0.416958
3600.11, 0.416865
3602.61, 0.416492
3605.11, 0.416306
3607.62, 0.416213
3610.14, 0.416120
3612.65, 0.416027
3615.17, 0.415934
3617.69, 0.415841
3620.22, 0.415655
3622.75, 0.415376
3625.28, 0.415190
3627.82, 0.415004
3630.36, 0.414724
3632.9, 0.414445
3635.45, 0.414259
3638.0, 0.414073
3640.56, 0.413887
3643.12, 0.413701
3645.68, 0.413701
3648.24, 0.413608
3650.81, 0.413515
3653.39, 0.413329
3655.96, 0.413143
3658.54, 0.413050
3661.13, 0.412956
3663.71, 0.412677
3666.3, 0.412491
3668.9, 0.412305
3671.5, 0.412212
3674.1, 0.411933
3676.7, 0.411933
3679.31, 0.411933
3681.93, 0.411747
3684.54, 0.411375
3687.17, 0.411282
3689.79, 0.410816
3692.42, 0.410444
3695.05, 0.410165
3697.69, 0.409979
3700.32, 0.409793
3702.97, 0.409514
3705.61, 0.409421
3708.27, 0.409234
3710.92, 0.408955
3713.58, 0.408676
3716.24, 0.408490
3718.91, 0.408304
3721.58, 0.408118
3724.25, 0.408025
3726.93, 0.407839
3729.61, 0.407653
3732.29, 0.407280
3734.98, 0.407187
3737.67, 0.407094
3740.37, 0.406722
3743.07, 0.406350
3745.78, 0.406164
3748.49, 0.405885
3751.2, 0.405792
3753.91, 0.405512
3756.63, 0.405233
3759.36, 0.404768
3762.09, 0.404396
3764.82, 0.404210
3767.55, 0.404117
3770.29, 0.403558
3773.04, 0.403372
3775.78, 0.403093
3778.54, 0.402628
3781.29, 0.402163
3784.05, 0.401884
3786.82, 0.401511
3789.59, 0.401139
3792.36, 0.400860
3795.13, 0.400488
3797.92, 0.400116
3800.7, 0.399929
3803.49, 0.399650
3806.28, 0.399371
3809.08, 0.398906
3811.88, 0.398627
3814.68, 0.398255
3817.49, 0.397789
3820.31, 0.397417
3823.12, 0.397417
3825.94, 0.397231
3828.77, 0.397138
3831.6, 0.396859
3834.43, 0.396673
3837.27, 0.396394
3840.11, 0.396207
3842.96, 0.396114
3845.81, 0.396021
3848.67, 0.395835
3851.53, 0.395463
3854.39, 0.395277
3857.26, 0.395277
3860.13, 0.394998
3863.01, 0.394905
3865.89, 0.394812
3868.77, 0.394533
3871.66, 0.394253
3874.55, 0.394160
3877.45, 0.394067
3880.35, 0.393881
3883.26, 0.393602
3886.17, 0.393509
3889.09, 0.393230
3892.01, 0.393137
3894.93, 0.393044
3897.86, 0.392858
3900.79, 0.392672
3903.73, 0.392579
3906.67, 0.392485
3909.62, 0.392299
3912.57, 0.392020
3915.52, 0.391741
3918.48, 0.391555
3921.45, 0.391276
3924.42, 0.391090
3927.39, 0.390997
3930.37, 0.390811
3933.35, 0.390531
3936.34, 0.390066
3939.33, 0.389787
3942.32, 0.389694
3945.32, 0.389322
3948.33, 0.388857
3951.34, 0.388670
3954.35, 0.388391
3957.37, 0.387926
3960.39, 0.387461
3963.42, 0.387182
3966.45, 0.386809
3969.49, 0.386251
3972.53, 0.385693
3975.58, 0.385134
3978.63, 0.384483
3981.68, 0.383925
3984.75, 0.383274
3987.81, 0.382436
3990.88, 0.381692
3993.95, 0.381040
3997.03, 0.380203
4000.12, 0.379552
4003.21, 0.378993
4006.3, 0.378528
4009.4, 0.378063
4012.5, 0.377877
4015.61, 0.377690
4018.72, 0.377877
4021.84, 0.378063
4024.96, 0.378342
4028.09, 0.378528
4031.22, 0.378993
4034.36, 0.379272
4037.5, 0.379552
4040.65, 0.379645
4043.8, 0.379831
4046.96, 0.380017
4050.12, 0.380296
4053.29, 0.380296
4056.46, 0.380296
4059.64, 0.380296
4062.82, 0.380296
4066.0, 0.379924
4069.19, 0.379738
4072.39, 0.379458
4075.59, 0.379179
4078.8, 0.378807
4082.01, 0.378528
4085.23, 0.378156
4088.45, 0.377877
4091.68, 0.377504
4094.91, 0.377132
4098.15, 0.376946
4101.39, 0.376667
4104.63, 0.376202
4107.89, 0.375829
4111.14, 0.375364
4114.41, 0.374899
4117.67, 0.374434
4120.95, 0.373969
4124.23, 0.373410
4127.51, 0.373038
4130.8, 0.372666
4134.09, 0.372294
4137.39, 0.371735
4140.7, 0.371270
4144.01, 0.370712
4147.32, 0.370246
4150.64, 0.369595
4153.97, 0.369223
4157.3, 0.368758
4160.64, 0.368385
4163.98, 0.367920
4167.33, 0.367362
4170.68, 0.366711
4174.04, 0.366245
4177.4, 0.365687
4180.77, 0.365129
4184.14, 0.364757
4187.52, 0.364384
4190.91, 0.363826
4194.3, 0.363175
4197.69, 0.362709
4201.1, 0.362337
4204.5, 0.362058
4207.92, 0.361779
4211.34, 0.361500
4214.76, 0.361314
4218.19, 0.361035
4221.62, 0.360848
4225.06, 0.360569
4228.51, 0.360197
4231.96, 0.359825
4235.42, 0.359267
4238.88, 0.358522
4242.35, 0.357778
4245.83, 0.357033
4249.31, 0.356010
4252.79, 0.354893
4256.28, 0.354242
4259.78, 0.354056
4263.29, 0.353963
4266.79, 0.353591
4270.31, 0.352939
4273.83, 0.352381
4277.35, 0.352009
4280.89, 0.351450
4284.42, 0.350892
4287.97, 0.350148
4291.52, 0.349496
4295.07, 0.348845
4298.63, 0.348194
4302.2, 0.347449
4305.78, 0.346705
4309.35, 0.345960
4312.94, 0.345402
4316.53, 0.344658
4320.13, 0.344006
4323.73, 0.343448
4327.34, 0.342611
4330.96, 0.341680
4334.58, 0.341029
4338.21, 0.340470
4341.84, 0.340098
4345.48, 0.339447
4349.12, 0.338702
4352.77, 0.338144
4356.43, 0.337493
4360.1, 0.336841
4363.76, 0.336283
4367.44, 0.335632
4371.12, 0.335167
4374.81, 0.334515
4378.51, 0.333771
4382.21, 0.333119
4385.92, 0.332654
4389.63, 0.332189
4393.35, 0.331538
4397.08, 0.330793
4400.81, 0.330235
4404.55, 0.329677
4408.29, 0.329025
4412.04, 0.328374
4415.8, 0.327723
4419.57, 0.327257
4423.34, 0.326885
4427.12, 0.326234
4430.9, 0.325582
4434.69, 0.324931
4438.49, 0.324466
4442.29, 0.323814
4446.1, 0.323256
4449.92, 0.322698
4453.74, 0.322140
4457.57, 0.321395
4461.41, 0.320651
4465.25, 0.320092
4469.1, 0.319441
4472.95, 0.318604
4476.82, 0.318138
4480.69, 0.317580
4484.56, 0.316836
4488.44, 0.316091
4492.33, 0.315533
4496.23, 0.314975
4500.13, 0.314230
4504.04, 0.313393
4507.96, 0.312741
4511.88, 0.311997
4515.81, 0.311346
4519.75, 0.310508
4523.69, 0.309857
4527.65, 0.309113
4531.6, 0.308461
4535.57, 0.307531
4539.54, 0.306600
4543.52, 0.305763
4547.5, 0.305018
4551.5, 0.304088
4555.5, 0.303250
4559.5, 0.302506
4563.52, 0.301855
4567.54, 0.300924
4571.56, 0.299994
4575.6, 0.299156
4579.64, 0.298412
4583.69, 0.297667
4587.75, 0.297016
4591.81, 0.296086
4595.88, 0.295341
4599.96, 0.294783
4604.04, 0.294038
4608.14, 0.293108
4612.24, 0.292457
4616.34, 0.291712
4620.46, 0.291061
4624.58, 0.290409
4628.71, 0.289758
4632.84, 0.289107
4636.99, 0.288642
4641.14, 0.287897
4645.3, 0.287153
4649.47, 0.286408
4653.64, 0.285757
4657.82, 0.285106
4662.01, 0.284640
4666.21, 0.284082
4670.41, 0.283431
4674.62, 0.282872
4678.84, 0.282128
4683.07, 0.281198
4687.3, 0.280639
4691.54, 0.280081
4695.79, 0.279523
4700.05, 0.278685
4704.31, 0.278034
4708.59, 0.277196
4712.87, 0.276359
4717.15, 0.275521
4721.45, 0.274684
4725.76, 0.273847
4730.07, 0.273009
4734.39, 0.272079
4738.72, 0.271148
4743.05, 0.270218
4747.39, 0.269194
4751.75, 0.268077
4756.1, 0.266961
4760.47, 0.265751
4764.85, 0.264635
4769.23, 0.263239
4773.62, 0.262215
4778.02, 0.260913
4782.43, 0.259424
4786.85, 0.257842
4791.27, 0.256353
4795.7, 0.254585
4800.14, 0.252910
4804.59, 0.251142
4809.05, 0.249374
4813.51, 0.247420
4817.99, 0.245466
4822.47, 0.243419
4826.96, 0.241186
4831.46, 0.238394
4835.96, 0.235510
4840.48, 0.232253
4845.0, 0.228345
4849.54, 0.223693
4854.08, 0.218389
4858.63, 0.212433
4863.18, 0.206013
4867.75, 0.198941
4872.33, 0.191683
4876.91, 0.184425
4881.5, 0.177540
4886.1, 0.170840
4890.71, 0.164606
4895.33, 0.158930
4899.96, 0.154184
4904.59, 0.149718
4909.24, 0.145623
4913.89, 0.141901
4918.55, 0.138366
4923.22, 0.135016
4927.9, 0.131852
4932.59, 0.129433
4937.29, 0.127758
4942.0, 0.127013
4946.71, 0.127293
4951.44, 0.127944
4956.17, 0.129061
4960.91, 0.130456
4965.67, 0.132131
4970.43, 0.133620
4975.2, 0.135109
4979.98, 0.136505
4984.76, 0.137807
4989.56, 0.138924
4994.37, 0.139947
4999.18, 0.141157
5004.01, 0.142181
5008.84, 0.142832
5013.69, 0.143483
5018.54, 0.144321
5023.4, 0.144786
5028.28, 0.145251
5033.16, 0.145437
5038.05, 0.145437
5042.95, 0.145437
5047.86, 0.145344
5052.78, 0.145065
5057.71, 0.144693
5062.65, 0.144042
5067.6, 0.143297
5072.56, 0.142553
5077.53, 0.141529
5082.5, 0.140320
5087.49, 0.138831
5092.49, 0.137435
5097.5, 0.135946
5102.51, 0.134364
5107.54, 0.132689
5112.58, 0.131201
5117.62, 0.129712
5122.68, 0.128037
5127.75, 0.126176
5132.82, 0.124129
5137.91, 0.122268
5143.01, 0.120500
5148.12, 0.118639
5153.23, 0.116778
5158.36, 0.115103
5163.5, 0.113335
5168.65, 0.111567
5173.81, 0.109892
5178.98, 0.108031
5184.15, 0.106170
5189.34, 0.104123
5194.54, 0.102262
5199.75, 0.100773
5204.98, 0.0995640
5210.21, 0.0987260
5215.45, 0.0981680
5220.7, 0.0976100
5225.96, 0.0974230
5231.23, 0.0976100
5236.52, 0.0978890
5241.81, 0.0982610
5247.12, 0.0985400
5252.44, 0.0987260
5257.76, 0.0989120
5263.1, 0.0990050
5268.45, 0.0991910
5273.81, 0.0992840
5279.18, 0.0990980
5284.56, 0.0988190
5289.95, 0.0985400
5295.36, 0.0980750
5300.77, 0.0976100
5306.2, 0.0971440
5311.63, 0.0968650
5317.08, 0.0964000
5322.54, 0.0959350
5328.01, 0.0955620
5333.49, 0.0948180
5338.98, 0.0937950
5344.49, 0.0925850
5350.0, 0.0910960
5355.53, 0.0893280
5361.07, 0.0877460
5366.62, 0.0864440
5372.18, 0.0852340
5377.75, 0.0842100
5383.34, 0.0830940
5388.93, 0.0819770
5394.54, 0.0806740
5400.16, 0.0792790
5405.79, 0.0777900
5411.44, 0.0763940
5417.09, 0.0753710
5422.76, 0.0742540
5428.43, 0.0731370
5434.12, 0.0723000
5439.83, 0.0716490
5445.54, 0.0711830
5451.26, 0.0709040
5457.0, 0.0709040
5462.75, 0.0710900
5468.52, 0.0711830
5474.29, 0.0713690
5480.08, 0.0716490
5485.88, 0.0716490
5491.69, 0.0717420
5497.51, 0.0716490
5503.35, 0.0714630
5509.2, 0.0710900
5515.06, 0.0709040
5520.93, 0.0706250
5526.82, 0.0697880
5532.71, 0.0689500
5538.63, 0.0679270
5544.55, 0.0668100
5550.49, 0.0654140
5556.44, 0.0632740
5562.4, 0.0608550
5568.37, 0.0583420
5574.36, 0.0559230
5580.36, 0.0532250
5586.37, 0.0504330
5592.4, 0.0482930
5598.44, 0.0467110
5604.49, 0.0456880
5610.56, 0.0451290
5616.63, 0.0452220
5622.73, 0.0454080
5628.83, 0.0460600
5634.95, 0.0468970
5641.08, 0.0479210
5647.23, 0.0487580
5653.39, 0.0496890
5659.56, 0.0509910
5665.74, 0.0524800
5671.94, 0.0543410
5678.15, 0.0562020
5684.38, 0.0578770
5690.62, 0.0597380
5696.87, 0.0615060
5703.14, 0.0633670
5709.42, 0.0655070
5715.72, 0.0671820
5722.03, 0.0687640
5728.35, 0.0702530
5734.69, 0.0715560
5741.03, 0.0728580
5747.4, 0.0739750
5753.78, 0.0741610
5760.17, 0.0749980
5766.58, 0.0752780
5773.0, 0.0740680
5779.44, 0.0732300
5785.88, 0.0725790
5792.35, 0.0719280
5798.83, 0.0711830
5805.32, 0.0704390
5811.83, 0.0701600
5818.35, 0.0702530
5824.89, 0.0699740
5831.45, 0.0692290
5838.01, 0.0685780
5844.59, 0.0680200
5851.19, 0.0676470
5857.8, 0.0673680
5864.43, 0.0671820
5871.07, 0.0672750
5877.73, 0.0680200
5884.4, 0.0679270
5891.09, 0.0682060
5897.79, 0.0685780
5904.5, 0.0680200
5911.23, 0.0681130
5917.98, 0.0681130
5924.75, 0.0679270
5931.53, 0.0679270
5938.32, 0.0671820
5945.13, 0.0657860
5951.96, 0.0648560
5958.8, 0.0641120
5965.65, 0.0638320
5972.53, 0.0630880
5979.42, 0.0625300
5986.32, 0.0628090
5993.24, 0.0631810
6000.18, 0.0638320
6007.13, 0.0656000
6014.1, 0.0682060
6021.08, 0.0714630
6028.09, 0.0755570
6035.1, 0.0806740
6042.14, 0.0871880
6049.19, 0.0946320
6056.25, 0.0997500
6063.34, 0.105054
6070.44, 0.111381
6077.55, 0.116592
6084.69, 0.120593
6091.84, 0.124594
6099.0, 0.128502
6106.19, 0.132410
6113.39, 0.135853
6120.61, 0.137249
6127.84, 0.138552
6135.09, 0.140506
6142.36, 0.141808
6149.65, 0.142646
6156.95, 0.143669
6164.27, 0.143949
6171.61, 0.143856
6178.97, 0.144693
6186.34, 0.144879
6193.73, 0.143483
6201.14, 0.142739
6208.57, 0.142367
6216.01, 0.141715
6223.47, 0.140878
6230.95, 0.139854
6238.45, 0.139110
6245.97, 0.138366
6253.5, 0.137900
6261.06, 0.137621
6268.63, 0.137435
6276.21, 0.137621
6283.82, 0.138179
6291.45, 0.138924
6299.1, 0.139761
6306.76, 0.140785
6314.44, 0.141808
6322.14, 0.142739
6329.86, 0.143576
6337.6, 0.144786
6345.35, 0.145158
6353.13, 0.143949
6360.92, 0.143483
6368.74, 0.143483
6376.57, 0.142460
6384.43, 0.141622
6392.3, 0.141250
6400.19, 0.141529
6408.1, 0.143576
6416.03, 0.143669
6423.98, 0.141808
6431.95, 0.141157
6439.94, 0.140599
6447.95, 0.140227
6455.98, 0.139947
6464.03, 0.139761
6472.1, 0.139854
6480.19, 0.140040
6488.31, 0.140692
6496.44, 0.139761
6504.59, 0.137714
6512.76, 0.137342
6520.95, 0.137528
6529.16, 0.136691
6537.4, 0.136412
6545.65, 0.136691
6553.92, 0.136877
6562.22, 0.137249
6570.54, 0.137807
6578.88, 0.137156
6587.23, 0.136691
6595.61, 0.136039
6604.02, 0.135202
6612.44, 0.134550
6620.89, 0.133899
6629.35, 0.134271
6637.84, 0.133713
6646.35, 0.130735
6654.88, 0.128502
6663.44, 0.127293
6672.01, 0.126176
6680.61, 0.124687
6689.23, 0.122175
6697.88, 0.119942
6706.54, 0.118360
6715.23, 0.115940
6723.94, 0.113056
6732.67, 0.110078
6741.42, 0.107659
6750.2, 0.105798
6759.0, 0.104309
6767.82, 0.103472
6776.67, 0.102913
6785.54, 0.102727
6794.44, 0.102169
6803.35, 0.101518
6812.29, 0.101611
6821.26, 0.102169
6830.24, 0.102541
6839.25, 0.102634
6848.29, 0.103193
6857.35, 0.104216
6866.43, 0.104030
6875.54, 0.102634
6884.67, 0.101704
6893.82, 0.100680
6903.0, 0.0994710
6912.2, 0.0976100
6921.43, 0.0958420
6930.69, 0.0941670
6939.96, 0.0924920
6949.27, 0.0910030
6958.59, 0.0894210
6967.95, 0.0869090
6977.33, 0.0843960
6986.73, 0.0819770
6996.16, 0.0794650
7005.61, 0.0770460
7015.09, 0.0749050
7024.6, 0.0729510
7034.13, 0.0719280
7043.69, 0.0718350
7053.27, 0.0714630
7062.88, 0.0713690
7072.52, 0.0719280
7082.18, 0.0725790
7091.87, 0.0728580
7101.58, 0.0729510
7111.32, 0.0727650
7121.09, 0.0722070
7130.88, 0.0715560
7140.71, 0.0709040
7150.56, 0.0700670
7160.43, 0.0691360
7170.33, 0.0682060
7180.27, 0.0672750
7190.23, 0.0666240
7200.21, 0.0662520
7210.23, 0.0660660
7220.27, 0.0656930
7230.34, 0.0654140
7240.44, 0.0655070
7250.56, 0.0656000
7260.72, 0.0656000
7270.9, 0.0651350
7281.12, 0.0644840
7291.36, 0.0638320
7301.63, 0.0629950
7311.93, 0.0619710
7322.25, 0.0609480
7332.61, 0.0597380
7343.0, 0.0584350
7353.41, 0.0571330
7363.86, 0.0562020
7374.33, 0.0552720
7384.83, 0.0543410
7395.37, 0.0535970
7405.93, 0.0526660
7416.53, 0.0517360
7427.15, 0.0508980
7437.81, 0.0500610
7448.5, 0.0492240
7459.22, 0.0481070
7469.96, 0.0471760
7480.74, 0.0464320
7491.55, 0.0457810
7502.39, 0.0450360
7513.27, 0.0444780
7524.17, 0.0439200
7535.11, 0.0433610
7546.08, 0.0429890
7557.08, 0.0427100
7568.11, 0.0425240
7579.17, 0.0425240
7590.27, 0.0427100
7601.4, 0.0428960
7612.56, 0.0429890
7623.76, 0.0432680
7634.98, 0.0435470
7646.24, 0.0435470
7657.54, 0.0434540
7668.87, 0.0435470
7680.23, 0.0435470
7691.62, 0.0434540
7703.05, 0.0432680
7714.51, 0.0428960
7726.01, 0.0427100
7737.54, 0.0423380
7749.11, 0.0417800
7760.71, 0.0415000
7772.35, 0.0411280
7784.02, 0.0408490
7795.72, 0.0404770
7807.46, 0.0404770
7819.23, 0.0405700
7831.04, 0.0405700
7842.89, 0.0404770
7854.77, 0.0404770
7866.69, 0.0403840
7878.65, 0.0403840
7890.64, 0.0402910
7902.67, 0.0399190
7914.74, 0.0394530
7926.84, 0.0391740
7938.98, 0.0389880
7951.16, 0.0386160
7963.37, 0.0380580
7975.62, 0.0373130
7987.91, 0.0366620
8000.24, 0.0359170
8012.6, 0.0351730
8025.01, 0.0344290
8037.45, 0.0336840
8049.93, 0.0330330
8062.45, 0.0322880
8075.01, 0.0316370
8087.61, 0.0310790
8100.24, 0.0304270
8112.91, 0.0295900
8125.63, 0.0287520
8138.39, 0.0279150
8151.18, 0.0270780
8164.02, 0.0262400
8176.9, 0.0254960
8189.81, 0.0246580
8202.77, 0.0243790
8215.77, 0.0240070
8228.82, 0.0236350
8241.9, 0.0233560
8255.02, 0.0230760
8268.19, 0.0227970
8281.39, 0.0226110
8294.65, 0.0225180
8307.94, 0.0223320
8321.28, 0.0219600
8334.66, 0.0214950
8348.08, 0.0212150
8361.54, 0.0206570
8375.05, 0.0200990
8388.6, 0.0197270
8402.2, 0.0192610
8415.84, 0.0188890
8429.52, 0.0185170
8443.25, 0.0181450
8457.02, 0.0178660
8470.84, 0.0177730
8484.7, 0.0175860
8498.61, 0.0174000
8512.57, 0.0172140
8526.57, 0.0170280
8540.62, 0.0167490
8554.71, 0.0164700
8568.85, 0.0161910
8583.04, 0.0157250
8597.27, 0.0152600
8611.55, 0.0149810
8625.88, 0.0148880
8640.26, 0.0147950
8654.68, 0.0147020
8669.16, 0.0145160
8683.68, 0.0143300
8698.25, 0.0140510
8712.87, 0.0136780
8727.53, 0.0134920
8742.25, 0.0135850
8757.02, 0.0133060
8771.83, 0.0129340
8786.7, 0.0130270
8801.62, 0.0130270
8816.59, 0.0130270
8831.61, 0.0130270
8846.68, 0.0130270
8861.8, 0.0127480
8876.97, 0.0128410
8892.2, 0.0133060
8907.48, 0.0134920
8922.81, 0.0137710
8938.2, 0.0142370
8953.63, 0.0149810
8969.13, 0.0159120
8984.67, 0.0169350
9000.27, 0.0183310
9015.92, 0.0200060
9031.63, 0.0216810
9047.39, 0.0231690
9063.21, 0.0252170
9079.08, 0.0278220
9095.01, 0.0308930
9111.0, 0.0341490
9127.04, 0.0380580
9143.13, 0.0424310
9159.28, 0.0471760
9175.49, 0.0523870
9191.76, 0.0585290
9208.09, 0.0652280
9224.47, 0.0722070
9240.92, 0.0799300
9257.42, 0.0883980
9273.98, 0.0972370
9290.6, 0.106170
9307.28, 0.114731
9324.02, 0.121617
9340.82, 0.126827
9357.68, 0.129898
9374.6, 0.131201
9391.58, 0.131666
9408.62, 0.131480
9425.73, 0.130922
9442.9, 0.130363
9460.13, 0.129805
9477.42, 0.129061
9494.78, 0.128037
9512.2, 0.126920
9529.69, 0.125432
9547.24, 0.123757
9564.86, 0.122082
9582.54, 0.120221
9600.28, 0.118174
9618.1, 0.116127
9635.97, 0.114266
9653.92, 0.112405
9671.93, 0.110544
9690.01, 0.108776
9708.16, 0.107101
9726.37, 0.105612
9744.65, 0.104309
9763.0, 0.103100
9781.43, 0.101797
9799.92, 0.100866
9818.48, 0.100215
9837.1, 0.100029
9855.8, 0.100029
9874.58, 0.100308
9893.42, 0.100680
9912.34, 0.101332
9931.33, 0.102634
9950.39, 0.104309
9969.52, 0.106077
9988.74, 0.107938
10008.0, 0.110264
10027.4, 0.113707
10046.8, 0.118174
10066.3, 0.124129
10085.9, 0.132783
10105.6, 0.143297
10125.3, 0.152416
10145.1, 0.156603
10165.0, 0.154649
10185.0, 0.148508
10205.0, 0.141064
10225.2, 0.135016
10245.4, 0.131573
10265.7, 0.130456
10286.0, 0.131108
10306.5, 0.133992
10327.0, 0.138552
10347.6, 0.144321
10368.3, 0.150369
10389.1, 0.155673
10409.9, 0.163768
10430.9, 0.180052
10451.9, 0.199593
10473.0, 0.215039
10494.2, 0.224995
10515.5, 0.231043
10536.9, 0.234114
10558.4, 0.235324
10579.9, 0.235417
10601.5, 0.234579
10623.3, 0.233277
10645.1, 0.231974
10667.0, 0.230578
10689.0, 0.228810
10711.1, 0.226763
10733.2, 0.224716
10755.5, 0.222576
10777.9, 0.220250
10800.3, 0.217551
10822.9, 0.214760
10845.5, 0.211875
10868.2, 0.209177
10891.1, 0.206385
10914.0, 0.203408
10937.0, 0.200244
10960.2, 0.197359
10983.4, 0.194661
11006.7, 0.192055
11030.1, 0.189729
11053.6, 0.187310
11077.3, 0.184891
11101.0, 0.182378
11124.8, 0.180238
11148.7, 0.178284
11172.7, 0.176330
11196.9, 0.174469
11221.1, 0.172422
11245.4, 0.170375
11269.9, 0.168421
11294.4, 0.166281
11319.1, 0.163954
11343.9, 0.161442
11368.8, 0.158557
11393.7, 0.154649
11418.8, 0.149345
11444.0, 0.142088
11469.4, 0.132783
11494.8, 0.122268
11520.3, 0.111846
11546.0, 0.102727
11571.8, 0.0951900
11597.7, 0.0891420
11623.7, 0.0843030
11649.8, 0.0801160
11676.0, 0.0762080
11702.4, 0.0724860
11728.9, 0.0688570
11755.5, 0.0655070
11782.2, 0.0624370
11809.0, 0.0605760
11836.0, 0.0607620
11863.0, 0.0631810
11890.3, 0.0665310
11917.6, 0.0691360
11945.0, 0.0699740
11972.6, 0.0691360
12000.4, 0.0673680
12028.2, 0.0653210
12056.2, 0.0634600
12084.3, 0.0618780
12112.5, 0.0605760
12140.9, 0.0592730
12169.4, 0.0576910
12198.0, 0.0561090
12226.8, 0.0548070
12255.7, 0.0537830
12284.7, 0.0526660
12313.9, 0.0515500
12343.2, 0.0506190
12372.7, 0.0496890
12402.3, 0.0488510
12432.0, 0.0482000
12461.9, 0.0474560
12491.9, 0.0466180
12522.1, 0.0459670
12552.4, 0.0449430
12582.9, 0.0439200
12613.5, 0.0431750
12644.3, 0.0426170
12675.2, 0.0420590
12706.3, 0.0415930
12737.5, 0.0412210
12768.9, 0.0405700
12800.4, 0.0397320
12832.1, 0.0391740
12863.9, 0.0384300
12895.9, 0.0377780
12928.1, 0.0372200
12960.4, 0.0366620
12992.9, 0.0363830
13025.5, 0.0357310
13058.3, 0.0348940
13091.3, 0.0342420
13124.4, 0.0335910
13157.8, 0.0332190
13191.2, 0.0328470
13224.9, 0.0322880
13258.7, 0.0321020
13292.7, 0.0311720
13326.9, 0.0300550
13361.2, 0.0295900
13395.7, 0.0291250
13430.4, 0.0289390
13465.3, 0.0285660
13500.4, 0.0280080
13535.7, 0.0276360
13571.1, 0.0276360
13606.7, 0.0270780
13642.5, 0.0264260
13678.5, 0.0258680
13714.7, 0.0253100
13751.1, 0.0246580
13787.6, 0.0242860
13824.4, 0.0239140
13861.4, 0.0235420
13898.5, 0.0233560
13935.9, 0.0231690
13973.5, 0.0226110
14011.2, 0.0220530
14049.2, 0.0214020
14087.4, 0.0208430
14125.8, 0.0206570
14164.3, 0.0204710
14203.2, 0.0198200
14242.2, 0.0188890
14281.4, 0.0182380
14320.9, 0.0183310
14360.5, 0.0183310
14400.4, 0.0177730
14440.5, 0.0173070
14480.9, 0.0167490
14521.4, 0.0162840
14562.2, 0.0165630
14603.3, 0.0162840
14644.5, 0.0158190
14686.0, 0.0155390
14727.7, 0.0152600
14769.7, 0.0150740
14811.9, 0.0148880
14854.3, 0.0147020
14897.0, 0.0148880
14939.9, 0.0149810
14983.1, 0.0149810
15026.5, 0.0155390
15070.2, 0.0161910
15114.2, 0.0168420
15158.3, 0.0176800
15202.8, 0.0192610
15247.5, 0.0216810
15292.5, 0.0247510
15337.7, 0.0281940
15383.2, 0.0320090
15429.0, 0.0362900
15475.1, 0.0410350
15521.4, 0.0458740
15568.0, 0.0504330
15614.9, 0.0545270
15662.1, 0.0578770
15709.6, 0.0606690
15757.3, 0.0627160
15805.4, 0.0640180
15853.7, 0.0643910
15902.3, 0.0640180
15951.2, 0.0632740
16000.5, 0.0623440
16050.0, 0.0612270
16099.8, 0.0600170
16150.0, 0.0581560
16200.5, 0.0562020
16251.3, 0.0539690
16302.4, 0.0512710
16353.8, 0.0485720
16405.5, 0.0462460
16457.6, 0.0440130
16510.0, 0.0415000
16562.8, 0.0395460
16615.9, 0.0374060
16669.3, 0.0354520
16723.1, 0.0340560
16777.2, 0.0324740
16831.7, 0.0310790
16886.5, 0.0303340
16941.7, 0.0297760
16997.2, 0.0296830
17053.1, 0.0317300
17109.4, 0.0344290
17166.1, 0.0378710
17223.1, 0.0422450
17280.5, 0.0469900
17338.3, 0.0532250
17396.5, 0.0610410
17455.1, 0.0678340
17514.0, 0.0754640
17573.4, 0.0839310
17633.2, 0.0910030
17693.4, 0.0968650
17754.0, 0.102169
17815.0, 0.106170
17876.4, 0.108869
17938.3, 0.111474
18000.5, 0.114731
18063.3, 0.118360
18126.4, 0.122919
18190.0, 0.127665
18254.1, 0.131573
18318.6, 0.132689
18383.5, 0.132503
18449.0, 0.132783
18514.9, 0.134457
18581.2, 0.139110
18648.0, 0.147671
18715.4, 0.156883
18783.2, 0.165350
18851.5, 0.170840
18920.3, 0.172236
18989.6, 0.170096
19059.4, 0.166374
19129.7, 0.160791
19200.6, 0.154463
19272.0, 0.147857
19343.9, 0.141715
19416.3, 0.137807
19489.3, 0.133806
19562.8, 0.129805
19637.0, 0.128130
19711.6, 0.128781
19786.8, 0.129619
19862.6, 0.127944
19939.0, 0.120407
20016.0, 0.109613
20093.6, 0.0990050
20171.8, 0.0891420
20250.6, 0.0788130
20330.0, 0.0692290
20410.0, 0.0623440
20490.7, 0.0560160
20572.0, 0.0515500
20654.0, 0.0495960
20736.6, 0.0511780
20819.9, 0.0563880
20903.8, 0.0629020
20988.5, 0.0697880
21073.8, 0.0745330
21159.8, 0.0771390
21246.5, 0.0795580
21334.0, 0.0808610
21422.1, 0.0784410
21511.0, 0.0765800
21600.7, 0.0758360
21691.0, 0.0772320
21782.1, 0.0806740
21874.0, 0.0867230
21966.7, 0.0933290
22060.2, 0.100959
22154.5, 0.112032
22249.6, 0.125245
22345.5, 0.109368
22442.2, 0.113120
22539.8, 0.115749
22638.2, 0.117939
22737.5, 0.120212
22837.7, 0.123991
22938.7, 0.129742
23040.7, 0.139271
23143.5, 0.149403
23247.3, 0.158877
23352.1, 0.166764
23457.7, 0.171802
23564.4, 0.174650
23672.0, 0.176978
23780.5, 0.179360
23890.1, 0.181770
24000.7, 0.183221
24112.3, 0.181770
24225.0, 0.176129
24338.7, 0.166134
24453.5, 0.154113
24569.4, 0.143570
24686.4, 0.138176
24804.5, 0.137820
24923.8, 0.140558
25044.2, 0.143515
25165.8, 0.145843
25288.6, 0.143926
25412.5, 0.137080
25537.7, 0.126894
25664.1, 0.116899
25791.8, 0.109149
25920.8, 0.101756
26051.1, 0.0984430
26182.6, 0.0996750
26315.5, 0.100880
26449.8, 0.100359
26585.4, 0.0972650
26722.5, 0.0931580
26860.9, 0.0933220
27000.8, 0.0986890
27142.1, 0.105946
27285.0, 0.112764
27429.4, 0.118925
27575.3, 0.124703
27722.7, 0.128071
27871.8, 0.129824
28022.4, 0.131275
28174.7, 0.130015
28328.7, 0.126839
28484.4, 0.125607
28641.7, 0.123690
28800.9, 0.120294
28961.8, 0.116817
29124.5, 0.114106
29289.0, 0.111367
29455.4, 0.107123
29623.8, 0.102988
29794.0, 0.0982780
29966.3, 0.0940070
30140.5, 0.0908030
30316.7, 0.0857640
30495.1, 0.0806160
30675.5, 0.0780420
30858.1, 0.0754680
31042.8, 0.0710050
31229.8, 0.0672260
31419.1, 0.0664040
31610.7, 0.0649800
31804.6, 0.0617760
32000.9, 0.0594220
32199.7, 0.0583260
32400.9, 0.0630910
32604.8, 0.0715800
32811.1, 0.0815200
33020.1, 0.0934860
33231.8, 0.105891
33446.2, 0.115174
33663.4, 0.122348
33883.4, 0.129659
34106.3, 0.135629
34332.1, 0.138121
34561.0, 0.138504
34792.9, 0.138532
35028.0, 0.134999
35266.3, 0.128455
35507.8, 0.120760
35752.7, 0.116461
36001.0, 0.116187
36252.8, 0.114927
36508.1, 0.113339
36767.0, 0.111066
37029.7, 0.107342
37296.1, 0.104741
37566.3, 0.102632
37840.5, 0.101729
38118.8, 0.0997300
38401.2, 0.0973200
38687.8, 0.0967170
38978.6, 0.0957040
39273.9, 0.0922810
39573.7, 0.0903370
39878.1, 0.0888860
40187.3, 0.0872430
40501.2, 0.0860380
40820.0, 0.0862020
41144.0, 0.0862300
41473.2, 0.0848880
41807.6, 0.0844220
42147.5, 0.0839570
42493.0, 0.0835460
42844.2, 0.0814650
43201.2, 0.0801780
43564.3, 0.0799320
43933.5, 0.0781240
44309.0, 0.0791920
44691.0, 0.0792200
45079.6, 0.0806440
45475.0, 0.0812460
45877.5, 0.0816290
46287.1, 0.0795480
46704.2, 0.0776590
47128.7, 0.0791100
47561.1, 0.0777680
48001.5, 0.0827520
48450.1, 0.0878730
48907.2, 0.0813550
49373.0, 0.0754410
49847.7, 0.0737430
50331.5, 0.0736880
50825.0, 0.0740990
51328.2, 0.0750850
51841.5, 0.0760430
52365.1, 0.0756870
52899.4, 0.0759880
53444.8, 0.0760980
54001.5, 0.0747560
54570.1, 0.0733600
55150.6, 0.0735790
55743.6, 0.0739350
56349.5, 0.0720180
56968.7, 0.0722640
57601.7, 0.0748660
58248.9, 0.0757420
58910.9, 0.0752220
59588.1, 0.0742910
60281.0, 0.0753860
60990.2, 0.0759610
61716.3, 0.0770290
62459.8, 0.0816840
63221.6, 0.0810820
64002.1, 0.0757690
64802.1, 0.0757690
65622.1, 0.0760430
66463.4, 0.0816840
67326.6, 0.0882010
68212.4, 0.0826700
69121.9, 0.0808080
70056.0, 0.0809450
71015.7, 0.0798770
72002.0, 0.0778780
73016.3, 0.0826970
74059.4, 0.0875710
75132.7, 0.0932120
76237.6, 0.0944720
77375.5, 0.0967720
78547.9, 0.101619
79756.3, 0.106302
81002.5, 0.105206
82288.5, 0.103700
83615.7, 0.112928
84986.5, 0.128893
86402.9, 0.133849
87867.4, 0.128756
89382.4, 0.115886
90950.5, 0.123526
92574.6, 0.135519
94257.2, 0.138970
96002.7, 0.140257
97814.1, 0.140175
99695.1, 0.142502
101650.0, 0.145624
103683.0, 0.146007
105799.0, 0.143296
108003.0, 0.148636
110301.0, 0.154825
112699.0, 0.160438
115204.0, 0.167476
117822.0, 0.177060
120562.0, 0.181551
123433.0, 0.184535
126443.0, 0.195352
129604.0, 0.200226
132926.0, 0.191956
136424.0, 0.188287
140111.0, 0.196913
144003.0, 0.213534
148118.0, 0.230457
152474.0, 0.240342
157095.0, 0.243382
162004.0, 0.236646
167231.0, 0.233469
172805.0, 0.235906
178764.0, 0.248639
185148.0, 0.254746
192005.0, 0.261345
199390.0, 0.301599
207366.0, 0.361896
216006.0, 0.380544
