Database of Origin, USGS Spectral Database
Sample Description, See USGS database for additional info
Date Added,2016-08-03 21:24:05.292080

Data ID,USGS_cli06          
Sample ID, clinochlore_gds158.5341
Mineral Name, clinochlore
Material Class,Phyllosilicate

Wavelength
1602.52, 0.317414
1603.02, 0.318245
1603.51, 0.318813
1604.01, 0.319207
1604.5, 0.319469
1605.0, 0.320257
1605.5, 0.321263
1606.0, 0.321788
1606.49, 0.322006
1606.99, 0.322094
1607.49, 0.322225
1607.99, 0.322969
1608.49, 0.323668
1608.99, 0.324587
1609.49, 0.324762
1609.99, 0.325374
1610.49, 0.325812
1610.99, 0.326293
1611.49, 0.326730
1611.99, 0.327168
1612.49, 0.327430
1612.99, 0.328130
1613.49, 0.328698
1614.0, 0.329092
1614.5, 0.329617
1615.0, 0.330229
1615.51, 0.330667
1616.01, 0.331191
1616.51, 0.331760
1617.02, 0.332416
1617.52, 0.332635
1618.03, 0.333335
1618.53, 0.333641
1619.04, 0.334384
1619.54, 0.334734
1620.05, 0.335041
1620.55, 0.335784
1621.06, 0.336440
1621.57, 0.336790
1622.08, 0.337009
1622.58, 0.337621
1623.09, 0.338321
1623.6, 0.338496
1624.11, 0.338715
1624.62, 0.339239
1625.13, 0.339808
1625.64, 0.340683
1626.15, 0.341645
1626.66, 0.341689
1627.17, 0.341733
1627.68, 0.341951
1628.19, 0.342564
1628.7, 0.343395
1629.21, 0.344182
1629.72, 0.344051
1630.24, 0.344182
1630.75, 0.344663
1631.26, 0.345625
1631.78, 0.345757
1632.29, 0.346019
1632.8, 0.346938
1633.32, 0.347681
1633.83, 0.347462
1634.35, 0.347769
1634.86, 0.348337
1635.38, 0.348949
1635.9, 0.349299
1636.41, 0.349781
1636.93, 0.350262
1637.45, 0.350743
1637.96, 0.350962
1638.48, 0.351180
1639.0, 0.351661
1639.52, 0.352405
1640.04, 0.352973
1640.56, 0.353323
1641.08, 0.353586
1641.59, 0.354154
1642.11, 0.354417
1642.63, 0.354723
1643.16, 0.355073
1643.68, 0.355729
1644.2, 0.355991
1644.72, 0.356210
1645.24, 0.356648
1645.76, 0.357347
1646.29, 0.357522
1646.81, 0.357785
1647.33, 0.358222
1647.86, 0.358703
1648.38, 0.359097
1648.9, 0.359622
1649.43, 0.359884
1649.95, 0.360190
1650.48, 0.360584
1651.0, 0.361240
1651.53, 0.361940
1652.06, 0.362071
1652.58, 0.362115
1653.11, 0.362377
1653.64, 0.362640
1654.17, 0.363383
1654.69, 0.363733
1655.22, 0.363996
1655.75, 0.364346
1656.28, 0.364652
1656.81, 0.365002
1657.34, 0.365570
1657.87, 0.365876
1658.4, 0.366270
1658.93, 0.366620
1659.46, 0.367014
1659.99, 0.367320
1660.52, 0.367670
1661.05, 0.368151
1661.59, 0.368588
1662.12, 0.369026
1662.65, 0.369244
1663.19, 0.369463
1663.72, 0.369988
1664.26, 0.370338
1664.79, 0.370688
1665.32, 0.370994
1665.86, 0.371256
1666.39, 0.371650
1666.93, 0.372175
1667.47, 0.372394
1668.0, 0.372525
1668.54, 0.372831
1669.08, 0.373356
1669.61, 0.373531
1670.15, 0.373750
1670.69, 0.374099
1671.23, 0.374493
1671.77, 0.374930
1672.31, 0.375499
1672.85, 0.375761
1673.39, 0.375980
1673.93, 0.376374
1674.47, 0.376549
1675.01, 0.376942
1675.55, 0.377424
1676.09, 0.377511
1676.64, 0.378255
1677.18, 0.378605
1677.72, 0.378692
1678.26, 0.378867
1678.81, 0.379261
1679.35, 0.379698
1679.89, 0.380223
1680.44, 0.380660
1680.98, 0.380966
1681.53, 0.381010
1682.07, 0.380923
1682.62, 0.381273
1683.17, 0.382016
1683.71, 0.382147
1684.26, 0.382279
1684.81, 0.382366
1685.36, 0.382891
1685.9, 0.383285
1686.45, 0.383678
1687.0, 0.383897
1687.55, 0.384072
1688.1, 0.384247
1688.65, 0.384815
1689.2, 0.384947
1689.75, 0.385122
1690.3, 0.385384
1690.85, 0.385996
1691.41, 0.386390
1691.96, 0.386827
1692.51, 0.387090
1693.06, 0.387177
1693.61, 0.387396
1694.17, 0.387833
1694.72, 0.388096
1695.28, 0.388446
1695.83, 0.388664
1696.39, 0.388883
1696.94, 0.389321
1697.5, 0.389452
1698.05, 0.389408
1698.61, 0.390020
1699.17, 0.390589
1699.72, 0.390939
1700.28, 0.391158
1700.84, 0.391376
1701.4, 0.391333
1701.95, 0.391595
1702.51, 0.392032
1703.07, 0.392514
1703.63, 0.392601
1704.19, 0.392820
1704.75, 0.393213
1705.31, 0.393476
1705.88, 0.393520
1706.44, 0.394044
1707.0, 0.394438
1707.56, 0.394657
1708.12, 0.394963
1708.69, 0.395269
1709.25, 0.395575
1709.81, 0.395794
1710.38, 0.396013
1710.94, 0.396319
1711.51, 0.396450
1712.07, 0.396931
1712.64, 0.397106
1713.2, 0.397500
1713.77, 0.397631
1714.34, 0.397718
1714.9, 0.397806
1715.47, 0.398243
1716.04, 0.398418
1716.61, 0.398812
1717.18, 0.399074
1717.74, 0.399293
1718.31, 0.399599
1718.88, 0.399949
1719.45, 0.400255
1720.02, 0.400605
1720.59, 0.400561
1721.17, 0.400911
1721.74, 0.401130
1722.31, 0.401436
1722.88, 0.401830
1723.45, 0.402267
1724.03, 0.402311
1724.6, 0.402617
1725.18, 0.402705
1725.75, 0.402923
1726.33, 0.402923
1726.9, 0.403361
1727.48, 0.403798
1728.05, 0.404017
1728.63, 0.404192
1729.2, 0.404279
1729.78, 0.404585
1730.36, 0.404848
1730.94, 0.405242
1731.51, 0.405723
1732.09, 0.405854
1732.67, 0.405985
1733.25, 0.406510
1733.83, 0.406772
1734.41, 0.406641
1734.99, 0.406947
1735.57, 0.407341
1736.15, 0.407428
1736.73, 0.407472
1737.32, 0.407778
1737.9, 0.408085
1738.48, 0.408391
1739.07, 0.408784
1739.65, 0.409134
1740.23, 0.409309
1740.82, 0.409397
1741.4, 0.409484
1741.99, 0.409747
1742.57, 0.409878
1743.16, 0.410140
1743.74, 0.410534
1744.33, 0.410796
1744.92, 0.410840
1745.51, 0.411015
1746.09, 0.411409
1746.68, 0.411496
1747.27, 0.411715
1747.86, 0.412152
1748.45, 0.412109
1749.04, 0.412109
1749.63, 0.412458
1750.22, 0.412983
1750.81, 0.413333
1751.4, 0.413596
1751.99, 0.413814
1752.59, 0.413989
1753.18, 0.414164
1753.77, 0.414296
1754.37, 0.414296
1754.96, 0.414514
1755.56, 0.414645
1756.15, 0.414820
1756.74, 0.415170
1757.34, 0.415476
1757.94, 0.415564
1758.53, 0.415783
1759.13, 0.416176
1759.73, 0.416133
1760.32, 0.416395
1760.92, 0.416701
1761.52, 0.417051
1762.12, 0.417357
1762.72, 0.417488
1763.32, 0.417707
1763.92, 0.417970
1764.52, 0.418363
1765.12, 0.418451
1765.72, 0.418538
1766.32, 0.418626
1766.92, 0.418844
1767.53, 0.419063
1768.13, 0.419238
1768.73, 0.419500
1769.34, 0.419544
1769.94, 0.419500
1770.55, 0.419807
1771.15, 0.419850
1771.76, 0.419938
1772.36, 0.420419
1772.97, 0.420725
1773.57, 0.420988
1774.18, 0.421163
1774.79, 0.421294
1775.4, 0.421644
1776.0, 0.421600
1776.61, 0.421687
1777.22, 0.421819
1777.83, 0.422125
1778.44, 0.422300
1779.05, 0.422475
1779.66, 0.422781
1780.27, 0.423262
1780.88, 0.423481
1781.5, 0.423524
1782.11, 0.423656
1782.72, 0.424268
1783.33, 0.424487
1783.95, 0.424049
1784.56, 0.423699
1785.18, 0.423831
1785.79, 0.424181
1786.41, 0.424574
1787.02, 0.424705
1787.64, 0.425055
1788.26, 0.425318
1788.87, 0.425449
1789.49, 0.425580
1790.11, 0.425886
1790.73, 0.425930
1791.35, 0.426149
1791.96, 0.426280
1792.58, 0.426499
1793.21, 0.426717
1793.83, 0.426936
1794.45, 0.427024
1795.07, 0.427242
1795.69, 0.427417
1796.31, 0.427548
1796.93, 0.427548
1797.56, 0.427811
1798.18, 0.428073
1798.8, 0.428205
1799.43, 0.428030
1800.05, 0.428073
1800.68, 0.428205
1801.3, 0.428336
1801.93, 0.428467
1802.56, 0.428729
1803.18, 0.428817
1803.81, 0.429036
1804.44, 0.429123
1805.07, 0.429342
1805.7, 0.429385
1806.33, 0.429429
1806.95, 0.429560
1807.58, 0.429779
1808.22, 0.429867
1808.85, 0.430129
1809.48, 0.430523
1810.11, 0.430435
1810.74, 0.430391
1811.38, 0.430523
1812.01, 0.430479
1812.64, 0.430785
1813.28, 0.431135
1813.91, 0.431266
1814.55, 0.431135
1815.18, 0.431091
1815.82, 0.431397
1816.45, 0.431616
1817.09, 0.431791
1817.73, 0.431922
1818.36, 0.431879
1819.0, 0.432141
1819.64, 0.431704
1820.28, 0.431266
1820.92, 0.431747
1821.56, 0.432097
1822.2, 0.432360
1822.84, 0.432928
1823.48, 0.433016
1824.12, 0.433060
1824.76, 0.433322
1825.41, 0.432972
1826.05, 0.432316
1826.69, 0.432841
1827.34, 0.433366
1827.98, 0.433497
1828.63, 0.433584
1829.27, 0.433672
1829.92, 0.433584
1830.56, 0.433322
1831.21, 0.433366
1831.86, 0.433759
1832.5, 0.434022
1833.15, 0.434415
1833.8, 0.434459
1834.45, 0.434022
1835.1, 0.433934
1835.75, 0.433584
1836.4, 0.433759
1837.05, 0.433978
1837.7, 0.433934
1838.35, 0.434809
1839.01, 0.434634
1839.66, 0.434109
1840.31, 0.434459
1840.96, 0.434415
1841.62, 0.433584
1842.27, 0.434241
1842.93, 0.434940
1843.58, 0.435246
1844.24, 0.435509
1844.9, 0.435553
1845.55, 0.435246
1846.21, 0.434547
1846.87, 0.433541
1847.53, 0.433716
1848.18, 0.433978
1848.84, 0.434722
1849.5, 0.435115
1850.16, 0.435115
1850.82, 0.435203
1851.48, 0.435378
1852.14, 0.434940
1852.81, 0.434503
1853.47, 0.433759
1854.13, 0.433891
1854.8, 0.434722
1855.46, 0.434897
1856.12, 0.434197
1856.79, 0.434022
1857.45, 0.434722
1858.12, 0.434940
1858.79, 0.434459
1859.45, 0.433672
1860.12, 0.433978
1860.79, 0.434722
1861.46, 0.435072
1862.12, 0.435028
1862.79, 0.434853
1863.46, 0.434503
1864.13, 0.434241
1864.8, 0.434503
1865.48, 0.434853
1866.15, 0.434897
1866.82, 0.434328
1867.49, 0.433409
1868.16, 0.433584
1868.84, 0.433934
1869.51, 0.433891
1870.19, 0.433191
1870.86, 0.432360
1871.54, 0.433366
1872.21, 0.433409
1872.89, 0.432360
1873.56, 0.432710
1874.24, 0.433541
1874.92, 0.433628
1875.6, 0.433891
1876.28, 0.433541
1876.96, 0.433147
1877.64, 0.433672
1878.32, 0.433978
1879.0, 0.434066
1879.68, 0.434241
1880.36, 0.434022
1881.04, 0.434022
1881.73, 0.434284
1882.41, 0.434459
1883.09, 0.434109
1883.78, 0.433891
1884.46, 0.434503
1885.15, 0.435115
1885.83, 0.435378
1886.52, 0.435421
1887.21, 0.435596
1887.89, 0.435946
1888.58, 0.436252
1889.27, 0.436165
1889.96, 0.435771
1890.65, 0.436515
1891.34, 0.437084
1892.03, 0.437127
1892.72, 0.437258
1893.41, 0.437346
1894.1, 0.437696
1894.79, 0.438046
1895.49, 0.438177
1896.18, 0.438264
1896.87, 0.438264
1897.57, 0.438133
1898.26, 0.438264
1898.96, 0.437958
1899.65, 0.437696
1900.35, 0.438221
1901.05, 0.438746
1901.74, 0.439008
1902.44, 0.438483
1903.14, 0.438571
1903.84, 0.439139
1904.54, 0.439008
1905.24, 0.438308
1905.94, 0.438527
1906.64, 0.438789
1907.34, 0.439402
1908.04, 0.439883
1908.75, 0.440189
1909.45, 0.440364
1910.15, 0.440364
1910.86, 0.440233
1911.56, 0.440495
1912.27, 0.440626
1912.97, 0.440014
1913.68, 0.439883
1914.39, 0.440714
1915.09, 0.441239
1915.8, 0.441370
1916.51, 0.441282
1917.22, 0.441632
1917.93, 0.441851
1918.64, 0.441764
1919.35, 0.441414
1920.06, 0.441064
1920.77, 0.441151
1921.48, 0.441895
1922.19, 0.442332
1922.91, 0.442420
1923.62, 0.442376
1924.33, 0.442638
1925.05, 0.442945
1925.76, 0.443076
1926.48, 0.442988
1927.19, 0.442988
1927.91, 0.442770
1928.63, 0.442638
1929.35, 0.442988
1930.07, 0.443163
1930.78, 0.443251
1931.5, 0.443294
1932.22, 0.443294
1932.94, 0.443251
1933.66, 0.443120
1934.39, 0.443207
1935.11, 0.443207
1935.83, 0.442988
1936.55, 0.442770
1937.28, 0.442770
1938.0, 0.442770
1938.73, 0.442551
1939.45, 0.442245
1940.18, 0.442376
1940.9, 0.442463
1941.63, 0.442376
1942.36, 0.442201
1943.09, 0.441939
1943.81, 0.441589
1944.54, 0.441370
1945.27, 0.441195
1946.0, 0.441064
1946.73, 0.440976
1947.47, 0.440933
1948.2, 0.440539
1948.93, 0.440364
1949.66, 0.440233
1950.4, 0.440233
1951.13, 0.440276
1951.86, 0.440320
1952.6, 0.439970
1953.34, 0.439620
1954.07, 0.439577
1954.81, 0.439664
1955.55, 0.439752
1956.29, 0.439839
1957.02, 0.439752
1957.76, 0.439752
1958.5, 0.439708
1959.24, 0.439489
1959.98, 0.439402
1960.72, 0.439664
1961.47, 0.439708
1962.21, 0.439533
1962.95, 0.439664
1963.7, 0.439664
1964.44, 0.439708
1965.18, 0.439664
1965.93, 0.439489
1966.67, 0.439314
1967.42, 0.438964
1968.17, 0.438789
1968.92, 0.438702
1969.66, 0.438702
1970.41, 0.438527
1971.16, 0.438483
1971.91, 0.438396
1972.66, 0.438221
1973.41, 0.437871
1974.16, 0.437565
1974.92, 0.437346
1975.67, 0.436996
1976.42, 0.436821
1977.18, 0.436777
1977.93, 0.436515
1978.69, 0.436340
1979.44, 0.436165
1980.2, 0.435946
1980.95, 0.435640
1981.71, 0.435421
1982.47, 0.435465
1983.23, 0.435290
1983.99, 0.435203
1984.74, 0.435115
1985.51, 0.434897
1986.27, 0.434765
1987.03, 0.434765
1987.79, 0.434853
1988.55, 0.434722
1989.32, 0.434722
1990.08, 0.434809
1990.84, 0.434940
1991.61, 0.434940
1992.37, 0.435072
1993.14, 0.434940
1993.9, 0.434984
1994.67, 0.435115
1995.44, 0.435159
1996.21, 0.435115
1996.98, 0.435246
1997.75, 0.435334
1998.52, 0.435640
1999.29, 0.435771
2000.06, 0.435903
2000.83, 0.436034
2001.6, 0.436209
2002.38, 0.436471
2003.15, 0.436865
2003.93, 0.437040
2004.7, 0.437215
2005.48, 0.437433
2006.25, 0.437915
2007.03, 0.438177
2007.81, 0.438396
2008.58, 0.438746
2009.36, 0.439183
2010.14, 0.439533
2010.92, 0.439883
2011.7, 0.440364
2012.48, 0.440714
2013.26, 0.441151
2014.05, 0.441676
2014.83, 0.442114
2015.61, 0.442507
2016.4, 0.442901
2017.18, 0.443513
2017.97, 0.443994
2018.75, 0.444519
2019.54, 0.445131
2020.32, 0.445700
2021.11, 0.446225
2021.9, 0.446794
2022.69, 0.447231
2023.48, 0.447756
2024.27, 0.448368
2025.06, 0.449112
2025.85, 0.449549
2026.64, 0.450030
2027.44, 0.450774
2028.23, 0.451430
2029.02, 0.451824
2029.82, 0.452348
2030.61, 0.452873
2031.41, 0.453573
2032.2, 0.454098
2033.0, 0.454448
2033.8, 0.454885
2034.6, 0.455498
2035.4, 0.455935
2036.2, 0.456372
2037.0, 0.456766
2037.8, 0.457203
2038.6, 0.457422
2039.4, 0.457816
2040.2, 0.458384
2041.01, 0.458822
2041.81, 0.459259
2042.61, 0.459653
2043.42, 0.459740
2044.22, 0.460134
2045.03, 0.460703
2045.84, 0.461052
2046.65, 0.461096
2047.46, 0.461446
2048.26, 0.461840
2049.07, 0.462190
2049.88, 0.462408
2050.69, 0.462758
2051.51, 0.462977
2052.32, 0.463239
2053.13, 0.463502
2053.94, 0.463721
2054.76, 0.463939
2055.57, 0.464289
2056.39, 0.464464
2057.2, 0.464814
2058.02, 0.465076
2058.84, 0.465208
2059.66, 0.465208
2060.48, 0.465470
2061.29, 0.465864
2062.11, 0.466214
2062.94, 0.466214
2063.76, 0.466345
2064.58, 0.466739
2065.4, 0.467001
2066.22, 0.466957
2067.05, 0.466826
2067.87, 0.467045
2068.7, 0.467263
2069.52, 0.467482
2070.35, 0.467570
2071.18, 0.467701
2072.0, 0.468007
2072.83, 0.468094
2073.66, 0.468226
2074.49, 0.468401
2075.32, 0.468619
2076.15, 0.468663
2076.98, 0.468663
2077.82, 0.468663
2078.65, 0.468794
2079.48, 0.469013
2080.32, 0.469100
2081.15, 0.469232
2081.99, 0.469319
2082.83, 0.469407
2083.66, 0.469625
2084.5, 0.469800
2085.34, 0.469888
2086.18, 0.469975
2087.02, 0.469931
2087.86, 0.470019
2088.7, 0.470281
2089.54, 0.470238
2090.39, 0.470194
2091.23, 0.470281
2092.07, 0.470325
2092.92, 0.470369
2093.76, 0.470544
2094.61, 0.470588
2095.45, 0.470456
2096.3, 0.470281
2097.15, 0.470194
2098.0, 0.470063
2098.85, 0.470019
2099.7, 0.469975
2100.55, 0.469975
2101.4, 0.469844
2102.25, 0.469669
2103.1, 0.469538
2103.96, 0.469407
2104.81, 0.469363
2105.67, 0.469319
2106.52, 0.469275
2107.38, 0.469275
2108.24, 0.469057
2109.09, 0.469144
2109.95, 0.469188
2110.81, 0.469013
2111.67, 0.468751
2112.53, 0.468707
2113.39, 0.468794
2114.25, 0.468794
2115.12, 0.468969
2115.98, 0.469013
2116.84, 0.468794
2117.71, 0.468794
2118.58, 0.468925
2119.44, 0.469144
2120.31, 0.469319
2121.18, 0.469319
2122.04, 0.469275
2122.91, 0.469363
2123.78, 0.469538
2124.65, 0.469669
2125.52, 0.469757
2126.4, 0.469975
2127.27, 0.469975
2128.14, 0.469888
2129.02, 0.470019
2129.89, 0.470281
2130.77, 0.470238
2131.64, 0.470413
2132.52, 0.470675
2133.4, 0.470631
2134.27, 0.470544
2135.15, 0.470631
2136.03, 0.470631
2136.91, 0.470981
2137.79, 0.471025
2138.68, 0.470937
2139.56, 0.470981
2140.44, 0.471156
2141.33, 0.471200
2142.21, 0.471287
2143.1, 0.471287
2143.99, 0.471156
2144.87, 0.470937
2145.76, 0.470850
2146.65, 0.470981
2147.54, 0.471025
2148.43, 0.470981
2149.32, 0.470981
2150.21, 0.471025
2151.1, 0.470981
2151.99, 0.470806
2152.89, 0.470763
2153.78, 0.470544
2154.68, 0.470325
2155.57, 0.470281
2156.47, 0.470106
2157.37, 0.469975
2158.27, 0.469931
2159.16, 0.469669
2160.06, 0.469625
2160.96, 0.469625
2161.86, 0.469538
2162.77, 0.469275
2163.67, 0.469100
2164.57, 0.469100
2165.48, 0.468751
2166.38, 0.468532
2167.29, 0.468444
2168.2, 0.468269
2169.1, 0.468182
2170.01, 0.468051
2170.92, 0.467919
2171.83, 0.467788
2172.74, 0.467526
2173.65, 0.467263
2174.56, 0.467132
2175.47, 0.466957
2176.39, 0.466607
2177.3, 0.466345
2178.22, 0.466126
2179.13, 0.465864
2180.05, 0.465558
2180.96, 0.465251
2181.88, 0.464989
2182.8, 0.464770
2183.72, 0.464464
2184.64, 0.464070
2185.56, 0.463764
2186.48, 0.463283
2187.41, 0.462802
2188.33, 0.462540
2189.25, 0.462321
2190.18, 0.461971
2191.1, 0.461621
2192.03, 0.461140
2192.96, 0.460878
2193.89, 0.460484
2194.82, 0.460046
2195.74, 0.459697
2196.68, 0.459434
2197.61, 0.459259
2198.54, 0.458953
2199.47, 0.458516
2200.4, 0.458078
2201.34, 0.457553
2202.28, 0.457247
2203.21, 0.456985
2204.15, 0.456416
2205.08, 0.455935
2206.02, 0.455498
2206.96, 0.455104
2207.9, 0.454579
2208.84, 0.454054
2209.78, 0.453442
2210.73, 0.453048
2211.67, 0.452567
2212.61, 0.451867
2213.56, 0.451299
2214.5, 0.450643
2215.45, 0.449855
2216.4, 0.449199
2217.35, 0.448587
2218.3, 0.447800
2219.24, 0.446881
2220.2, 0.445919
2221.15, 0.444825
2222.1, 0.443557
2223.05, 0.442288
2224.0, 0.441064
2224.96, 0.439795
2225.91, 0.438396
2226.87, 0.436909
2227.83, 0.435159
2228.79, 0.433409
2229.74, 0.431485
2230.7, 0.429473
2231.66, 0.427286
2232.63, 0.424880
2233.59, 0.422212
2234.55, 0.419369
2235.51, 0.416176
2236.48, 0.412940
2237.44, 0.409397
2238.41, 0.405504
2239.38, 0.401524
2240.34, 0.397456
2241.31, 0.393213
2242.28, 0.389233
2243.25, 0.385472
2244.22, 0.381797
2245.19, 0.378605
2246.17, 0.375893
2247.14, 0.373618
2248.12, 0.372131
2249.09, 0.371081
2250.07, 0.370469
2251.04, 0.370338
2252.02, 0.370688
2253.0, 0.371475
2253.98, 0.372437
2254.96, 0.373793
2255.94, 0.375149
2256.92, 0.376593
2257.91, 0.378036
2258.89, 0.379304
2259.88, 0.380660
2260.86, 0.381929
2261.85, 0.383066
2262.83, 0.384159
2263.82, 0.385165
2264.81, 0.385953
2265.8, 0.386827
2266.79, 0.387615
2267.78, 0.388271
2268.78, 0.388752
2269.77, 0.389277
2270.76, 0.389627
2271.76, 0.389845
2272.75, 0.390108
2273.75, 0.390327
2274.75, 0.390283
2275.75, 0.390195
2276.75, 0.390151
2277.75, 0.390062
2278.75, 0.389398
2279.75, 0.388734
2280.75, 0.387848
2281.76, 0.386697
2282.76, 0.385767
2283.77, 0.384660
2284.77, 0.383199
2285.78, 0.381384
2286.79, 0.379612
2287.8, 0.377974
2288.81, 0.376646
2289.82, 0.374653
2290.83, 0.372926
2291.84, 0.371642
2292.86, 0.370314
2293.87, 0.369162
2294.89, 0.368188
2295.91, 0.366948
2296.92, 0.366240
2297.94, 0.365620
2298.96, 0.364911
2299.98, 0.364513
2301.0, 0.363716
2302.02, 0.363096
2303.04, 0.363007
2304.07, 0.362875
2305.09, 0.362609
2306.12, 0.361945
2307.15, 0.361148
2308.17, 0.360793
2309.2, 0.360218
2310.23, 0.359332
2311.26, 0.358668
2312.29, 0.358137
2313.32, 0.357295
2314.35, 0.356321
2315.39, 0.355303
2316.42, 0.354329
2317.46, 0.353266
2318.5, 0.352159
2319.53, 0.351052
2320.57, 0.350166
2321.61, 0.349369
2322.65, 0.348528
2323.69, 0.347642
2324.73, 0.346668
2325.78, 0.345561
2326.82, 0.344543
2327.86, 0.343923
2328.91, 0.342993
2329.96, 0.342019
2331.01, 0.341487
2332.05, 0.340912
2333.1, 0.340602
2334.15, 0.340159
2335.21, 0.339672
2336.26, 0.339362
2337.31, 0.339141
2338.36, 0.338742
2339.42, 0.338388
2340.48, 0.338565
2341.53, 0.338963
2342.59, 0.339362
2343.65, 0.340070
2344.71, 0.340779
2345.77, 0.341532
2346.83, 0.342196
2347.9, 0.343037
2348.96, 0.344100
2350.02, 0.345074
2351.09, 0.345960
2352.16, 0.347022
2353.23, 0.348351
2354.29, 0.349679
2355.36, 0.350919
2356.43, 0.352557
2357.51, 0.353930
2358.58, 0.355436
2359.65, 0.357074
2360.73, 0.358579
2361.8, 0.360262
2362.88, 0.362033
2363.96, 0.363672
2365.03, 0.365399
2366.11, 0.367170
2367.19, 0.369162
2368.27, 0.371022
2369.36, 0.372882
2370.44, 0.374476
2371.53, 0.375893
2372.61, 0.377177
2373.7, 0.378550
2374.78, 0.379922
2375.87, 0.381251
2376.96, 0.382181
2378.05, 0.383022
2379.14, 0.383819
2380.24, 0.384439
2381.33, 0.385236
2382.42, 0.385767
2383.52, 0.385944
2384.61, 0.386254
2385.71, 0.386476
2386.81, 0.386697
2387.91, 0.386963
2389.01, 0.387229
2390.11, 0.387184
2391.22, 0.387361
2392.32, 0.387494
2393.42, 0.387627
2394.53, 0.388070
2395.64, 0.388424
2396.74, 0.388823
2397.85, 0.389310
2398.96, 0.390062
2400.07, 0.390638
2401.18, 0.391125
2402.3, 0.391789
2403.41, 0.392498
2404.52, 0.393251
2405.64, 0.393959
2406.76, 0.394800
2407.88, 0.395598
2408.99, 0.396173
2410.11, 0.397103
2411.23, 0.397900
2412.36, 0.398431
2413.48, 0.399096
2414.6, 0.399804
2415.73, 0.400335
2416.85, 0.400734
2417.98, 0.401000
2419.11, 0.400867
2420.24, 0.401044
2421.37, 0.401398
2422.5, 0.401310
2423.64, 0.401310
2424.77, 0.401221
2425.9, 0.400690
2427.04, 0.400468
2428.18, 0.400291
2429.31, 0.400114
2430.45, 0.399760
2431.59, 0.399273
2432.73, 0.399007
2433.88, 0.398786
2435.02, 0.398431
2436.16, 0.398121
2437.31, 0.397723
2438.45, 0.397059
2439.6, 0.396616
2440.75, 0.396350
2441.9, 0.396040
2443.05, 0.395686
2444.2, 0.395155
2445.35, 0.394623
2446.51, 0.393782
2447.67, 0.393029
2448.82, 0.392454
2449.98, 0.391834
2451.14, 0.390992
2452.3, 0.390062
2453.46, 0.389265
2454.62, 0.388336
2455.78, 0.387317
2456.94, 0.386609
2458.11, 0.385767
2459.28, 0.384483
2460.44, 0.383509
2461.61, 0.382668
2462.78, 0.381738
2463.95, 0.380808
2465.12, 0.379834
2466.3, 0.379037
2467.47, 0.378417
2468.65, 0.377841
2469.82, 0.377221
2471.0, 0.376513
2472.18, 0.375672
2473.36, 0.375052
2474.54, 0.374653
2475.72, 0.374387
2476.9, 0.374166
2478.08, 0.373635
2479.27, 0.373103
2480.46, 0.372970
2481.64, 0.372882
2482.83, 0.372705
2484.02, 0.372262
2485.21, 0.372173
2486.4, 0.372129
2487.6, 0.371908
2488.79, 0.371863
2489.99, 0.371775
2491.18, 0.371863
2492.38, 0.371863
2493.58, 0.371509
2494.78, 0.371288
2495.98, 0.371376
2497.18, 0.371465
2498.39, 0.371421
2499.59, 0.371553
2500.8, 0.371598
2502.01, 0.371598
2503.21, 0.371509
2504.42, 0.371465
2505.63, 0.371376
2506.84, 0.371465
2508.06, 0.371376
2509.27, 0.371288
2510.49, 0.371199
2511.7, 0.371155
2512.92, 0.371066
2514.14, 0.370978
2515.36, 0.370801
2516.58, 0.370668
2517.8, 0.370402
2519.03, 0.370137
2520.25, 0.370181
2521.48, 0.370269
2522.7, 0.370004
2523.93, 0.369605
2525.16, 0.369649
2526.39, 0.369517
2527.62, 0.369339
2528.86, 0.369295
2530.09, 0.369074
2531.33, 0.368365
2532.56, 0.367967
2533.8, 0.368055
2535.04, 0.367657
2536.28, 0.367303
2537.52, 0.367613
2538.76, 0.367878
2540.01, 0.368100
2541.25, 0.367480
2542.5, 0.366151
2543.75, 0.366063
2544.99, 0.366550
2546.24, 0.366373
2547.49, 0.365531
2548.75, 0.365664
2550.0, 0.365221
2551.26, 0.364336
2552.51, 0.363760
2553.77, 0.364646
2555.03, 0.365266
2556.29, 0.364956
2557.55, 0.364734
2558.81, 0.363937
2560.08, 0.361281
2561.34, 0.358978
2562.61, 0.358757
2563.88, 0.358934
2565.14, 0.360616
2566.41, 0.362432
2567.68, 0.361723
2568.96, 0.359376
2570.23, 0.359465
2571.51, 0.360483
2572.78, 0.357428
2574.06, 0.357915
2575.34, 0.359288
2576.62, 0.358314
2577.9, 0.359465
2579.18, 0.360395
2580.47, 0.358757
2581.75, 0.358092
2583.04, 0.355391
2584.32, 0.355170
2585.61, 0.357782
2586.9, 0.356941
2588.2, 0.357561
2589.49, 0.359022
2590.78, 0.360395
2592.08, 0.359465
2593.37, 0.352336
2594.67, 0.345605
2595.97, 0.351495
2597.27, 0.358757
2598.57, 0.361502
2599.88, 0.361236
2601.18, 0.360129
2602.49, 0.359465
2603.79, 0.357517
2605.1, 0.354506
2606.41, 0.356410
2607.72, 0.359509
2609.03, 0.360395
2610.35, 0.361635
2611.66, 0.362653
2612.98, 0.362388
2614.3, 0.362742
2615.62, 0.359775
2616.94, 0.357827
2618.26, 0.360483
2619.58, 0.358491
2620.91, 0.359022
2622.23, 0.363672
2623.56, 0.364690
2624.89, 0.363007
2626.22, 0.359686
2627.55, 0.361236
2628.88, 0.360439
2630.21, 0.356764
2631.55, 0.359819
2632.89, 0.361856
2634.22, 0.361900
2635.56, 0.363317
2636.9, 0.363539
2638.25, 0.363406
2639.59, 0.363007
2640.93, 0.362299
2642.28, 0.361679
2643.63, 0.361502
2644.98, 0.359908
2646.33, 0.359686
2647.68, 0.360439
2649.03, 0.360483
2650.39, 0.359376
2651.74, 0.357074
2653.1, 0.356675
2654.46, 0.357251
2655.82, 0.356808
2657.18, 0.357517
2658.54, 0.355967
2659.9, 0.354771
2661.27, 0.354594
2662.64, 0.354284
2664.01, 0.349236
2665.38, 0.344543
2666.74, 0.344498
2668.12, 0.347332
2669.49, 0.342816
2670.87, 0.341354
2672.24, 0.347819
2673.62, 0.348705
2675.0, 0.345295
2676.38, 0.341443
2677.76, 0.341089
2679.15, 0.340690
2680.54, 0.342284
2681.92, 0.341753
2683.31, 0.339318
2684.7, 0.337502
2686.09, 0.335554
2687.48, 0.333650
2688.88, 0.331613
2690.27, 0.329045
2691.67, 0.324572
2693.07, 0.317576
2694.47, 0.313370
2695.87, 0.311775
2697.27, 0.309916
2698.67, 0.306728
2700.08, 0.301857
2701.49, 0.297163
2702.9, 0.293532
2704.31, 0.287111
2705.72, 0.277414
2707.13, 0.264130
2708.54, 0.247791
2709.96, 0.230566
2711.38, 0.216618
2712.8, 0.207186
2714.22, 0.197843
2715.64, 0.189164
2717.06, 0.181681
2718.49, 0.175349
2719.91, 0.169150
2721.34, 0.167201
2722.77, 0.166404
2724.2, 0.164190
2725.63, 0.164943
2727.07, 0.166714
2728.5, 0.167600
2729.94, 0.168220
2731.38, 0.169017
2732.82, 0.169150
2734.26, 0.168308
2735.7, 0.168707
2737.15, 0.168840
2738.59, 0.166271
2740.04, 0.164235
2741.49, 0.164544
2742.94, 0.165563
2744.39, 0.165120
2745.84, 0.164057
2747.3, 0.163305
2748.76, 0.162375
2750.21, 0.161356
2751.67, 0.160559
2753.14, 0.159497
2754.6, 0.156795
2756.06, 0.156397
2757.53, 0.158080
2759.0, 0.158345
2760.46, 0.157415
2761.94, 0.155334
2763.41, 0.153873
2764.88, 0.152855
2766.36, 0.150508
2767.83, 0.147541
2769.31, 0.144264
2770.79, 0.140412
2772.27, 0.137179
2773.76, 0.133681
2775.24, 0.129652
2776.73, 0.125312
2778.22, 0.121106
2779.71, 0.116943
2781.2, 0.113401
2782.69, 0.110169
2784.18, 0.107202
2785.68, 0.103925
2787.18, 0.101091
2788.68, 0.0992310
2790.18, 0.0978150
2791.68, 0.0961320
2793.19, 0.0946260
2794.69, 0.0932090
2796.2, 0.0920140
2797.71, 0.0909510
2799.22, 0.0901540
2800.73, 0.0890470
2802.24, 0.0878960
2803.76, 0.0873200
2805.28, 0.0872760
2806.8, 0.0871430
2808.32, 0.0868770
2809.84, 0.0865230
2811.36, 0.0863900
2812.89, 0.0864350
2814.42, 0.0864350
2815.94, 0.0866120
2817.48, 0.0867890
2819.01, 0.0870100
2820.54, 0.0874530
2822.08, 0.0879400
2823.61, 0.0884270
2825.15, 0.0889590
2826.69, 0.0894010
2828.23, 0.0899330
2829.78, 0.0905970
2831.32, 0.0911730
2832.87, 0.0917480
2834.42, 0.0923680
2835.97, 0.0931650
2837.52, 0.0938740
2839.08, 0.0946710
2840.63, 0.0956010
2842.19, 0.0965750
2843.75, 0.0971950
2845.31, 0.0979030
2846.87, 0.0985230
2848.44, 0.0991430
2850.0, 0.0997630
2851.57, 0.100560
2853.14, 0.101180
2854.71, 0.101711
2856.28, 0.102110
2857.86, 0.102597
2859.43, 0.102995
2861.01, 0.103261
2862.59, 0.103482
2864.17, 0.103659
2865.76, 0.103615
2867.34, 0.103571
2868.93, 0.103527
2870.52, 0.103261
2872.11, 0.102730
2873.7, 0.102331
2875.29, 0.101844
2876.89, 0.101224
2878.49, 0.100427
2880.08, 0.0997190
2881.69, 0.0988770
2883.29, 0.0980360
2884.89, 0.0970620
2886.5, 0.0960430
2888.11, 0.0950250
2889.72, 0.0941390
2891.33, 0.0932540
2892.94, 0.0923240
2894.56, 0.0912170
2896.17, 0.0902430
2897.79, 0.0893130
2899.42, 0.0882940
2901.04, 0.0874530
2902.66, 0.0867450
2904.29, 0.0860800
2905.92, 0.0854160
2907.55, 0.0847960
2909.18, 0.0841760
2910.81, 0.0836450
2912.45, 0.0832460
2914.08, 0.0828480
2915.72, 0.0824490
2917.36, 0.0820950
2919.01, 0.0818290
2920.65, 0.0815190
2922.3, 0.0813870
2923.94, 0.0814750
2925.59, 0.0814310
2927.25, 0.0814310
2928.9, 0.0814750
2930.56, 0.0813870
2932.21, 0.0814310
2933.87, 0.0816080
2935.53, 0.0817850
2937.2, 0.0819180
2938.86, 0.0821390
2940.53, 0.0823610
2942.2, 0.0826710
2943.87, 0.0828480
2945.54, 0.0831140
2947.22, 0.0834680
2948.89, 0.0838660
2950.57, 0.0842650
2952.25, 0.0846630
2953.93, 0.0850620
2955.62, 0.0853720
2957.3, 0.0858150
2958.99, 0.0863900
2960.68, 0.0868330
2962.37, 0.0873640
2964.07, 0.0879400
2965.76, 0.0884270
2967.46, 0.0889140
2969.16, 0.0893570
2970.86, 0.0899330
2972.56, 0.0906410
2974.27, 0.0911730
2975.98, 0.0917040
2977.69, 0.0924570
2979.4, 0.0932090
2981.11, 0.0940060
2982.83, 0.0947590
2984.54, 0.0954680
2986.26, 0.0962650
2987.98, 0.0969730
2989.71, 0.0978150
2991.43, 0.0987000
2993.16, 0.0995860
2994.89, 0.100516
2996.62, 0.101445
2998.35, 0.102154
3000.09, 0.102995
3001.83, 0.104014
3003.57, 0.105121
3005.31, 0.106095
3007.05, 0.107025
3008.79, 0.107999
3010.54, 0.109150
3012.29, 0.110169
3014.04, 0.111143
3015.8, 0.112206
3017.55, 0.113268
3019.31, 0.114420
3021.07, 0.115482
3022.83, 0.116545
3024.59, 0.117696
3026.36, 0.118803
3028.13, 0.119910
3029.9, 0.121106
3031.67, 0.122257
3033.44, 0.123364
3035.22, 0.124471
3037.0, 0.125622
3038.78, 0.126774
3040.56, 0.127925
3042.34, 0.129076
3044.13, 0.130139
3045.92, 0.131290
3047.71, 0.132619
3049.5, 0.133858
3051.3, 0.135098
3053.09, 0.136382
3054.89, 0.137578
3056.69, 0.138729
3058.5, 0.140013
3060.3, 0.141209
3062.11, 0.142360
3063.92, 0.143600
3065.73, 0.144884
3067.55, 0.146168
3069.36, 0.147408
3071.18, 0.148604
3073.0, 0.149799
3074.82, 0.151128
3076.65, 0.152456
3078.48, 0.153696
3080.31, 0.154803
3082.14, 0.155998
3083.97, 0.157283
3085.8, 0.158655
3087.64, 0.159984
3089.48, 0.161356
3091.33, 0.162552
3093.17, 0.163836
3095.02, 0.165120
3096.87, 0.166360
3098.72, 0.167467
3100.57, 0.168707
3102.43, 0.169991
3104.28, 0.171186
3106.14, 0.172249
3108.01, 0.173622
3109.87, 0.174995
3111.74, 0.176279
3113.61, 0.177430
3115.48, 0.178493
3117.35, 0.179600
3119.23, 0.180795
3121.1, 0.181947
3122.98, 0.183098
3124.87, 0.184249
3126.75, 0.185400
3128.64, 0.186640
3130.53, 0.187836
3132.42, 0.188943
3134.31, 0.189961
3136.21, 0.191068
3138.11, 0.192219
3140.01, 0.193326
3141.91, 0.194345
3143.82, 0.195408
3145.73, 0.196603
3147.64, 0.197754
3149.55, 0.198861
3151.46, 0.200013
3153.38, 0.201164
3155.3, 0.202227
3157.22, 0.203289
3159.14, 0.204396
3161.07, 0.205503
3163.0, 0.206610
3164.93, 0.207717
3166.86, 0.208824
3168.8, 0.209931
3170.74, 0.211127
3172.68, 0.212278
3174.62, 0.213385
3176.56, 0.214492
3178.51, 0.215555
3180.46, 0.216573
3182.42, 0.217636
3184.37, 0.218787
3186.33, 0.219939
3188.29, 0.221090
3190.25, 0.222153
3192.21, 0.223348
3194.18, 0.224411
3196.15, 0.225385
3198.12, 0.226359
3200.09, 0.227334
3202.07, 0.228352
3204.05, 0.229503
3206.03, 0.230655
3208.02, 0.231673
3210.0, 0.232647
3211.99, 0.233621
3213.98, 0.234595
3215.98, 0.235614
3217.97, 0.236544
3219.97, 0.237562
3221.97, 0.238492
3223.98, 0.239422
3225.98, 0.240396
3227.99, 0.241237
3230.0, 0.242079
3232.02, 0.242964
3234.03, 0.243761
3236.05, 0.244647
3238.07, 0.245533
3240.1, 0.246285
3242.12, 0.247038
3244.15, 0.247835
3246.18, 0.248499
3248.22, 0.249208
3250.25, 0.249916
3252.29, 0.250581
3254.33, 0.251200
3256.38, 0.251909
3258.43, 0.252529
3260.47, 0.253060
3262.53, 0.253680
3264.58, 0.254344
3266.64, 0.254876
3268.7, 0.255363
3270.76, 0.255894
3272.82, 0.256381
3274.89, 0.256913
3276.96, 0.257488
3279.04, 0.257975
3281.11, 0.258551
3283.19, 0.259215
3285.27, 0.259835
3287.35, 0.260322
3289.44, 0.260898
3291.53, 0.261518
3293.62, 0.262138
3295.71, 0.262758
3297.81, 0.263289
3299.91, 0.263953
3302.01, 0.264662
3304.11, 0.265281
3306.22, 0.265946
3308.33, 0.266566
3310.44, 0.267141
3312.56, 0.267761
3314.68, 0.268248
3316.8, 0.268691
3318.92, 0.269134
3321.05, 0.269709
3323.18, 0.270241
3325.31, 0.270816
3327.44, 0.271348
3329.58, 0.271791
3331.72, 0.272366
3333.86, 0.272942
3336.01, 0.273606
3338.16, 0.274093
3340.31, 0.274536
3342.46, 0.275112
3344.61, 0.275643
3346.77, 0.276086
3348.94, 0.276573
3351.1, 0.277148
3353.27, 0.277591
3355.44, 0.277946
3357.61, 0.278388
3359.79, 0.278875
3361.97, 0.279362
3364.15, 0.279805
3366.33, 0.280292
3368.52, 0.280824
3370.71, 0.281355
3372.9, 0.281886
3375.1, 0.282374
3377.3, 0.282993
3379.5, 0.283569
3381.71, 0.284100
3383.91, 0.284720
3386.12, 0.285340
3388.34, 0.285960
3390.55, 0.286536
3392.77, 0.287111
3394.99, 0.287731
3397.22, 0.288351
3399.45, 0.288838
3401.68, 0.289148
3403.91, 0.289547
3406.15, 0.289945
3408.39, 0.290388
3410.63, 0.290831
3412.87, 0.291362
3415.12, 0.291849
3417.37, 0.292381
3419.63, 0.293045
3421.88, 0.293886
3424.14, 0.294772
3426.41, 0.295613
3428.67, 0.296410
3430.94, 0.297340
3433.21, 0.298182
3435.49, 0.299023
3437.77, 0.299776
3440.05, 0.300440
3442.33, 0.301104
3444.62, 0.301812
3446.91, 0.302388
3449.2, 0.303008
3451.5, 0.303628
3453.8, 0.304115
3456.1, 0.304691
3458.41, 0.305399
3460.72, 0.306019
3463.03, 0.306506
3465.34, 0.306993
3467.66, 0.307525
3469.98, 0.307967
3472.31, 0.308277
3474.63, 0.308587
3476.96, 0.308942
3479.3, 0.309384
3481.64, 0.309783
3483.97, 0.310137
3486.32, 0.310491
3488.66, 0.310978
3491.01, 0.311333
3493.36, 0.311687
3495.72, 0.311997
3498.08, 0.312263
3500.44, 0.312661
3502.81, 0.313281
3505.18, 0.313857
3507.55, 0.314565
3509.92, 0.315229
3512.3, 0.315894
3514.68, 0.316646
3517.06, 0.317310
3519.45, 0.318063
3521.84, 0.318816
3524.24, 0.319524
3526.64, 0.320189
3529.04, 0.320764
3531.44, 0.321296
3533.85, 0.321916
3536.26, 0.322580
3538.67, 0.323244
3541.09, 0.323820
3543.51, 0.324395
3545.93, 0.324971
3548.36, 0.325591
3550.79, 0.326122
3553.22, 0.326742
3555.66, 0.327495
3558.1, 0.328203
3560.54, 0.328779
3562.99, 0.329355
3565.44, 0.329886
3567.9, 0.330594
3570.35, 0.331436
3572.81, 0.332233
3575.28, 0.332897
3577.75, 0.333605
3580.22, 0.334358
3582.69, 0.335067
3585.17, 0.335775
3587.65, 0.336572
3590.14, 0.337281
3592.62, 0.337989
3595.11, 0.338609
3597.61, 0.339273
3600.11, 0.339893
3602.61, 0.340425
3605.11, 0.341222
3607.62, 0.341842
3610.14, 0.342417
3612.65, 0.343126
3615.17, 0.343657
3617.69, 0.344188
3620.22, 0.344720
3622.75, 0.345251
3625.28, 0.345783
3627.82, 0.346358
3630.36, 0.346845
3632.9, 0.347288
3635.45, 0.347775
3638.0, 0.348306
3640.56, 0.348882
3643.12, 0.349325
3645.68, 0.349723
3648.24, 0.350211
3650.81, 0.350698
3653.39, 0.351096
3655.96, 0.351450
3658.54, 0.351937
3661.13, 0.352380
3663.71, 0.352823
3666.3, 0.353310
3668.9, 0.353753
3671.5, 0.354151
3674.1, 0.354461
3676.7, 0.354771
3679.31, 0.355126
3681.93, 0.355524
3684.54, 0.355834
3687.17, 0.356144
3689.79, 0.356454
3692.42, 0.356808
3695.05, 0.357207
3697.69, 0.357517
3700.32, 0.357915
3702.97, 0.358225
3705.61, 0.358624
3708.27, 0.358934
3710.92, 0.359288
3713.58, 0.359642
3716.24, 0.360085
3718.91, 0.360351
3721.58, 0.360661
3724.25, 0.361059
3726.93, 0.361413
3729.61, 0.361768
3732.29, 0.362078
3734.98, 0.362388
3737.67, 0.362697
3740.37, 0.363007
3743.07, 0.363406
3745.78, 0.363716
3748.49, 0.364026
3751.2, 0.364424
3753.91, 0.364823
3756.63, 0.365177
3759.36, 0.365354
3762.09, 0.365664
3764.82, 0.365930
3767.55, 0.366196
3770.29, 0.366461
3773.04, 0.366683
3775.78, 0.366993
3778.54, 0.367214
3781.29, 0.367435
3784.05, 0.367701
3786.82, 0.367923
3789.59, 0.368100
3792.36, 0.368277
3795.13, 0.368454
3797.92, 0.368675
3800.7, 0.368897
3803.49, 0.369074
3806.28, 0.369251
3809.08, 0.369428
3811.88, 0.369605
3814.68, 0.369782
3817.49, 0.370048
3820.31, 0.370225
3823.12, 0.370314
3825.94, 0.370579
3828.77, 0.370889
3831.6, 0.371111
3834.43, 0.371332
3837.27, 0.371598
3840.11, 0.371775
3842.96, 0.372041
3845.81, 0.372218
3848.67, 0.372439
3851.53, 0.372705
3854.39, 0.372970
3857.26, 0.373103
3860.13, 0.373325
3863.01, 0.373679
3865.89, 0.373856
3868.77, 0.374077
3871.66, 0.374255
3874.55, 0.374387
3877.45, 0.374520
3880.35, 0.374742
3883.26, 0.374963
3886.17, 0.375184
3889.09, 0.375317
3892.01, 0.375406
3894.93, 0.375450
3897.86, 0.375583
3900.79, 0.375760
3903.73, 0.375804
3906.67, 0.375893
3909.62, 0.375937
3912.57, 0.376026
3915.52, 0.376159
3918.48, 0.376291
3921.45, 0.376380
3924.42, 0.376424
3927.39, 0.376469
3930.37, 0.376557
3933.35, 0.376601
3936.34, 0.376601
3939.33, 0.376690
3942.32, 0.376734
3945.32, 0.376823
3948.33, 0.376911
3951.34, 0.376956
3954.35, 0.377000
3957.37, 0.377133
3960.39, 0.377266
3963.42, 0.377354
3966.45, 0.377398
3969.49, 0.377354
3972.53, 0.377443
3975.58, 0.377620
3978.63, 0.377664
3981.68, 0.377708
3984.75, 0.377753
3987.81, 0.377797
3990.88, 0.377841
3993.95, 0.377886
3997.03, 0.377886
4000.12, 0.377974
4003.21, 0.378063
4006.3, 0.378063
4009.4, 0.378151
4012.5, 0.378195
4015.61, 0.378151
4018.72, 0.378151
4021.84, 0.378195
4024.96, 0.378107
4028.09, 0.378063
4031.22, 0.378063
4034.36, 0.378107
4037.5, 0.378063
4040.65, 0.377974
4043.8, 0.377886
4046.96, 0.377753
4050.12, 0.377708
4053.29, 0.377664
4056.46, 0.377531
4059.64, 0.377398
4062.82, 0.377266
4066.0, 0.377133
4069.19, 0.377000
4072.39, 0.376867
4075.59, 0.376690
4078.8, 0.376557
4082.01, 0.376380
4085.23, 0.376203
4088.45, 0.376070
4091.68, 0.375893
4094.91, 0.375716
4098.15, 0.375672
4101.39, 0.375539
4104.63, 0.375362
4107.89, 0.375184
4111.14, 0.374963
4114.41, 0.374786
4117.67, 0.374653
4120.95, 0.374476
4124.23, 0.374299
4127.51, 0.374122
4130.8, 0.373900
4134.09, 0.373723
4137.39, 0.373502
4140.7, 0.373369
4144.01, 0.373236
4147.32, 0.373015
4150.64, 0.372838
4153.97, 0.372660
4157.3, 0.372483
4160.64, 0.372262
4163.98, 0.372041
4167.33, 0.371863
4170.68, 0.371598
4174.04, 0.371376
4177.4, 0.371199
4180.77, 0.371022
4184.14, 0.370756
4187.52, 0.370491
4190.91, 0.370225
4194.3, 0.369959
4197.69, 0.369694
4201.1, 0.369339
4204.5, 0.369029
4207.92, 0.368720
4211.34, 0.368232
4214.76, 0.367657
4218.19, 0.367125
4221.62, 0.366550
4225.06, 0.366018
4228.51, 0.365620
4231.96, 0.365221
4235.42, 0.364956
4238.88, 0.364779
4242.35, 0.364734
4245.83, 0.364734
4249.31, 0.364867
4252.79, 0.364911
4256.28, 0.364867
4259.78, 0.364469
4263.29, 0.363893
4266.79, 0.363317
4270.31, 0.362875
4273.83, 0.362609
4277.35, 0.362255
4280.89, 0.361989
4284.42, 0.361812
4287.97, 0.361590
4291.52, 0.361413
4295.07, 0.361281
4298.63, 0.361148
4302.2, 0.361015
4305.78, 0.360838
4309.35, 0.360661
4312.94, 0.360483
4316.53, 0.360351
4320.13, 0.360174
4323.73, 0.360041
4327.34, 0.359775
4330.96, 0.359509
4334.58, 0.359288
4338.21, 0.359022
4341.84, 0.358845
4345.48, 0.358535
4349.12, 0.358269
4352.77, 0.357960
4356.43, 0.357694
4360.1, 0.357384
4363.76, 0.357074
4367.44, 0.356853
4371.12, 0.356543
4374.81, 0.356144
4378.51, 0.355790
4382.21, 0.355480
4385.92, 0.355170
4389.63, 0.354860
4393.35, 0.354461
4397.08, 0.354063
4400.81, 0.353664
4404.55, 0.353222
4408.29, 0.352823
4412.04, 0.352469
4415.8, 0.351982
4419.57, 0.351539
4423.34, 0.351052
4427.12, 0.350520
4430.9, 0.350033
4434.69, 0.349502
4438.49, 0.348926
4442.29, 0.348306
4446.1, 0.347819
4449.92, 0.347288
4453.74, 0.346624
4457.57, 0.346004
4461.41, 0.345428
4465.25, 0.344808
4469.1, 0.344144
4472.95, 0.343524
4476.82, 0.342949
4480.69, 0.342284
4484.56, 0.341709
4488.44, 0.341089
4492.33, 0.340469
4496.23, 0.339893
4500.13, 0.339229
4504.04, 0.338698
4507.96, 0.338166
4511.88, 0.337591
4515.81, 0.337148
4519.75, 0.336661
4523.69, 0.336041
4527.65, 0.335421
4531.6, 0.334801
4535.57, 0.334181
4539.54, 0.333517
4543.52, 0.332808
4547.5, 0.332100
4551.5, 0.331259
4555.5, 0.330285
4559.5, 0.329178
4563.52, 0.328070
4567.54, 0.326919
4571.56, 0.325591
4575.6, 0.324130
4579.64, 0.322757
4583.69, 0.321340
4587.75, 0.319879
4591.81, 0.318417
4595.88, 0.317001
4599.96, 0.315672
4604.04, 0.314521
4608.14, 0.313458
4612.24, 0.312440
4616.34, 0.311510
4620.46, 0.310713
4624.58, 0.309916
4628.71, 0.309074
4632.84, 0.308233
4636.99, 0.307392
4641.14, 0.306550
4645.3, 0.305621
4649.47, 0.304514
4653.64, 0.303407
4657.82, 0.302255
4662.01, 0.301015
4666.21, 0.299731
4670.41, 0.298447
4674.62, 0.297119
4678.84, 0.295746
4683.07, 0.294373
4687.3, 0.292912
4691.54, 0.291451
4695.79, 0.289990
4700.05, 0.288573
4704.31, 0.287067
4708.59, 0.285650
4712.87, 0.284100
4717.15, 0.282462
4721.45, 0.280957
4725.76, 0.279451
4730.07, 0.277901
4734.39, 0.276396
4738.72, 0.274935
4743.05, 0.273518
4747.39, 0.272056
4751.75, 0.270684
4756.1, 0.269400
4760.47, 0.268204
4764.85, 0.267097
4769.23, 0.266034
4773.62, 0.265016
4778.02, 0.263997
4782.43, 0.263023
4786.85, 0.262093
4791.27, 0.261163
4795.7, 0.260145
4800.14, 0.259215
4804.59, 0.258197
4809.05, 0.257134
4813.51, 0.256071
4817.99, 0.254876
4822.47, 0.253724
4826.96, 0.252617
4831.46, 0.251510
4835.96, 0.250359
4840.48, 0.249208
4845.0, 0.248145
4849.54, 0.247171
4854.08, 0.246153
4858.63, 0.245134
4863.18, 0.244116
4867.75, 0.243053
4872.33, 0.242034
4876.91, 0.241060
4881.5, 0.240042
4886.1, 0.239068
4890.71, 0.238138
4895.33, 0.237164
4899.96, 0.236234
4904.59, 0.235348
4909.24, 0.234463
4913.89, 0.233621
4918.55, 0.232736
4923.22, 0.231939
4927.9, 0.231186
4932.59, 0.230433
4937.29, 0.229636
4942.0, 0.228928
4946.71, 0.228352
4951.44, 0.227643
4956.17, 0.226979
4960.91, 0.226536
4965.67, 0.226094
4970.43, 0.225607
4975.2, 0.225297
4979.98, 0.225031
4984.76, 0.224810
4989.56, 0.224721
4994.37, 0.224544
4999.18, 0.224367
5004.01, 0.224278
5008.84, 0.224322
5013.69, 0.224322
5018.54, 0.224101
5023.4, 0.224278
5028.28, 0.224455
5033.16, 0.224500
5038.05, 0.224588
5042.95, 0.224632
5047.86, 0.224677
5052.78, 0.224677
5057.71, 0.224721
5062.65, 0.224721
5067.6, 0.224721
5072.56, 0.224721
5077.53, 0.224544
5082.5, 0.224278
5087.49, 0.224322
5092.49, 0.224411
5097.5, 0.224367
5102.51, 0.224278
5107.54, 0.224190
5112.58, 0.224101
5117.62, 0.224057
5122.68, 0.223924
5127.75, 0.223791
5132.82, 0.223747
5137.91, 0.223570
5143.01, 0.223215
5148.12, 0.222950
5153.23, 0.223260
5158.36, 0.223348
5163.5, 0.223083
5168.65, 0.222906
5173.81, 0.222728
5178.98, 0.222551
5184.15, 0.222286
5189.34, 0.222108
5194.54, 0.221710
5199.75, 0.221090
5204.98, 0.220824
5210.21, 0.220072
5215.45, 0.219629
5220.7, 0.219850
5225.96, 0.219585
5231.23, 0.219142
5236.52, 0.218610
5241.81, 0.218345
5247.12, 0.218123
5252.44, 0.217813
5257.76, 0.217459
5263.1, 0.217149
5268.45, 0.216706
5273.81, 0.216219
5279.18, 0.216042
5284.56, 0.215865
5289.95, 0.215157
5295.36, 0.215068
5300.77, 0.215201
5306.2, 0.214979
5311.63, 0.214802
5317.08, 0.214625
5322.54, 0.214448
5328.01, 0.214271
5333.49, 0.214050
5338.98, 0.213828
5344.49, 0.212943
5350.0, 0.211924
5355.53, 0.212323
5361.07, 0.212810
5366.62, 0.212765
5372.18, 0.212411
5377.75, 0.212013
5383.34, 0.211703
5388.93, 0.211393
5394.54, 0.210906
5400.16, 0.210419
5405.79, 0.209799
5411.44, 0.209046
5417.09, 0.207319
5422.76, 0.205858
5428.43, 0.206743
5434.12, 0.206876
5439.83, 0.206035
5445.54, 0.205326
5451.26, 0.204618
5457.0, 0.203378
5462.75, 0.201518
5468.52, 0.200987
5474.29, 0.200500
5480.08, 0.199437
5485.88, 0.199216
5491.69, 0.198596
5497.51, 0.197710
5503.35, 0.196825
5509.2, 0.196160
5515.06, 0.195231
5520.93, 0.194168
5526.82, 0.193548
5532.71, 0.193238
5538.63, 0.192529
5544.55, 0.191600
5550.49, 0.190493
5556.44, 0.189961
5562.4, 0.189828
5568.37, 0.189297
5574.36, 0.187482
5580.36, 0.186375
5586.37, 0.187304
5592.4, 0.187659
5598.44, 0.186906
5604.49, 0.186463
5610.56, 0.186330
5616.63, 0.185976
5622.73, 0.186020
5628.83, 0.185666
5634.95, 0.184161
5641.08, 0.182212
5647.23, 0.183098
5653.39, 0.183718
5659.56, 0.184028
5665.74, 0.184293
5671.94, 0.182921
5678.15, 0.182389
5684.38, 0.182522
5690.62, 0.181592
5696.87, 0.181371
5703.14, 0.180352
5709.42, 0.178138
5715.72, 0.177784
5722.03, 0.177828
5728.35, 0.177430
5734.69, 0.176456
5741.03, 0.175083
5747.4, 0.173445
5753.78, 0.173223
5760.17, 0.170389
5766.58, 0.166891
5773.0, 0.168175
5779.44, 0.168928
5785.88, 0.168397
5792.35, 0.167600
5798.83, 0.166404
5805.32, 0.165563
5811.83, 0.163836
5818.35, 0.160294
5824.89, 0.159142
5831.45, 0.160515
5838.01, 0.161268
5844.59, 0.161268
5851.19, 0.160471
5857.8, 0.159275
5864.43, 0.158257
5871.07, 0.157593
5877.73, 0.153696
5884.4, 0.153165
5891.09, 0.153784
5897.79, 0.152855
5904.5, 0.155201
5911.23, 0.155688
5917.98, 0.154891
5924.75, 0.153917
5931.53, 0.150596
5938.32, 0.148958
5945.13, 0.151703
5951.96, 0.152589
5958.8, 0.152235
5965.65, 0.150286
5972.53, 0.149976
5979.42, 0.150286
5986.32, 0.148869
5993.24, 0.148781
6000.18, 0.149844
6007.13, 0.149135
6014.1, 0.148072
6021.08, 0.148382
6028.09, 0.148515
6035.1, 0.147541
6042.14, 0.143379
6049.19, 0.139615
6056.25, 0.143334
6063.34, 0.144973
6070.44, 0.142980
6077.55, 0.143157
6084.69, 0.144751
6091.84, 0.144840
6099.0, 0.144176
6106.19, 0.142095
6113.39, 0.140058
6120.61, 0.141652
6127.84, 0.142936
6135.09, 0.142404
6142.36, 0.141740
6149.65, 0.141519
6156.95, 0.140722
6164.27, 0.140899
6171.61, 0.141475
6178.97, 0.139792
6186.34, 0.138685
6193.73, 0.140678
6201.14, 0.141652
6208.57, 0.141652
6216.01, 0.141652
6223.47, 0.141917
6230.95, 0.142227
6238.45, 0.142360
6245.97, 0.142670
6253.5, 0.142936
6261.06, 0.143069
6268.63, 0.143290
6276.21, 0.143511
6283.82, 0.143821
6291.45, 0.144131
6299.1, 0.144574
6306.76, 0.144928
6314.44, 0.145327
6322.14, 0.145770
6329.86, 0.146080
6337.6, 0.144707
6345.35, 0.144043
6353.13, 0.147010
6360.92, 0.148249
6368.74, 0.147630
6376.57, 0.148914
6384.43, 0.150375
6392.3, 0.151083
6400.19, 0.150773
6408.1, 0.146965
6416.03, 0.146213
6423.98, 0.150596
6431.95, 0.152899
6439.94, 0.154626
6447.95, 0.155866
6455.98, 0.156663
6464.03, 0.157150
6472.1, 0.156486
6480.19, 0.155644
6488.31, 0.153829
6496.44, 0.154537
6504.59, 0.158965
6512.76, 0.160559
6520.95, 0.160205
6529.16, 0.161976
6537.4, 0.162818
6545.65, 0.162463
6553.92, 0.162153
6562.22, 0.161932
6570.54, 0.160382
6578.88, 0.161711
6587.23, 0.163260
6595.61, 0.163969
6604.02, 0.165032
6612.44, 0.165120
6620.89, 0.164766
6629.35, 0.162021
6637.84, 0.160161
6646.35, 0.163703
6654.88, 0.166449
6663.44, 0.166139
6672.01, 0.164899
6680.61, 0.163969
6689.23, 0.165253
6697.88, 0.166050
6706.54, 0.164722
6715.23, 0.164367
6723.94, 0.165076
6732.67, 0.165829
6741.42, 0.166006
6750.2, 0.165696
6759.0, 0.165519
6767.82, 0.164677
6776.67, 0.163570
6785.54, 0.161843
6794.44, 0.161888
6803.35, 0.163747
6812.29, 0.163925
6821.26, 0.162552
6830.24, 0.162198
6839.25, 0.162862
6848.29, 0.161666
6857.35, 0.158212
6866.43, 0.157283
6875.54, 0.160205
6884.67, 0.160869
6893.82, 0.160382
6903.0, 0.159452
6912.2, 0.159319
6921.43, 0.159408
6930.69, 0.159187
6939.96, 0.158611
6949.27, 0.157061
6958.59, 0.154803
6967.95, 0.155423
6977.33, 0.155998
6986.73, 0.155201
6996.16, 0.154537
7005.61, 0.154360
7015.09, 0.153519
7024.6, 0.152677
7034.13, 0.151482
7043.69, 0.149356
7053.27, 0.149401
7062.88, 0.150109
7072.52, 0.149755
7082.18, 0.149091
7091.87, 0.148382
7101.58, 0.147674
7111.32, 0.146523
7121.09, 0.145770
7130.88, 0.145283
7140.71, 0.143999
7150.56, 0.142847
7160.43, 0.142050
7170.33, 0.140988
7180.27, 0.140943
7190.23, 0.140412
7200.21, 0.139039
7210.23, 0.138109
7220.27, 0.137976
7230.34, 0.137268
7240.44, 0.136427
7250.56, 0.135497
7260.72, 0.134611
7270.9, 0.133416
7281.12, 0.132574
7291.36, 0.132043
7301.63, 0.131157
7311.93, 0.130183
7322.25, 0.129253
7332.61, 0.128013
7343.0, 0.127084
7353.41, 0.126508
7363.86, 0.125755
7374.33, 0.124781
7384.83, 0.123895
7395.37, 0.123010
7405.93, 0.122080
7416.53, 0.121150
7427.15, 0.120397
7437.81, 0.119600
7448.5, 0.118670
7459.22, 0.117563
7469.96, 0.116766
7480.74, 0.116102
7491.55, 0.115482
7502.39, 0.114597
7513.27, 0.113755
7524.17, 0.112914
7535.11, 0.112073
7546.08, 0.111143
7557.08, 0.110301
7568.11, 0.109549
7579.17, 0.108707
7590.27, 0.107866
7601.4, 0.107069
7612.56, 0.106272
7623.76, 0.105608
7634.98, 0.104811
7646.24, 0.104058
7657.54, 0.103217
7668.87, 0.102464
7680.23, 0.101667
7691.62, 0.100870
7703.05, 0.0999400
7714.51, 0.0990540
7726.01, 0.0981240
7737.54, 0.0972390
7749.11, 0.0963090
7760.71, 0.0955120
7772.35, 0.0947150
7784.02, 0.0937850
7795.72, 0.0927670
7807.46, 0.0917920
7819.23, 0.0907740
7831.04, 0.0898000
7842.89, 0.0888260
7854.77, 0.0877190
7866.69, 0.0866560
7878.65, 0.0856380
7890.64, 0.0844860
7902.67, 0.0833790
7914.74, 0.0821390
7926.84, 0.0809440
7938.98, 0.0797040
7951.16, 0.0785530
7963.37, 0.0773130
7975.62, 0.0760730
7987.91, 0.0748330
8000.24, 0.0735930
8012.6, 0.0722210
8025.01, 0.0708920
8037.45, 0.0695200
8049.93, 0.0681470
8062.45, 0.0667740
8075.01, 0.0654900
8087.61, 0.0641620
8100.24, 0.0628330
8112.91, 0.0614160
8125.63, 0.0600880
8138.39, 0.0586270
8151.18, 0.0572100
8164.02, 0.0557490
8176.9, 0.0542430
8189.81, 0.0527370
8202.77, 0.0512320
8215.77, 0.0495940
8228.82, 0.0480880
8241.9, 0.0466270
8255.02, 0.0451660
8268.19, 0.0436600
8281.39, 0.0420660
8294.65, 0.0404720
8307.94, 0.0389220
8321.28, 0.0374170
8334.66, 0.0360000
8348.08, 0.0344500
8361.54, 0.0329890
8375.05, 0.0314830
8388.6, 0.0301100
8402.2, 0.0287380
8415.84, 0.0274090
8429.52, 0.0259920
8443.25, 0.0246640
8457.02, 0.0233800
8470.84, 0.0222290
8484.7, 0.0210330
8498.61, 0.0200150
8512.57, 0.0189960
8526.57, 0.0180660
8540.62, 0.0170920
8554.71, 0.0163390
8568.85, 0.0156310
8583.04, 0.0150990
8597.27, 0.0145240
8611.55, 0.0140810
8625.88, 0.0137270
8640.26, 0.0135500
8654.68, 0.0135500
8669.16, 0.0136830
8683.68, 0.0138150
8698.25, 0.0141700
8712.87, 0.0147450
8727.53, 0.0155870
8742.25, 0.0165160
8757.02, 0.0177560
8771.83, 0.0191290
8786.7, 0.0206790
8801.62, 0.0225390
8816.59, 0.0246640
8831.61, 0.0270550
8846.68, 0.0296680
8861.8, 0.0325900
8876.97, 0.0356900
8892.2, 0.0390550
8907.48, 0.0428630
8922.81, 0.0470700
8938.2, 0.0515420
8953.63, 0.0562800
8969.13, 0.0614610
8984.67, 0.0671730
9000.27, 0.0733720
9015.92, 0.0800580
9031.63, 0.0870540
9047.39, 0.0944050
9063.21, 0.101933
9079.08, 0.109416
9095.01, 0.116589
9111.0, 0.123187
9127.04, 0.129076
9143.13, 0.134124
9159.28, 0.138508
9175.49, 0.142980
9191.76, 0.147984
9208.09, 0.153917
9224.47, 0.161091
9240.92, 0.169460
9257.42, 0.178758
9273.98, 0.188323
9290.6, 0.197577
9307.28, 0.205769
9324.02, 0.212145
9340.82, 0.216131
9357.68, 0.217459
9374.6, 0.216264
9391.58, 0.213120
9408.62, 0.208824
9425.73, 0.204175
9442.9, 0.199747
9460.13, 0.195939
9477.42, 0.193194
9494.78, 0.191644
9512.2, 0.191334
9529.69, 0.192264
9547.24, 0.194611
9564.86, 0.198286
9582.54, 0.203157
9600.28, 0.208736
9618.1, 0.214581
9635.97, 0.220869
9653.92, 0.227422
9671.93, 0.233976
9690.01, 0.239820
9708.16, 0.244293
9726.37, 0.247127
9744.65, 0.248367
9763.0, 0.248322
9781.43, 0.247437
9799.92, 0.246241
9818.48, 0.244780
9837.1, 0.243097
9855.8, 0.241237
9874.58, 0.238979
9893.42, 0.236145
9912.34, 0.233178
9931.33, 0.230212
9950.39, 0.227068
9969.52, 0.223747
9988.74, 0.220514
10008.0, 0.217061
10027.4, 0.213297
10046.8, 0.209312
10066.3, 0.204751
10085.9, 0.199437
10105.6, 0.193415
10125.3, 0.186906
10145.1, 0.180352
10165.0, 0.174198
10185.0, 0.168485
10205.0, 0.163260
10225.2, 0.158788
10245.4, 0.154936
10265.7, 0.151792
10286.0, 0.149224
10306.5, 0.147054
10327.0, 0.145106
10347.6, 0.143334
10368.3, 0.141607
10389.1, 0.140102
10409.9, 0.138818
10430.9, 0.137445
10451.9, 0.135984
10473.0, 0.134434
10494.2, 0.132619
10515.5, 0.130493
10536.9, 0.128146
10558.4, 0.125401
10579.9, 0.122257
10601.5, 0.118803
10623.3, 0.115527
10645.1, 0.112338
10667.0, 0.109283
10689.0, 0.106493
10711.1, 0.103837
10733.2, 0.101357
10755.5, 0.0990990
10777.9, 0.0970620
10800.3, 0.0951580
10822.9, 0.0932980
10845.5, 0.0916150
10868.2, 0.0900660
10891.1, 0.0885160
10914.0, 0.0870100
10937.0, 0.0856820
10960.2, 0.0844420
10983.4, 0.0832460
11006.7, 0.0821390
11030.1, 0.0811650
11053.6, 0.0801910
11077.3, 0.0791730
11101.0, 0.0782870
11124.8, 0.0774460
11148.7, 0.0766490
11172.7, 0.0760290
11196.9, 0.0750550
11221.1, 0.0741250
11245.4, 0.0733720
11269.9, 0.0725750
11294.4, 0.0715560
11319.1, 0.0705820
11343.9, 0.0696080
11368.8, 0.0686340
11393.7, 0.0676600
11418.8, 0.0666410
11444.0, 0.0656670
11469.4, 0.0646490
11494.8, 0.0635420
11520.3, 0.0627000
11546.0, 0.0620360
11571.8, 0.0612840
11597.7, 0.0600880
11623.7, 0.0589810
11649.8, 0.0580070
11676.0, 0.0569440
11702.4, 0.0555710
11728.9, 0.0540220
11755.5, 0.0521180
11782.2, 0.0500810
11809.0, 0.0478220
11836.0, 0.0453870
11863.0, 0.0430400
11890.3, 0.0409150
11917.6, 0.0390550
11945.0, 0.0374610
11972.6, 0.0361320
12000.4, 0.0352910
12028.2, 0.0348480
12056.2, 0.0347160
12084.3, 0.0346710
12112.5, 0.0348480
12140.9, 0.0350250
12169.4, 0.0349370
12198.0, 0.0348040
12226.8, 0.0347160
12255.7, 0.0344940
12284.7, 0.0344060
12313.9, 0.0342280
12343.2, 0.0339630
12372.7, 0.0337860
12402.3, 0.0338300
12432.0, 0.0339630
12461.9, 0.0340510
12491.9, 0.0341400
12522.1, 0.0345380
12552.4, 0.0351580
12582.9, 0.0361320
12613.5, 0.0372840
12644.3, 0.0385680
12675.2, 0.0400730
12706.3, 0.0418450
12737.5, 0.0436160
12768.9, 0.0454310
12800.4, 0.0471580
12832.1, 0.0491510
12863.9, 0.0511430
12895.9, 0.0529150
12928.1, 0.0546860
12960.4, 0.0561910
12992.9, 0.0573870
13025.5, 0.0586270
13058.3, 0.0596890
13091.3, 0.0607080
13124.4, 0.0615050
13157.8, 0.0617710
13191.2, 0.0617710
13224.9, 0.0615050
13258.7, 0.0604860
13292.7, 0.0592470
13326.9, 0.0581840
13361.2, 0.0569440
13395.7, 0.0556160
13430.4, 0.0545090
13465.3, 0.0534020
13500.4, 0.0521620
13535.7, 0.0510550
13571.1, 0.0501690
13606.7, 0.0495490
13642.5, 0.0493280
13678.5, 0.0491510
13714.7, 0.0488850
13751.1, 0.0488410
13787.6, 0.0487970
13824.4, 0.0485750
13861.4, 0.0483090
13898.5, 0.0480000
13935.9, 0.0476450
13973.5, 0.0471580
14011.2, 0.0464500
14049.2, 0.0456530
14087.4, 0.0452100
14125.8, 0.0448560
14164.3, 0.0445900
14203.2, 0.0444570
14242.2, 0.0445460
14281.4, 0.0449000
14320.9, 0.0455640
14360.5, 0.0466710
14400.4, 0.0482650
14440.5, 0.0498150
14480.9, 0.0512760
14521.4, 0.0530920
14562.2, 0.0548190
14603.3, 0.0559700
14644.5, 0.0569000
14686.0, 0.0572540
14727.7, 0.0574750
14769.7, 0.0574750
14811.9, 0.0572980
14854.3, 0.0572980
14897.0, 0.0576080
14939.9, 0.0580950
14983.1, 0.0590700
15026.5, 0.0603540
15070.2, 0.0622130
15114.2, 0.0641170
15158.3, 0.0655340
15202.8, 0.0664640
15247.5, 0.0671730
15292.5, 0.0676160
15337.7, 0.0673500
15383.2, 0.0667300
15429.0, 0.0661540
15475.1, 0.0652690
15521.4, 0.0642060
15568.0, 0.0632320
15614.9, 0.0620810
15662.1, 0.0607520
15709.6, 0.0596010
15757.3, 0.0585380
15805.4, 0.0576530
15853.7, 0.0566780
15902.3, 0.0557490
15951.2, 0.0546860
16000.5, 0.0537560
16050.0, 0.0525160
16099.8, 0.0510550
16150.0, 0.0498150
16200.5, 0.0488850
16251.3, 0.0477780
16302.4, 0.0463610
16353.8, 0.0447670
16405.5, 0.0428630
16457.6, 0.0411800
16510.0, 0.0393650
16562.8, 0.0373280
16615.9, 0.0353350
16669.3, 0.0329000
16723.1, 0.0304650
16777.2, 0.0283390
16831.7, 0.0263910
16886.5, 0.0243540
16941.7, 0.0227160
16997.2, 0.0212990
17053.1, 0.0203690
17109.4, 0.0201030
17166.1, 0.0206340
17223.1, 0.0220070
17280.5, 0.0241330
17338.3, 0.0272320
17396.5, 0.0316600
17455.1, 0.0375940
17514.0, 0.0452980
17573.4, 0.0542870
17633.2, 0.0646050
17693.4, 0.0756750
17754.0, 0.0870990
17815.0, 0.0977700
17876.4, 0.106051
17938.3, 0.110567
18000.5, 0.110523
18063.3, 0.106183
18126.4, 0.100029
18190.0, 0.0941390
18254.1, 0.0900210
18318.6, 0.0872760
18383.5, 0.0856820
18449.0, 0.0850620
18514.9, 0.0854160
18581.2, 0.0875860
18648.0, 0.0910840
18715.4, 0.0962200
18783.2, 0.104058
18851.5, 0.114021
18920.3, 0.124958
18989.6, 0.137224
19059.4, 0.150641
19129.7, 0.163437
19200.6, 0.175703
19272.0, 0.187437
19343.9, 0.198640
19416.3, 0.207939
19489.3, 0.214935
19562.8, 0.220559
19637.0, 0.225252
19711.6, 0.229282
19786.8, 0.233046
19862.6, 0.235570
19939.0, 0.238315
20016.0, 0.240573
20093.6, 0.241725
20171.8, 0.243009
20250.6, 0.244426
20330.0, 0.246462
20410.0, 0.249606
20490.7, 0.253503
20572.0, 0.257577
20654.0, 0.261960
20736.6, 0.266831
20819.9, 0.271702
20903.8, 0.275067
20988.5, 0.277237
21073.8, 0.278211
21159.8, 0.277990
21246.5, 0.276927
21334.0, 0.274093
21422.1, 0.269754
21511.0, 0.264971
21600.7, 0.258684
21691.0, 0.250669
21782.1, 0.240972
21874.0, 0.232249
21966.7, 0.226536
22060.2, 0.221267
22154.5, 0.216839
22249.6, 0.214935
22345.5, 0.213651
22442.2, 0.213828
22539.8, 0.216795
22638.2, 0.219673
22737.5, 0.220249
22837.7, 0.216086
22938.7, 0.206965
23040.7, 0.195939
23143.5, 0.184382
23247.3, 0.173135
23352.1, 0.164190
23457.7, 0.158080
23564.4, 0.153342
23672.0, 0.149179
23780.5, 0.144663
23890.1, 0.140235
24000.7, 0.138774
24112.3, 0.135453
24225.0, 0.133814
24338.7, 0.133416
24453.5, 0.132796
