Database of Origin, USGS Spectral Database
Sample Description, See USGS database for additional info
Date Added,2016-08-03 20:59:50.556491

Data ID,USGS_and13          
Sample ID, andradite_ws487.2330
Mineral Name, andradite
Material Class,Nesosilicate

Wavelength
236.1, 0.0507470
242.1, 0.0301930
248.1, 0.0345960
253.6, 0.0280810
258.6, 0.0318810
263.6, 0.0319680
268.6, 0.0347270
273.1, 0.0355610
277.1, 0.0381910
281.1, 0.0408940
285.1, 0.0382960
289.1, 0.0389870
293.1, 0.0389490
297.1, 0.0411600
301.1, 0.0408880
305.1, 0.0408070
309.1, 0.0391670
313.1, 0.0388910
317.1, 0.0417800
321.1, 0.0437990
325.1, 0.0457540
329.1, 0.0490250
333.1, 0.0548950
337.1, 0.0608550
341.1, 0.0684460
345.1, 0.0762210
349.1, 0.0871850
353.1, 0.0969130
357.1, 0.105898
360.6, 0.114441
363.6, 0.122571
366.6, 0.129387
369.6, 0.132380
372.6, 0.134984
375.6, 0.139259
378.6, 0.143255
381.1, 0.146205
383.1, 0.148936
385.1, 0.152808
387.1, 0.159269
389.1, 0.167304
391.1, 0.177068
393.1, 0.188187
395.1, 0.198875
397.1, 0.207573
399.1, 0.217151
401.1, 0.223522
403.1, 0.230509
405.1, 0.236667
407.1, 0.240312
409.1, 0.241095
411.1, 0.246022
412.8, 0.250847
415.8, 0.257610
418.8, 0.261434
421.8, 0.265353
424.8, 0.265890
427.8, 0.264616
430.8, 0.259988
433.8, 0.252447
436.8, 0.248965
439.8, 0.237570
442.8, 0.263244
445.8, 0.294695
448.8, 0.307967
451.3, 0.315671
453.3, 0.323065
455.3, 0.328826
457.3, 0.335879
459.3, 0.341571
461.3, 0.346417
463.3, 0.352039
465.3, 0.354360
467.3, 0.358469
469.3, 0.362820
471.3, 0.367386
473.3, 0.370460
475.3, 0.375436
477.3, 0.380368
479.3, 0.385215
481.3, 0.390650
483.3, 0.397462
485.3, 0.404543
487.3, 0.410865
489.3, 0.416105
491.3, 0.420761
493.3, 0.427058
495.3, 0.435349
497.3, 0.439451
499.3, 0.445768
501.3, 0.451024
503.3, 0.457654
505.3, 0.463946
507.3, 0.470401
509.3, 0.475293
511.3, 0.481626
513.3, 0.486369
515.3, 0.491904
517.3, 0.497227
519.3, 0.501853
521.3, 0.508454
523.3, 0.513787
525.3, 0.518180
527.3, 0.523145
529.3, 0.526395
531.3, 0.530195
533.3, 0.535346
535.3, 0.539986
537.3, 0.541957
539.3, 0.546989
541.3, 0.549809
543.3, 0.553002
545.3, 0.554941
547.3, 0.556674
549.3, 0.557956
551.3, 0.561749
553.3, 0.563500
555.3, 0.565667
557.3, 0.567933
559.3, 0.568468
561.3, 0.570680
563.3, 0.572787
565.3, 0.573828
567.3, 0.575826
569.3, 0.577895
571.3, 0.579495
573.3, 0.581402
575.3, 0.582889
577.3, 0.584207
579.3, 0.587463
581.3, 0.588378
583.3, 0.590780
585.3, 0.592484
587.3, 0.594123
589.3, 0.597249
591.3, 0.599715
593.3, 0.599892
595.3, 0.601191
597.3, 0.603813
599.3, 0.605233
601.1, 0.605921
602.7, 0.607796
604.3, 0.609273
605.9, 0.610377
607.5, 0.611803
609.1, 0.613003
610.7, 0.614765
612.3, 0.615610
613.9, 0.617972
615.5, 0.619426
617.1, 0.620406
618.7, 0.622372
620.3, 0.623474
621.9, 0.624306
623.5, 0.626999
625.1, 0.628827
626.7, 0.630203
628.3, 0.632275
629.9, 0.633097
631.7, 0.636753
633.7, 0.638935
635.7, 0.641487
637.7, 0.644852
639.7, 0.645748
641.7, 0.648811
643.7, 0.651809
645.7, 0.654193
647.7, 0.658327
649.7, 0.659872
651.7, 0.663271
653.7, 0.665768
655.7, 0.669997
657.7, 0.672443
659.7, 0.676012
661.7, 0.678364
663.7, 0.683504
665.7, 0.685421
667.7, 0.688917
670.2, 0.691753
673.2, 0.696599
676.2, 0.699980
679.2, 0.704284
682.2, 0.707059
685.2, 0.711431
688.2, 0.713953
691.2, 0.718499
694.2, 0.720908
697.2, 0.724354
700.2, 0.726232
702.0, 0.727132
704.0, 0.729695
706.0, 0.730015
708.0, 0.733623
710.0, 0.733303
712.0, 0.737435
714.0, 0.737180
716.0, 0.738599
718.0, 0.738852
720.0, 0.740276
722.0, 0.740727
724.0, 0.742539
726.0, 0.743644
728.0, 0.744203
730.0, 0.744042
732.0, 0.745852
734.0, 0.745870
736.0, 0.747030
738.0, 0.747486
740.0, 0.746582
742.0, 0.746995
744.0, 0.748293
746.0, 0.749029
748.0, 0.748302
750.5, 0.747979
753.5, 0.749768
756.5, 0.747951
759.5, 0.746264
762.5, 0.744956
765.5, 0.743797
768.5, 0.742907
771.5, 0.741245
774.5, 0.739870
777.5, 0.738243
781.0, 0.733624
785.0, 0.730051
789.0, 0.725312
793.0, 0.722685
797.0, 0.717907
801.5, 0.711554
806.5, 0.707853
811.5, 0.701863
816.5, 0.697168
822.0, 0.688818
828.0, 0.683806
835.0, 0.676767
843.0, 0.674008
851.0, 0.667968
859.0, 0.671020
871.0, 0.666863
883.0, 0.674558
894.0, 0.680572
904.0, 0.692794
914.0, 0.695846
924.0, 0.703647
933.0, 0.715263
941.0, 0.726295
949.0, 0.734136
957.0, 0.742320
964.0, 0.752434
970.0, 0.759129
976.0, 0.765489
982.0, 0.769329
988.0, 0.776609
994.0, 0.779365
1000.0, 0.784163
1006.0, 0.791737
1012.0, 0.795729
1018.0, 0.798174
1023.5, 0.802932
1028.5, 0.805527
1033.5, 0.809253
1038.5, 0.811854
1043.5, 0.814705
1048.5, 0.820203
1053.5, 0.820703
1058.5, 0.823890
1063.5, 0.822584
1068.5, 0.826820
1073.5, 0.827184
1078.5, 0.834471
1083.5, 0.832552
1088.5, 0.837185
1093.5, 0.840876
1098.5, 0.841395
1103.5, 0.842379
1108.5, 0.843818
1113.5, 0.845484
1118.5, 0.847961
1123.5, 0.851433
1128.5, 0.852066
1133.5, 0.853811
1138.5, 0.855052
1143.5, 0.855570
1148.5, 0.857545
1153.5, 0.861955
1158.5, 0.858936
1163.5, 0.860348
1168.5, 0.861160
1173.5, 0.865111
1178.5, 0.863383
1183.5, 0.868157
1188.5, 0.868241
1193.5, 0.869479
1198.5, 0.867516
1203.5, 0.869869
1208.5, 0.871967
1213.5, 0.872556
1218.5, 0.872288
1223.5, 0.874747
1228.5, 0.873211
1233.5, 0.875374
1238.5, 0.875101
1243.5, 0.877947
1248.5, 0.874715
1253.5, 0.876771
1258.5, 0.878597
1263.5, 0.880074
1268.5, 0.879987
1273.5, 0.879789
1278.5, 0.881329
1283.5, 0.881948
1288.5, 0.880048
1293.5, 0.881087
1298.5, 0.880326
1303.5, 0.883282
1308.5, 0.881612
1313.5, 0.882178
1318.5, 0.882102
1323.5, 0.882644
1328.5, 0.881571
1333.5, 0.883078
1338.5, 0.883863
1343.5, 0.883059
1348.5, 0.882918
1353.5, 0.882779
1358.5, 0.885197
1363.5, 0.883138
1368.5, 0.885341
1373.5, 0.881502
1378.5, 0.881691
1383.5, 0.881541
1388.5, 0.878159
1393.5, 0.874754
1398.5, 0.864206
1403.5, 0.857022
1408.5, 0.834936
1413.5, 0.823470
1418.5, 0.821204
1423.5, 0.836224
1428.5, 0.845098
1433.5, 0.854650
1438.5, 0.863922
1443.5, 0.872981
1448.5, 0.880232
1453.5, 0.885866
1458.5, 0.889194
1463.5, 0.892988
1468.5, 0.895491
1473.5, 0.895120
1478.5, 0.897633
1483.5, 0.898561
1488.5, 0.900202
1493.5, 0.899826
1498.5, 0.901573
1503.5, 0.900596
1508.5, 0.900936
1513.5, 0.901932
1518.5, 0.900347
1523.5, 0.903174
1528.5, 0.904779
1534.0, 0.904129
1540.0, 0.903898
1546.0, 0.906274
1552.0, 0.905290
1558.0, 0.908024
1564.0, 0.908684
1570.5, 0.908588
1577.5, 0.909381
1584.5, 0.909325
1591.5, 0.909446
1598.5, 0.909507
1605.5, 0.907719
1612.5, 0.910609
1619.5, 0.908658
1626.5, 0.909617
1633.5, 0.908749
1640.5, 0.909632
1647.5, 0.911008
1654.5, 0.907697
1661.5, 0.908982
1668.5, 0.907158
1676.0, 0.906250
1684.0, 0.909636
1692.0, 0.907893
1700.0, 0.907086
1708.0, 0.908699
1716.0, 0.907532
1724.0, 0.907575
1732.0, 0.904394
1740.0, 0.906725
1748.0, 0.907610
1756.0, 0.909360
1764.0, 0.908334
1772.0, 0.909795
1780.0, 0.909322
1788.0, 0.911870
1796.0, 0.912106
1805.0, 0.907603
1815.0, 0.907275
1825.0, 0.906265
1835.0, 0.908582
1845.0, 0.904600
1855.0, 0.907260
1865.0, 0.903765
1875.0, 0.900971
1885.0, 0.900670
1895.0, 0.899592
1905.0, 0.898844
1915.0, 0.894872
1925.0, 0.892640
1935.0, 0.893618
1945.0, 0.893536
1955.0, 0.891370
1965.0, 0.894995
1975.0, 0.893197
1985.0, 0.894291
1995.0, 0.892325
2005.0, 0.895402
2015.0, 0.899137
2025.0, 0.896337
2035.0, 0.902023
2045.0, 0.895438
2055.0, 0.898915
2065.0, 0.899221
2075.0, 0.895446
2085.0, 0.894882
2095.0, 0.898536
2105.0, 0.893933
2115.0, 0.892741
2125.0, 0.899211
2135.0, 0.892996
2145.0, 0.890295
2155.0, 0.882565
2165.0, 0.879341
2175.0, 0.867614
2185.0, 0.847448
2195.0, 0.837518
2205.0, 0.825356
2215.0, 0.801474
2225.0, 0.791671
2235.0, 0.777542
2245.0, 0.773485
2255.0, 0.779633
2265.0, 0.783573
2275.0, 0.785985
2285.0, 0.784867
2295.0, 0.791996
2305.0, 0.790862
2315.0, 0.785362
2325.0, 0.793344
2335.0, 0.796449
2345.0, 0.792839
2355.0, 0.777610
2365.0, 0.758654
2375.0, 0.734008
2386.0, 0.699294
2400.0, 0.687243
2418.0, 0.699850
2440.0, 0.704659
2466.0, 0.689227
2496.0, 0.678235
2528.0, 0.662493
2560.0, 0.659709
2592.0, 0.653564
2624.0, 0.641791
2656.0, 0.623974
2688.0, 0.578198
2720.0, 0.450916
2752.0, 0.168221
2784.0, 0.124246
2816.0, 0.176663
2848.0, 0.324499
2880.0, 0.432421
2912.0, 0.448398
2944.0, 0.455190
2976.0, 0.483630
