Database of Origin, USGS Spectral Database
Sample Description, See USGS database for additional info
Date Added,2016-08-10 02:58:06.243568

Data ID,USGS_how02          
Sample ID, howlite_gds155.10192
Mineral Name, howlite
Material Class,Borate

Wavelength
1429.32, 0.660329
1429.72, 0.656218
1430.11, 0.652162
1430.51, 0.647726
1430.9, 0.643237
1431.3, 0.635448
1431.69, 0.628903
1432.09, 0.627713
1432.48, 0.629876
1432.88, 0.630796
1433.28, 0.630796
1433.67, 0.629660
1434.07, 0.628146
1434.46, 0.625495
1434.86, 0.622574
1435.26, 0.620411
1435.66, 0.617382
1436.05, 0.614785
1436.45, 0.613487
1436.85, 0.610999
1437.25, 0.607591
1437.65, 0.604292
1438.05, 0.600452
1438.44, 0.596936
1438.84, 0.594772
1439.24, 0.591473
1439.64, 0.589147
1440.04, 0.585631
1440.44, 0.581899
1440.84, 0.579356
1441.24, 0.576436
1441.65, 0.573623
1442.05, 0.571135
1442.45, 0.568106
1442.85, 0.564752
1443.25, 0.562535
1443.65, 0.560209
1444.05, 0.557126
1444.46, 0.554800
1444.86, 0.552528
1445.26, 0.550364
1445.67, 0.549391
1446.07, 0.549228
1446.47, 0.549174
1446.88, 0.549120
1447.28, 0.549012
1447.68, 0.548525
1448.09, 0.548525
1448.49, 0.548579
1448.9, 0.547930
1449.3, 0.547660
1449.71, 0.547552
1450.11, 0.547011
1450.52, 0.546686
1450.93, 0.545929
1451.33, 0.544523
1451.74, 0.543225
1452.14, 0.543008
1452.55, 0.542413
1452.96, 0.540033
1453.36, 0.538573
1453.77, 0.538248
1454.18, 0.536680
1454.59, 0.534570
1455.0, 0.533488
1455.41, 0.531974
1455.81, 0.530351
1456.22, 0.529864
1456.63, 0.528566
1457.04, 0.526511
1457.45, 0.524131
1457.86, 0.522670
1458.27, 0.521535
1458.68, 0.520615
1459.09, 0.519858
1459.5, 0.518614
1459.91, 0.516396
1460.32, 0.515044
1460.74, 0.514719
1461.15, 0.513096
1461.56, 0.510825
1461.97, 0.509094
1462.39, 0.508391
1462.8, 0.508012
1463.21, 0.507309
1463.62, 0.506227
1464.04, 0.505091
1464.45, 0.504063
1464.86, 0.501683
1465.28, 0.499790
1465.69, 0.499033
1466.11, 0.498492
1466.52, 0.497302
1466.94, 0.496707
1467.35, 0.495571
1467.77, 0.493895
1468.18, 0.492650
1468.6, 0.491244
1469.02, 0.490162
1469.43, 0.489081
1469.85, 0.487620
1470.27, 0.487025
1470.68, 0.486214
1471.1, 0.484591
1471.52, 0.483185
1471.94, 0.481941
1472.35, 0.480534
1472.77, 0.480210
1473.19, 0.479453
1473.61, 0.478749
1474.03, 0.477722
1474.45, 0.476586
1474.87, 0.475991
1475.29, 0.476045
1475.71, 0.474963
1476.13, 0.474044
1476.55, 0.473827
1476.97, 0.473178
1477.39, 0.471664
1477.81, 0.470257
1478.23, 0.470311
1478.65, 0.470311
1479.07, 0.469608
1479.5, 0.469013
1479.92, 0.468526
1480.34, 0.466958
1480.76, 0.466417
1481.19, 0.465768
1481.61, 0.465227
1482.03, 0.465065
1482.46, 0.464253
1482.88, 0.462901
1483.31, 0.461657
1483.73, 0.461549
1484.16, 0.461603
1484.58, 0.461170
1485.01, 0.460197
1485.43, 0.459710
1485.86, 0.459439
1486.28, 0.458520
1486.71, 0.458412
1487.14, 0.458141
1487.56, 0.457979
1487.99, 0.457708
1488.42, 0.457222
1488.84, 0.456843
1489.27, 0.455923
1489.7, 0.454733
1490.13, 0.454138
1490.56, 0.454247
1490.98, 0.453976
1491.41, 0.453327
1491.84, 0.452949
1492.27, 0.451867
1492.7, 0.451272
1493.13, 0.450677
1493.56, 0.450190
1493.99, 0.450028
1494.42, 0.449541
1494.85, 0.448567
1495.29, 0.447756
1495.72, 0.447107
1496.15, 0.447107
1496.58, 0.446458
1497.01, 0.445755
1497.44, 0.445809
1497.88, 0.445484
1498.31, 0.445051
1498.74, 0.444889
1499.18, 0.444565
1499.61, 0.444294
1500.04, 0.443861
1500.48, 0.443645
1500.91, 0.442942
1501.35, 0.442455
1501.78, 0.442293
1502.22, 0.442293
1502.65, 0.442509
1503.09, 0.442076
1503.53, 0.441806
1503.96, 0.442076
1504.4, 0.441536
1504.83, 0.440616
1505.27, 0.440346
1505.71, 0.440021
1506.15, 0.439642
1506.58, 0.439534
1507.02, 0.438777
1507.46, 0.439047
1507.9, 0.439102
1508.34, 0.438290
1508.78, 0.438128
1509.21, 0.438615
1509.66, 0.438128
1510.09, 0.437046
1510.53, 0.436722
1510.97, 0.436397
1511.42, 0.436018
1511.86, 0.435640
1512.3, 0.435964
1512.74, 0.436072
1513.18, 0.435532
1513.62, 0.434774
1514.06, 0.435207
1514.51, 0.435153
1514.95, 0.434612
1515.39, 0.434612
1515.83, 0.434179
1516.28, 0.434071
1516.72, 0.433909
1517.16, 0.434017
1517.61, 0.434179
1518.05, 0.434179
1518.5, 0.433747
1518.94, 0.433638
1519.39, 0.433584
1519.83, 0.433855
1520.28, 0.434450
1520.73, 0.434720
1521.17, 0.434342
1521.62, 0.434450
1522.07, 0.435532
1522.51, 0.435964
1522.96, 0.436343
1523.41, 0.436992
1523.85, 0.437533
1524.3, 0.437857
1524.75, 0.438182
1525.2, 0.438939
1525.65, 0.439588
1526.1, 0.440291
1526.55, 0.440616
1527.0, 0.440562
1527.45, 0.441103
1527.9, 0.441698
1528.35, 0.441968
1528.8, 0.442834
1529.25, 0.443699
1529.7, 0.444294
1530.15, 0.444943
1530.6, 0.445430
1531.05, 0.445809
1531.51, 0.446025
1531.96, 0.446295
1532.41, 0.446945
1532.87, 0.447161
1533.32, 0.448026
1533.77, 0.449108
1534.23, 0.449595
1534.68, 0.450028
1535.14, 0.450677
1535.59, 0.450893
1536.05, 0.450947
1536.5, 0.451218
1536.96, 0.451759
1537.41, 0.451813
1537.87, 0.452083
1538.32, 0.452408
1538.78, 0.452840
1539.24, 0.453381
1539.7, 0.453598
1540.15, 0.453652
1540.61, 0.453976
1541.07, 0.454463
1541.53, 0.455166
1541.98, 0.455545
1542.44, 0.455491
1542.9, 0.455978
1543.36, 0.456518
1543.82, 0.456681
1544.28, 0.456789
1544.74, 0.457113
1545.2, 0.457925
1545.66, 0.457925
1546.12, 0.458195
1546.59, 0.458357
1547.05, 0.458249
1547.51, 0.458520
1547.97, 0.458898
1548.43, 0.459493
1548.9, 0.460088
1549.36, 0.459980
1549.82, 0.460034
1550.29, 0.460197
1550.75, 0.460359
1551.21, 0.460629
1551.68, 0.461332
1552.14, 0.461711
1552.61, 0.461657
1553.07, 0.461657
1553.54, 0.461711
1554.0, 0.462252
1554.47, 0.462901
1554.93, 0.462631
1555.4, 0.462847
1555.87, 0.463117
1556.34, 0.463063
1556.8, 0.463334
1557.27, 0.464091
1557.74, 0.464524
1558.21, 0.464848
1558.68, 0.464848
1559.14, 0.464794
1559.61, 0.465173
1560.08, 0.465497
1560.55, 0.465173
1561.02, 0.465227
1561.49, 0.465551
1561.96, 0.465930
1562.43, 0.466038
1562.9, 0.466092
1563.38, 0.466038
1563.85, 0.466579
1564.32, 0.467120
1564.79, 0.467499
1565.26, 0.467336
1565.74, 0.467282
1566.21, 0.467282
1566.68, 0.467607
1567.16, 0.467823
1567.63, 0.467823
1568.1, 0.467877
1568.58, 0.468310
1569.05, 0.468526
1569.53, 0.468580
1570.0, 0.468418
1570.48, 0.468418
1570.96, 0.468905
1571.43, 0.469230
1571.91, 0.469013
1572.39, 0.469284
1572.86, 0.469284
1573.34, 0.469446
1573.82, 0.469825
1574.3, 0.469987
1574.77, 0.469770
1575.25, 0.469608
1575.73, 0.470365
1576.21, 0.470528
1576.69, 0.470420
1577.17, 0.471069
1577.65, 0.471285
1578.13, 0.470852
1578.61, 0.470744
1579.09, 0.470798
1579.57, 0.471015
1580.05, 0.471069
1580.54, 0.471015
1581.02, 0.471664
1581.5, 0.471988
1581.98, 0.471772
1582.47, 0.471772
1582.95, 0.471826
1583.43, 0.471826
1583.92, 0.471934
1584.4, 0.472259
1584.88, 0.472259
1585.37, 0.472204
1585.85, 0.472096
1586.34, 0.472042
1586.82, 0.472367
1587.31, 0.472529
1587.8, 0.472421
1588.28, 0.472529
1588.77, 0.472529
1589.26, 0.472637
1589.74, 0.472637
1590.23, 0.472908
1590.72, 0.473178
1591.21, 0.473286
1591.7, 0.473286
1592.19, 0.473232
1592.67, 0.473232
1593.16, 0.473557
1593.65, 0.473719
1594.14, 0.473286
1594.63, 0.473178
1595.12, 0.473719
1595.61, 0.473773
1596.11, 0.473719
1596.6, 0.473611
1597.09, 0.473665
1597.58, 0.473773
1598.08, 0.474044
1598.57, 0.474639
1599.06, 0.474801
1599.55, 0.474584
1600.05, 0.474639
1600.54, 0.475017
1601.04, 0.474855
1601.53, 0.474801
1602.03, 0.474909
1602.52, 0.475125
1603.02, 0.475396
1603.51, 0.475720
1604.01, 0.476045
1604.5, 0.476261
1605.0, 0.476532
1605.5, 0.476640
1606.0, 0.476261
1606.49, 0.476478
1606.99, 0.476856
1607.49, 0.476694
1607.99, 0.476748
1608.49, 0.476964
1608.99, 0.477073
1609.49, 0.477127
1609.99, 0.477451
1610.49, 0.477668
1610.99, 0.477451
1611.49, 0.477505
1611.99, 0.477614
1612.49, 0.477559
1612.99, 0.477776
1613.49, 0.478046
1614.0, 0.478263
1614.5, 0.478479
1615.0, 0.478749
1615.51, 0.478641
1616.01, 0.478533
1616.51, 0.478587
1617.02, 0.478749
1617.52, 0.478858
1618.03, 0.478912
1618.53, 0.478966
1619.04, 0.479398
1619.54, 0.479885
1620.05, 0.479939
1620.55, 0.480156
1621.06, 0.480102
1621.57, 0.480102
1622.08, 0.480156
1622.58, 0.480264
1623.09, 0.480534
1623.6, 0.480859
1624.11, 0.480967
1624.62, 0.481075
1625.13, 0.481292
1625.64, 0.481508
1626.15, 0.481562
1626.66, 0.481400
1627.17, 0.481724
1627.68, 0.481833
1628.19, 0.481887
1628.7, 0.481887
1629.21, 0.481995
1629.72, 0.482373
1630.24, 0.482536
1630.75, 0.482968
1631.26, 0.482968
1631.78, 0.482806
1632.29, 0.483077
1632.8, 0.483293
1633.32, 0.483455
1633.83, 0.483834
1634.35, 0.483942
1634.86, 0.484104
1635.38, 0.484212
1635.9, 0.484321
1636.41, 0.484483
1636.93, 0.484537
1637.45, 0.484699
1637.96, 0.484916
1638.48, 0.485294
1639.0, 0.485727
1639.52, 0.485997
1640.04, 0.486430
1640.56, 0.486701
1641.08, 0.486538
1641.59, 0.486484
1642.11, 0.486430
1642.63, 0.486701
1643.16, 0.487133
1643.68, 0.487242
1644.2, 0.487458
1644.72, 0.487620
1645.24, 0.487620
1645.76, 0.487945
1646.29, 0.488377
1646.81, 0.488594
1647.33, 0.488486
1647.86, 0.488918
1648.38, 0.489189
1648.9, 0.489297
1649.43, 0.489297
1649.95, 0.489513
1650.48, 0.489784
1651.0, 0.489676
1651.53, 0.489892
1652.06, 0.490271
1652.58, 0.490541
1653.11, 0.490757
1653.64, 0.491082
1654.17, 0.491298
1654.69, 0.491623
1655.22, 0.491677
1655.75, 0.491731
1656.28, 0.491947
1656.81, 0.492272
1657.34, 0.492650
1657.87, 0.492596
1658.4, 0.492596
1658.93, 0.492813
1659.46, 0.493300
1659.99, 0.493732
1660.52, 0.493895
1661.05, 0.494003
1661.59, 0.494219
1662.12, 0.494435
1662.65, 0.494598
1663.19, 0.495193
1663.72, 0.495247
1664.26, 0.495517
1664.79, 0.495842
1665.32, 0.496004
1665.86, 0.496274
1666.39, 0.496545
1666.93, 0.496924
1667.47, 0.497248
1668.0, 0.497465
1668.54, 0.497519
1669.08, 0.497573
1669.61, 0.497681
1670.15, 0.497789
1670.69, 0.498005
1671.23, 0.498384
1671.77, 0.498600
1672.31, 0.498600
1672.85, 0.498763
1673.39, 0.499466
1673.93, 0.499682
1674.47, 0.499899
1675.01, 0.500493
1675.55, 0.500818
1676.09, 0.501143
1676.64, 0.501251
1677.18, 0.501143
1677.72, 0.501034
1678.26, 0.501575
1678.81, 0.502224
1679.35, 0.502333
1679.89, 0.502495
1680.44, 0.502765
1680.98, 0.502873
1681.53, 0.502928
1682.07, 0.503360
1682.62, 0.503739
1683.17, 0.503955
1683.71, 0.503901
1684.26, 0.504226
1684.81, 0.504496
1685.36, 0.504875
1685.9, 0.505145
1686.45, 0.505307
1687.0, 0.505253
1687.55, 0.505362
1688.1, 0.505578
1688.65, 0.505957
1689.2, 0.506389
1689.75, 0.506660
1690.3, 0.506714
1690.85, 0.506822
1691.41, 0.507201
1691.96, 0.507687
1692.51, 0.507742
1693.06, 0.507904
1693.61, 0.508228
1694.17, 0.508391
1694.72, 0.508445
1695.28, 0.508553
1695.83, 0.508986
1696.39, 0.509148
1696.94, 0.509364
1697.5, 0.509635
1698.05, 0.509689
1698.61, 0.509905
1699.17, 0.510122
1699.72, 0.510338
1700.28, 0.510446
1700.84, 0.510771
1701.4, 0.511041
1701.95, 0.511203
1702.51, 0.511528
1703.07, 0.511961
1703.63, 0.512123
1704.19, 0.512123
1704.75, 0.512339
1705.31, 0.512231
1705.88, 0.512123
1706.44, 0.512556
1707.0, 0.512826
1707.56, 0.513151
1708.12, 0.513421
1708.69, 0.513367
1709.25, 0.513583
1709.81, 0.513745
1710.38, 0.514070
1710.94, 0.514286
1711.51, 0.514503
1712.07, 0.514557
1712.64, 0.514719
1713.2, 0.514935
1713.77, 0.515044
1714.34, 0.515044
1714.9, 0.515422
1715.47, 0.515855
1716.04, 0.515747
1716.61, 0.515693
1717.18, 0.515909
1717.74, 0.516071
1718.31, 0.516288
1718.88, 0.516450
1719.45, 0.516666
1720.02, 0.516991
1720.59, 0.517153
1721.17, 0.517424
1721.74, 0.517748
1722.31, 0.517802
1722.88, 0.517856
1723.45, 0.518019
1724.03, 0.518289
1724.6, 0.518505
1725.18, 0.518830
1725.75, 0.518938
1726.33, 0.518992
1726.9, 0.519533
1727.48, 0.519912
1728.05, 0.520128
1728.63, 0.520290
1729.2, 0.520507
1729.78, 0.520615
1730.36, 0.520669
1730.94, 0.520994
1731.51, 0.521426
1732.09, 0.521589
1732.67, 0.521751
1733.25, 0.522075
1733.83, 0.522129
1734.41, 0.522184
1734.99, 0.522454
1735.57, 0.522670
1736.15, 0.522995
1736.73, 0.523211
1737.32, 0.523482
1737.9, 0.523860
1738.48, 0.524023
1739.07, 0.524185
1739.65, 0.524347
1740.23, 0.524618
1740.82, 0.524942
1741.4, 0.525375
1741.99, 0.525483
1742.57, 0.525159
1743.16, 0.525050
1743.74, 0.525699
1744.33, 0.526024
1744.92, 0.526186
1745.51, 0.526727
1746.09, 0.527160
1746.68, 0.526889
1747.27, 0.526619
1747.86, 0.526943
1748.45, 0.527214
1749.04, 0.527214
1749.63, 0.527701
1750.22, 0.528133
1750.81, 0.528350
1751.4, 0.528350
1751.99, 0.528458
1752.59, 0.528674
1753.18, 0.528728
1753.77, 0.529107
1754.37, 0.529540
1754.96, 0.529540
1755.56, 0.529756
1756.15, 0.529810
1756.74, 0.529810
1757.34, 0.530135
1757.94, 0.530351
1758.53, 0.530622
1759.13, 0.531054
1759.73, 0.531108
1760.32, 0.530946
1760.92, 0.531162
1761.52, 0.531595
1762.12, 0.531703
1762.72, 0.531757
1763.32, 0.531866
1763.92, 0.531974
1764.52, 0.532407
1765.12, 0.532515
1765.72, 0.532352
1766.32, 0.532407
1766.92, 0.532731
1767.53, 0.532947
1768.13, 0.533110
1768.73, 0.533434
1769.34, 0.533597
1769.94, 0.533488
1770.55, 0.533434
1771.15, 0.533651
1771.76, 0.533975
1772.36, 0.533975
1772.97, 0.534029
1773.57, 0.534408
1774.18, 0.534516
1774.79, 0.534462
1775.4, 0.534895
1776.0, 0.535273
1776.61, 0.535111
1777.22, 0.534895
1777.83, 0.535111
1778.44, 0.535598
1779.05, 0.535868
1779.66, 0.535868
1780.27, 0.535868
1780.88, 0.535814
1781.5, 0.535922
1782.11, 0.536193
1782.72, 0.536409
1783.33, 0.536626
1783.95, 0.536842
1784.56, 0.536896
1785.18, 0.537112
1785.79, 0.537329
1786.41, 0.537383
1787.02, 0.537437
1787.64, 0.537491
1788.26, 0.537653
1788.87, 0.537761
1789.49, 0.537870
1790.11, 0.538194
1790.73, 0.538519
1791.35, 0.538573
1791.96, 0.538573
1792.58, 0.538735
1793.21, 0.538897
1793.83, 0.538789
1794.45, 0.538951
1795.07, 0.539060
1795.69, 0.539222
1796.31, 0.539168
1796.93, 0.539114
1797.56, 0.539222
1798.18, 0.539438
1798.8, 0.539546
1799.43, 0.539709
1800.05, 0.539817
1800.68, 0.540141
1801.3, 0.540250
1801.93, 0.540141
1802.56, 0.540141
1803.18, 0.540195
1803.81, 0.540412
1804.44, 0.540520
1805.07, 0.540574
1805.7, 0.540628
1806.33, 0.540682
1806.95, 0.540790
1807.58, 0.541007
1808.22, 0.540953
1808.85, 0.540953
1809.48, 0.541061
1810.11, 0.541169
1810.74, 0.541331
1811.38, 0.541494
1812.01, 0.541656
1812.64, 0.541656
1813.28, 0.541385
1813.91, 0.541548
1814.55, 0.541710
1815.18, 0.542089
1815.82, 0.542305
1816.45, 0.542359
1817.09, 0.542413
1817.73, 0.542359
1818.36, 0.542575
1819.0, 0.542684
1819.64, 0.543008
1820.28, 0.543711
1820.92, 0.543549
1821.56, 0.543495
1822.2, 0.543333
1822.84, 0.543170
1823.48, 0.543062
1824.12, 0.543008
1824.76, 0.543387
1825.41, 0.544090
1826.05, 0.545118
1826.69, 0.544469
1827.34, 0.543874
1827.98, 0.544360
1828.63, 0.544685
1829.27, 0.544577
1829.92, 0.544631
1830.56, 0.545118
1831.21, 0.545280
1831.86, 0.545009
1832.5, 0.544955
1833.15, 0.544739
1833.8, 0.544901
1834.45, 0.545659
1835.1, 0.545983
1835.75, 0.546470
1836.4, 0.546632
1837.05, 0.546470
1837.7, 0.546740
1838.35, 0.546091
1839.01, 0.546524
1839.66, 0.547335
1840.31, 0.546740
1840.96, 0.546632
1841.62, 0.547660
1842.27, 0.547444
1842.93, 0.546740
1843.58, 0.546578
1844.24, 0.546416
1844.9, 0.546308
1845.55, 0.546524
1846.21, 0.547552
1846.87, 0.548850
1847.53, 0.548633
1848.18, 0.548147
1848.84, 0.547444
1849.5, 0.547227
1850.16, 0.547444
1850.82, 0.547335
1851.48, 0.547011
1852.14, 0.547119
1852.81, 0.547660
1853.47, 0.548201
1854.13, 0.547876
1854.8, 0.547011
1855.46, 0.547173
1856.12, 0.548201
1856.79, 0.548309
1857.45, 0.547444
1858.12, 0.547065
1858.79, 0.547714
1859.45, 0.548904
1860.12, 0.548633
1860.79, 0.547660
1861.46, 0.547065
1862.12, 0.547011
1862.79, 0.547011
1863.46, 0.547065
1864.13, 0.547281
1864.8, 0.547335
1865.48, 0.547389
1866.15, 0.547065
1866.82, 0.547552
1867.49, 0.548688
1868.16, 0.548309
1868.84, 0.547876
1869.51, 0.547984
1870.19, 0.548525
1870.86, 0.549066
1871.54, 0.548038
1872.21, 0.548038
1872.89, 0.548958
1873.56, 0.548579
1874.24, 0.547552
1874.92, 0.547389
1875.6, 0.547173
1876.28, 0.547606
1876.96, 0.548147
1877.64, 0.547552
1878.32, 0.546849
1879.0, 0.546794
1879.68, 0.546849
1880.36, 0.547011
1881.04, 0.546957
1881.73, 0.546686
1882.41, 0.546524
1883.09, 0.546903
1883.78, 0.547389
1884.46, 0.547011
1885.15, 0.546632
1885.83, 0.546578
1886.52, 0.546740
1887.21, 0.546794
1887.89, 0.546632
1888.58, 0.546686
1889.27, 0.547173
1889.96, 0.547606
1890.65, 0.547119
1891.34, 0.546849
1892.03, 0.547011
1892.72, 0.546740
1893.41, 0.546686
1894.1, 0.546686
1894.79, 0.546470
1895.49, 0.546524
1896.18, 0.546849
1896.87, 0.547227
1897.57, 0.547444
1898.26, 0.547227
1898.96, 0.547876
1899.65, 0.548309
1900.35, 0.547606
1901.05, 0.546957
1901.74, 0.546794
1902.44, 0.547552
1903.14, 0.547768
1903.84, 0.547173
1904.54, 0.547498
1905.24, 0.548038
1905.94, 0.547768
1906.64, 0.547606
1907.34, 0.546957
1908.04, 0.546524
1908.75, 0.546416
1909.45, 0.546578
1910.15, 0.546794
1910.86, 0.546849
1911.56, 0.546794
1912.27, 0.546686
1912.97, 0.547227
1913.68, 0.547444
1914.39, 0.546740
1915.09, 0.546254
1915.8, 0.546362
1916.51, 0.546308
1917.22, 0.545983
1917.93, 0.546037
1918.64, 0.546254
1919.35, 0.546794
1920.06, 0.547281
1920.77, 0.547065
1921.48, 0.546145
1922.19, 0.545821
1922.91, 0.545821
1923.62, 0.546091
1924.33, 0.545875
1925.05, 0.545496
1925.76, 0.545442
1926.48, 0.545604
1927.19, 0.545659
1927.91, 0.545875
1928.63, 0.545983
1929.35, 0.545442
1930.07, 0.545226
1930.78, 0.545388
1931.5, 0.545280
1932.22, 0.545172
1932.94, 0.545226
1933.66, 0.545496
1934.39, 0.545388
1935.11, 0.545172
1935.83, 0.545334
1936.55, 0.545334
1937.28, 0.545118
1938.0, 0.545064
1938.73, 0.545064
1939.45, 0.544955
1940.18, 0.544847
1940.9, 0.544739
1941.63, 0.544577
1942.36, 0.544685
1943.09, 0.544739
1943.81, 0.544577
1944.54, 0.544469
1945.27, 0.544144
1946.0, 0.544198
1946.73, 0.544360
1947.47, 0.544198
1948.2, 0.544090
1948.93, 0.544144
1949.66, 0.544198
1950.4, 0.544306
1951.13, 0.544198
1951.86, 0.543874
1952.6, 0.543711
1953.34, 0.543819
1954.07, 0.543765
1954.81, 0.543549
1955.55, 0.543279
1956.29, 0.543170
1957.02, 0.543225
1957.76, 0.543279
1958.5, 0.543116
1959.24, 0.542900
1959.98, 0.543008
1960.72, 0.542954
1961.47, 0.542846
1962.21, 0.542738
1962.95, 0.542521
1963.7, 0.542413
1964.44, 0.542521
1965.18, 0.542521
1965.93, 0.542251
1966.67, 0.542035
1967.42, 0.541980
1968.17, 0.541764
1968.92, 0.541764
1969.66, 0.541926
1970.41, 0.541818
1971.16, 0.541656
1971.91, 0.541440
1972.66, 0.541277
1973.41, 0.541277
1974.16, 0.541223
1974.92, 0.541115
1975.67, 0.540953
1976.42, 0.540899
1977.18, 0.540790
1977.93, 0.540736
1978.69, 0.540520
1979.44, 0.540141
1980.2, 0.539925
1980.95, 0.539925
1981.71, 0.539709
1982.47, 0.539600
1983.23, 0.539655
1983.99, 0.539438
1984.74, 0.539168
1985.51, 0.538843
1986.27, 0.538519
1987.03, 0.538410
1987.79, 0.537978
1988.55, 0.537383
1989.32, 0.537058
1990.08, 0.536626
1990.84, 0.536139
1991.61, 0.535706
1992.37, 0.535219
1993.14, 0.534841
1993.9, 0.534678
1994.67, 0.534354
1995.44, 0.533975
1996.21, 0.533542
1996.98, 0.532947
1997.75, 0.532785
1998.52, 0.532569
1999.29, 0.532190
2000.06, 0.531920
2000.83, 0.531649
2001.6, 0.531379
2002.38, 0.530946
2003.15, 0.530622
2003.93, 0.530459
2004.7, 0.530081
2005.48, 0.529594
2006.25, 0.528891
2007.03, 0.528296
2007.81, 0.527917
2008.58, 0.527538
2009.36, 0.527214
2010.14, 0.527214
2010.92, 0.527322
2011.7, 0.527484
2012.48, 0.527701
2013.26, 0.528025
2014.05, 0.528458
2014.83, 0.528674
2015.61, 0.528512
2016.4, 0.528350
2017.18, 0.528512
2017.97, 0.528350
2018.75, 0.527917
2019.54, 0.527160
2020.32, 0.526457
2021.11, 0.525591
2021.9, 0.524455
2022.69, 0.523374
2023.48, 0.522292
2024.27, 0.521156
2025.06, 0.519858
2025.85, 0.518722
2026.64, 0.517694
2027.44, 0.516612
2028.23, 0.515801
2029.02, 0.515152
2029.82, 0.514935
2030.61, 0.515152
2031.41, 0.515585
2032.2, 0.516125
2033.0, 0.516883
2033.8, 0.517748
2034.6, 0.518614
2035.4, 0.519533
2036.2, 0.520182
2037.0, 0.520669
2037.8, 0.521372
2038.6, 0.521913
2039.4, 0.522400
2040.2, 0.522833
2041.01, 0.523319
2041.81, 0.523536
2042.61, 0.523644
2043.42, 0.523752
2044.22, 0.523914
2045.03, 0.523969
2045.84, 0.523698
2046.65, 0.523536
2047.46, 0.523698
2048.26, 0.523752
2049.07, 0.523374
2049.88, 0.523103
2050.69, 0.522562
2051.51, 0.522075
2052.32, 0.521751
2053.13, 0.521318
2053.94, 0.520615
2054.76, 0.520020
2055.57, 0.519371
2056.39, 0.518776
2057.2, 0.518073
2058.02, 0.517640
2058.84, 0.517045
2059.66, 0.515855
2060.48, 0.514665
2061.29, 0.513637
2062.11, 0.512826
2062.94, 0.511906
2063.76, 0.510933
2064.58, 0.509851
2065.4, 0.508391
2066.22, 0.507147
2067.05, 0.505902
2067.87, 0.504226
2068.7, 0.502387
2069.52, 0.500548
2070.35, 0.498654
2071.18, 0.496599
2072.0, 0.494327
2072.83, 0.492110
2073.66, 0.489676
2074.49, 0.487187
2075.32, 0.484699
2076.15, 0.481833
2076.98, 0.478966
2077.82, 0.476261
2078.65, 0.473665
2079.48, 0.470906
2080.32, 0.468256
2081.15, 0.465822
2081.99, 0.463442
2082.83, 0.461008
2083.66, 0.458736
2084.5, 0.456518
2085.34, 0.454247
2086.18, 0.452029
2087.02, 0.449595
2087.86, 0.447215
2088.7, 0.444889
2089.54, 0.442726
2090.39, 0.440291
2091.23, 0.437803
2092.07, 0.435478
2092.92, 0.433260
2093.76, 0.430880
2094.61, 0.428554
2095.45, 0.426282
2096.3, 0.423902
2097.15, 0.421901
2098.0, 0.420116
2098.85, 0.418547
2099.7, 0.416925
2100.55, 0.415302
2101.4, 0.413950
2102.25, 0.412814
2103.1, 0.411786
2103.96, 0.410650
2104.81, 0.409623
2105.67, 0.408703
2106.52, 0.407783
2107.38, 0.406593
2108.24, 0.405349
2109.09, 0.404105
2109.95, 0.402429
2110.81, 0.400535
2111.67, 0.398642
2112.53, 0.396533
2113.39, 0.394207
2114.25, 0.391665
2115.12, 0.389122
2115.98, 0.386256
2116.84, 0.383497
2117.71, 0.380684
2118.58, 0.377493
2119.44, 0.374356
2120.31, 0.371543
2121.18, 0.368352
2122.04, 0.365161
2122.91, 0.362186
2123.78, 0.359427
2124.65, 0.356993
2125.52, 0.354667
2126.4, 0.352612
2127.27, 0.350827
2128.14, 0.349583
2129.02, 0.348934
2129.89, 0.348717
2130.77, 0.349204
2131.64, 0.350448
2132.52, 0.352071
2133.4, 0.354180
2134.27, 0.356777
2135.15, 0.359535
2136.03, 0.362294
2136.91, 0.364998
2137.79, 0.367324
2138.68, 0.369271
2139.56, 0.371165
2140.44, 0.372409
2141.33, 0.373436
2142.21, 0.374194
2143.1, 0.374626
2143.99, 0.374843
2144.87, 0.374951
2145.76, 0.374789
2146.65, 0.374356
2147.54, 0.373599
2148.43, 0.372841
2149.32, 0.371868
2150.21, 0.370732
2151.1, 0.369488
2151.99, 0.367973
2152.89, 0.366188
2153.78, 0.364512
2154.68, 0.362997
2155.57, 0.361428
2156.47, 0.359860
2157.37, 0.358562
2158.27, 0.357426
2159.16, 0.356344
2160.06, 0.355641
2160.96, 0.355262
2161.86, 0.355046
2162.77, 0.355208
2163.67, 0.355695
2164.57, 0.356290
2165.48, 0.357155
2166.38, 0.358454
2167.29, 0.360076
2168.2, 0.361699
2169.1, 0.363592
2170.01, 0.365593
2170.92, 0.367703
2171.83, 0.369812
2172.74, 0.371868
2173.65, 0.373761
2174.56, 0.375870
2175.47, 0.378142
2176.39, 0.380035
2177.3, 0.381874
2178.22, 0.383822
2179.13, 0.385607
2180.05, 0.387283
2180.96, 0.389068
2181.88, 0.390745
2182.8, 0.392260
2183.72, 0.393882
2184.64, 0.395613
2185.56, 0.397290
2186.48, 0.398588
2187.41, 0.399778
2188.33, 0.401239
2189.25, 0.402753
2190.18, 0.404268
2191.1, 0.405836
2192.03, 0.407297
2192.96, 0.408703
2193.89, 0.409947
2194.82, 0.411083
2195.74, 0.412273
2196.68, 0.413301
2197.61, 0.413787
2198.54, 0.414382
2199.47, 0.414869
2200.4, 0.415302
2201.34, 0.415464
2202.28, 0.415464
2203.21, 0.415627
2204.15, 0.415627
2205.08, 0.415518
2206.02, 0.415269
2206.96, 0.415020
2207.9, 0.415020
2208.84, 0.414870
2209.78, 0.414770
2210.73, 0.414421
2211.67, 0.414371
2212.61, 0.414272
2213.56, 0.413723
2214.5, 0.412975
2215.45, 0.412825
2216.4, 0.412825
2217.35, 0.412526
2218.3, 0.412077
2219.24, 0.411628
2220.2, 0.410880
2221.15, 0.409983
2222.1, 0.409534
2223.05, 0.408636
2224.0, 0.407788
2224.96, 0.407190
2225.91, 0.406292
2226.87, 0.405395
2227.83, 0.404796
2228.79, 0.404198
2229.74, 0.403200
2230.7, 0.402303
2231.66, 0.401754
2232.63, 0.401106
2233.59, 0.400657
2234.55, 0.400108
2235.51, 0.399560
2236.48, 0.399061
2237.44, 0.398612
2238.41, 0.398114
2239.38, 0.397715
2240.34, 0.397415
2241.31, 0.397465
2242.28, 0.397864
2243.25, 0.397715
2244.22, 0.397665
2245.19, 0.398213
2246.17, 0.398562
2247.14, 0.399510
2248.12, 0.400208
2249.09, 0.400807
2250.07, 0.401405
2251.04, 0.402303
2252.02, 0.403450
2253.0, 0.404796
2253.98, 0.406193
2254.96, 0.407439
2255.94, 0.409235
2256.92, 0.410930
2257.91, 0.412376
2258.89, 0.413723
2259.88, 0.415219
2260.86, 0.416765
2261.85, 0.418012
2262.83, 0.419159
2263.82, 0.420555
2264.81, 0.422201
2265.8, 0.423847
2266.79, 0.425293
2267.78, 0.426440
2268.78, 0.427836
2269.77, 0.429432
2270.76, 0.430479
2271.76, 0.431427
2272.75, 0.432225
2273.75, 0.433023
2274.75, 0.433621
2275.75, 0.434569
2276.75, 0.435117
2277.75, 0.435317
2278.75, 0.435566
2279.75, 0.436115
2280.75, 0.436414
2281.76, 0.436713
2282.76, 0.437012
2283.77, 0.437012
2284.77, 0.436713
2285.78, 0.436464
2286.79, 0.436613
2287.8, 0.436663
2288.81, 0.436165
2289.82, 0.435616
2290.83, 0.435217
2291.84, 0.434768
2292.86, 0.434170
2293.87, 0.433372
2294.89, 0.432823
2295.91, 0.432424
2296.92, 0.432025
2297.94, 0.431577
2298.96, 0.431227
2299.98, 0.431327
2301.0, 0.431577
2302.02, 0.431726
2303.04, 0.431427
2304.07, 0.431527
2305.09, 0.431926
2306.12, 0.432125
2307.15, 0.432674
2308.17, 0.433571
2309.2, 0.434619
2310.23, 0.435367
2311.26, 0.436165
2312.29, 0.437162
2313.32, 0.438060
2314.35, 0.438409
2315.39, 0.438907
2316.42, 0.439406
2317.46, 0.439755
2318.5, 0.439905
2319.53, 0.440204
2320.57, 0.440753
2321.61, 0.441251
2322.65, 0.441750
2323.69, 0.442398
2324.73, 0.443296
2325.78, 0.444692
2326.82, 0.445989
2327.86, 0.447286
2328.91, 0.448732
2329.96, 0.450228
2331.01, 0.452023
2332.05, 0.453519
2333.1, 0.454567
2334.15, 0.455514
2335.21, 0.456362
2336.26, 0.456861
2337.31, 0.457260
2338.36, 0.457210
2339.42, 0.457060
2340.48, 0.456412
2341.53, 0.455863
2342.59, 0.455514
2343.65, 0.455115
2344.71, 0.454168
2345.77, 0.453170
2346.83, 0.451973
2347.9, 0.450328
2348.96, 0.448682
2350.02, 0.447435
2351.09, 0.446139
2352.16, 0.444842
2353.23, 0.443994
2354.29, 0.443545
2355.36, 0.443495
2356.43, 0.443146
2357.51, 0.442947
2358.58, 0.443346
2359.65, 0.443695
2360.73, 0.444144
2361.8, 0.444094
2362.88, 0.444144
2363.96, 0.443894
2365.03, 0.443396
2366.11, 0.443296
2367.19, 0.443146
2368.27, 0.442947
2369.36, 0.442498
2370.44, 0.441551
2371.53, 0.440802
2372.61, 0.440154
2373.7, 0.439107
2374.78, 0.438060
2375.87, 0.437411
2376.96, 0.436414
2378.05, 0.435167
2379.14, 0.433721
2380.24, 0.432424
2381.33, 0.431078
2382.42, 0.429482
2383.52, 0.427437
2384.61, 0.425492
2385.71, 0.423547
2386.81, 0.421602
2387.91, 0.419308
2389.01, 0.417314
2390.11, 0.415319
2391.22, 0.413274
2392.32, 0.411279
2393.42, 0.409334
2394.53, 0.407439
2395.64, 0.405095
2396.74, 0.402602
2397.85, 0.400507
2398.96, 0.398114
2400.07, 0.395171
2401.18, 0.392329
2402.3, 0.389636
2403.41, 0.386993
2404.52, 0.384100
2405.64, 0.380958
2406.76, 0.377767
2407.88, 0.374425
2408.99, 0.370785
2410.11, 0.367194
2411.23, 0.363504
2412.36, 0.359514
2413.48, 0.355325
2414.6, 0.351286
2415.73, 0.347944
2416.85, 0.344653
2417.98, 0.342209
2419.11, 0.339915
2420.24, 0.337571
2421.37, 0.335227
2422.5, 0.332584
2423.64, 0.329742
2424.77, 0.326749
2425.9, 0.323857
2427.04, 0.321164
2428.18, 0.318321
2429.31, 0.315928
2430.45, 0.313833
2431.59, 0.312187
2432.73, 0.311090
2433.88, 0.310192
2435.02, 0.309145
2436.16, 0.308198
2437.31, 0.307001
2438.45, 0.305505
2439.6, 0.304009
2440.75, 0.302064
2441.9, 0.299421
2443.05, 0.296777
2444.2, 0.294334
2445.35, 0.291192
2446.51, 0.287901
2447.67, 0.284609
2448.82, 0.281268
2449.98, 0.278026
2451.14, 0.274485
2452.3, 0.271194
2453.46, 0.268351
2454.62, 0.266008
2455.78, 0.264112
2456.94, 0.262866
2458.11, 0.262068
2459.28, 0.261419
2460.44, 0.261320
2461.61, 0.261818
2462.78, 0.262566
2463.95, 0.263813
2465.12, 0.265708
2466.3, 0.268102
2467.47, 0.270945
2468.65, 0.274785
2469.82, 0.279074
2471.0, 0.283662
2472.18, 0.288250
2473.36, 0.292788
2474.54, 0.296927
2475.72, 0.301016
2476.9, 0.304707
2478.08, 0.307898
2479.27, 0.310591
2480.46, 0.313185
2481.64, 0.315628
2482.83, 0.317673
2484.02, 0.319768
2485.21, 0.322111
2486.4, 0.324705
2487.6, 0.327398
2488.79, 0.329891
2489.99, 0.332385
2491.18, 0.334778
2492.38, 0.337222
2493.58, 0.339466
2494.78, 0.341212
2495.98, 0.343306
2497.18, 0.345401
2498.39, 0.346847
2499.59, 0.348144
2500.8, 0.349540
2502.01, 0.351086
2503.21, 0.352582
2504.42, 0.354178
2505.63, 0.355923
2506.84, 0.358068
2508.06, 0.360462
2509.27, 0.362706
2510.49, 0.364451
2511.7, 0.366247
2512.92, 0.367693
2514.14, 0.368890
2515.36, 0.369737
2516.58, 0.370585
2517.8, 0.371283
2519.03, 0.372181
2520.25, 0.373179
2521.48, 0.374176
2522.7, 0.374725
2523.93, 0.375522
2525.16, 0.376669
2526.39, 0.378166
2527.62, 0.379562
2528.86, 0.381158
2530.09, 0.382105
2531.33, 0.382504
2532.56, 0.383053
2533.8, 0.384200
2535.04, 0.384449
2536.28, 0.384399
2537.52, 0.385297
2538.76, 0.385746
2540.01, 0.385347
2541.25, 0.384300
2542.5, 0.382504
2543.75, 0.382355
2544.99, 0.382803
2546.24, 0.382405
2547.49, 0.381357
2548.75, 0.381856
2550.0, 0.381806
2551.26, 0.381108
2552.51, 0.381008
2553.77, 0.382853
2555.03, 0.384848
2556.29, 0.385546
2557.55, 0.385995
2558.81, 0.385696
2560.08, 0.382853
2561.34, 0.380011
2562.61, 0.379861
2563.88, 0.380360
2565.14, 0.382305
2566.41, 0.384649
2567.68, 0.383502
2568.96, 0.379811
2570.23, 0.379163
2571.51, 0.379911
2572.78, 0.375473
2574.06, 0.375123
2575.34, 0.375971
2576.62, 0.373927
2577.9, 0.375323
2579.18, 0.376420
2580.47, 0.373627
2581.75, 0.372480
2583.04, 0.368740
2584.32, 0.367992
2585.61, 0.371134
2586.9, 0.369688
2588.2, 0.370386
2589.49, 0.372131
2590.78, 0.373777
2592.08, 0.372829
2593.37, 0.363354
2594.67, 0.353979
2595.97, 0.361260
2597.27, 0.370585
2598.57, 0.374026
2599.88, 0.373428
2601.18, 0.371134
2602.49, 0.369538
2603.79, 0.366546
2605.1, 0.362357
2606.41, 0.363803
2607.72, 0.366945
2609.03, 0.367294
2610.35, 0.367793
2611.66, 0.368241
2612.98, 0.366945
2614.3, 0.366147
2615.62, 0.360960
2616.94, 0.357170
2618.26, 0.359963
2619.58, 0.356871
2620.91, 0.356223
2622.23, 0.361110
2623.56, 0.361858
2624.89, 0.359065
2626.22, 0.353929
2627.55, 0.355076
2628.88, 0.353679
2630.21, 0.348243
2631.55, 0.350837
2632.89, 0.352532
2634.22, 0.351884
2635.56, 0.352881
2636.9, 0.352283
2638.25, 0.351186
2639.59, 0.349839
2640.93, 0.347994
2642.28, 0.346448
2643.63, 0.345351
2644.98, 0.342708
2646.33, 0.341561
2647.68, 0.341860
2649.03, 0.341461
2650.39, 0.339666
2651.74, 0.336225
2653.1, 0.335227
2654.46, 0.335277
2655.82, 0.334280
2657.18, 0.334679
2658.54, 0.332185
2659.9, 0.329991
2661.27, 0.329393
2662.64, 0.328495
2664.01, 0.322161
2665.38, 0.315828
2666.74, 0.314631
2668.12, 0.317324
2669.49, 0.311389
2670.87, 0.308397
2672.24, 0.314830
2673.62, 0.314830
2675.0, 0.309744
2676.38, 0.303809
2677.76, 0.301764
2679.15, 0.299919
2680.54, 0.300518
2681.92, 0.298274
2683.31, 0.293785
2684.7, 0.290294
2686.09, 0.286754
2687.48, 0.283412
2688.88, 0.280171
2690.27, 0.276480
2691.67, 0.271294
2693.07, 0.263664
2694.47, 0.258726
2695.87, 0.256632
2697.27, 0.254787
2698.67, 0.251246
2700.08, 0.245760
2701.49, 0.240574
2702.9, 0.236983
2704.31, 0.232295
2705.72, 0.227508
2707.13, 0.222371
2708.54, 0.215988
2709.96, 0.208806
2711.38, 0.204069
2712.8, 0.202623
2714.22, 0.199082
2715.64, 0.194095
2717.06, 0.188559
2718.49, 0.182275
2719.91, 0.174346
2721.34, 0.170556
2722.77, 0.167913
2724.2, 0.162427
2725.63, 0.159834
2727.07, 0.157989
2728.5, 0.154847
2729.94, 0.150957
2731.38, 0.147017
2732.82, 0.142878
2734.26, 0.138390
2735.7, 0.135348
2737.15, 0.132505
2738.59, 0.127319
2740.04, 0.123030
2741.49, 0.121035
2742.94, 0.119838
2744.39, 0.117544
2745.84, 0.114352
2747.3, 0.111111
2748.76, 0.107720
2750.21, 0.103880
2751.67, 0.0999900
2753.14, 0.0962990
2754.6, 0.0916610
2756.06, 0.0888190
2757.53, 0.0880710
2759.0, 0.0862750
2760.46, 0.0834330
2761.94, 0.0798920
2763.41, 0.0763010
2764.88, 0.0727110
2766.36, 0.0696690
2767.83, 0.0670260
2769.31, 0.0639830
2770.79, 0.0604430
2772.27, 0.0573510
2773.76, 0.0543090
2775.24, 0.0512170
2776.73, 0.0480750
2778.22, 0.0454820
2779.71, 0.0429380
2781.2, 0.0402950
2782.69, 0.0379510
2784.18, 0.0358570
2785.68, 0.0333130
2787.18, 0.0309690
2788.68, 0.0289750
2790.18, 0.0267800
2791.68, 0.0242370
2793.19, 0.0210950
2794.69, 0.0181530
2796.2, 0.0174550
2797.71, 0.0184520
2799.22, 0.0191500
2800.73, 0.0191000
2802.24, 0.0188010
2803.76, 0.0191000
2805.28, 0.0205470
2806.8, 0.0227410
2808.32, 0.0254340
2809.84, 0.0281270
2811.36, 0.0310190
2812.89, 0.0344100
2814.42, 0.0380010
2815.94, 0.0415420
2817.48, 0.0446340
2819.01, 0.0469780
2820.54, 0.0486730
2822.08, 0.0497700
2823.61, 0.0503690
2825.15, 0.0502190
2826.69, 0.0495210
2828.23, 0.0484740
2829.78, 0.0471770
2831.32, 0.0456310
2832.87, 0.0439850
2834.42, 0.0421900
2835.97, 0.0403950
2837.52, 0.0385000
2839.08, 0.0367040
2840.63, 0.0345600
2842.19, 0.0324160
2843.75, 0.0304210
2845.31, 0.0286750
2846.87, 0.0273290
2848.44, 0.0266310
2850.0, 0.0263810
2851.57, 0.0264310
2853.14, 0.0269300
2854.71, 0.0277280
2856.28, 0.0287250
2857.86, 0.0295730
2859.43, 0.0304210
2861.01, 0.0315180
2862.59, 0.0328150
2864.17, 0.0340610
2865.76, 0.0353580
2867.34, 0.0368040
2868.93, 0.0383000
2870.52, 0.0397960
2872.11, 0.0410430
2873.7, 0.0421900
2875.29, 0.0429380
2876.89, 0.0432370
2878.49, 0.0433870
2880.08, 0.0431880
2881.69, 0.0428880
2883.29, 0.0427890
2884.89, 0.0426890
2886.5, 0.0426390
2888.11, 0.0429880
2889.72, 0.0434370
2891.33, 0.0441350
2892.94, 0.0450330
2894.56, 0.0460800
2896.17, 0.0471270
2897.79, 0.0479750
2899.42, 0.0485740
2901.04, 0.0489730
2902.66, 0.0490720
2904.29, 0.0488230
2905.92, 0.0480750
2907.55, 0.0469280
2909.18, 0.0451820
2910.81, 0.0432370
2912.45, 0.0410430
2914.08, 0.0386000
2915.72, 0.0355570
2917.36, 0.0322160
2919.01, 0.0290740
2920.65, 0.0264310
2922.3, 0.0241870
2923.94, 0.0224910
2925.59, 0.0212950
2927.25, 0.0203970
2928.9, 0.0198980
2930.56, 0.0196490
2932.21, 0.0194990
2933.87, 0.0196990
2935.53, 0.0203970
2937.2, 0.0214440
2938.86, 0.0226910
2940.53, 0.0239380
2942.2, 0.0250850
2943.87, 0.0261320
2945.54, 0.0275780
2947.22, 0.0291240
2948.89, 0.0310690
2950.57, 0.0334630
2952.25, 0.0362060
2953.93, 0.0391980
2955.62, 0.0421900
2957.3, 0.0450830
2958.99, 0.0476760
2960.68, 0.0501690
2962.37, 0.0525130
2964.07, 0.0544080
2965.76, 0.0560540
2967.46, 0.0577500
2969.16, 0.0592460
2970.86, 0.0602430
2972.56, 0.0611910
2974.27, 0.0619890
2975.98, 0.0626370
2977.69, 0.0630360
2979.4, 0.0634350
2981.11, 0.0637340
2982.83, 0.0639830
2984.54, 0.0638340
2986.26, 0.0636840
2987.98, 0.0637840
2989.71, 0.0637340
2991.43, 0.0636840
2993.16, 0.0635840
2994.89, 0.0634350
2996.62, 0.0633850
2998.35, 0.0631860
3000.09, 0.0631360
3001.83, 0.0630860
3003.57, 0.0628860
3005.31, 0.0627370
3007.05, 0.0627870
3008.79, 0.0629360
3010.54, 0.0630860
3012.29, 0.0630860
3014.04, 0.0629860
3015.8, 0.0629860
3017.55, 0.0631360
3019.31, 0.0632850
3021.07, 0.0631860
3022.83, 0.0630360
3024.59, 0.0630860
3026.36, 0.0632350
3028.13, 0.0631360
3029.9, 0.0629360
3031.67, 0.0629360
3033.44, 0.0629860
3035.22, 0.0629360
3037.0, 0.0629360
3038.78, 0.0629360
3040.56, 0.0628360
3042.34, 0.0627370
3044.13, 0.0625370
3045.92, 0.0623380
3047.71, 0.0620380
3049.5, 0.0617390
3051.3, 0.0613400
3053.09, 0.0609410
3054.89, 0.0603930
3056.69, 0.0598440
3058.5, 0.0591960
3060.3, 0.0584980
3062.11, 0.0578000
3063.92, 0.0569020
3065.73, 0.0558050
3067.55, 0.0546580
3069.36, 0.0535110
3071.18, 0.0522140
3073.0, 0.0509670
3074.82, 0.0497700
3076.65, 0.0485740
3078.48, 0.0472770
3080.31, 0.0459300
3082.14, 0.0446840
3083.97, 0.0435370
3085.8, 0.0424400
3087.64, 0.0414420
3089.48, 0.0406440
3091.33, 0.0398960
3093.17, 0.0391480
3095.02, 0.0384500
3096.87, 0.0379010
3098.72, 0.0375020
3100.57, 0.0372530
3102.43, 0.0372530
3104.28, 0.0373530
3106.14, 0.0374530
3108.01, 0.0378020
3109.87, 0.0383500
3111.74, 0.0389490
3113.61, 0.0396970
3115.48, 0.0406440
3117.35, 0.0416420
3119.23, 0.0427390
3121.1, 0.0439850
3122.98, 0.0453320
3124.87, 0.0468780
3126.75, 0.0485740
3128.64, 0.0502190
3130.53, 0.0520640
3132.42, 0.0539100
3134.31, 0.0558550
3136.21, 0.0578000
3138.11, 0.0597940
3140.01, 0.0619390
3141.91, 0.0641830
3143.82, 0.0663770
3145.73, 0.0685220
3147.64, 0.0708660
3149.55, 0.0731100
3151.46, 0.0752540
3153.38, 0.0773490
3155.3, 0.0793930
3157.22, 0.0813880
3159.14, 0.0834330
3161.07, 0.0853780
3163.0, 0.0871730
3164.93, 0.0889190
3166.86, 0.0906140
3168.8, 0.0922600
3170.74, 0.0938560
3172.68, 0.0952520
3174.62, 0.0965990
3176.56, 0.0978950
3178.51, 0.0989420
3180.46, 0.100040
3182.42, 0.101137
3184.37, 0.102134
3186.33, 0.103032
3188.29, 0.103880
3190.25, 0.104677
3192.21, 0.105426
3194.18, 0.106223
3196.15, 0.106822
3198.12, 0.107370
3200.09, 0.108019
3202.07, 0.108567
3204.05, 0.109216
3206.03, 0.109914
3208.02, 0.110512
3210.0, 0.111061
3211.99, 0.111709
3213.98, 0.112557
3215.98, 0.113255
3217.97, 0.113854
3219.97, 0.114652
3221.97, 0.115400
3223.98, 0.116198
3225.98, 0.117095
3227.99, 0.117993
3230.0, 0.118990
3232.02, 0.119888
3234.03, 0.120985
3236.05, 0.122032
3238.07, 0.123030
3240.1, 0.124027
3242.12, 0.125025
3244.15, 0.125972
3246.18, 0.127019
3248.22, 0.128166
3250.25, 0.129363
3252.29, 0.130311
3254.33, 0.131208
3256.38, 0.131956
3258.43, 0.132705
3260.47, 0.133552
3262.53, 0.134300
3264.58, 0.135048
3266.64, 0.135946
3268.7, 0.136694
3270.76, 0.137542
3272.82, 0.138340
3274.89, 0.139088
3276.96, 0.139936
3279.04, 0.140833
3281.11, 0.141681
3283.19, 0.142529
3285.27, 0.143526
3287.35, 0.144474
3289.44, 0.145322
3291.53, 0.146219
3293.62, 0.147067
3295.71, 0.147915
3297.81, 0.148763
3299.91, 0.149660
3302.01, 0.150608
3304.11, 0.151555
3306.22, 0.152453
3308.33, 0.153351
3310.44, 0.154199
3312.56, 0.155096
3314.68, 0.155994
3316.8, 0.157041
3318.92, 0.158188
3321.05, 0.159285
3323.18, 0.160333
3325.31, 0.161430
3327.44, 0.162427
3329.58, 0.163474
3331.72, 0.164522
3333.86, 0.165619
3336.01, 0.166716
3338.16, 0.167813
3340.31, 0.169010
3342.46, 0.170257
3344.61, 0.171504
3346.77, 0.172551
3348.94, 0.173548
3351.1, 0.174645
3353.27, 0.175842
3355.44, 0.177089
3357.61, 0.178386
3359.79, 0.179632
3361.97, 0.180829
3364.15, 0.182076
3366.33, 0.183373
3368.52, 0.184570
3370.71, 0.185717
3372.9, 0.186963
3375.1, 0.188110
3377.3, 0.189307
3379.5, 0.190554
3381.71, 0.191651
3383.91, 0.192648
3386.12, 0.193646
3388.34, 0.194743
3390.55, 0.195940
3392.77, 0.196937
3394.99, 0.197885
3397.22, 0.198882
3399.45, 0.199930
3401.68, 0.200877
3403.91, 0.201825
3406.15, 0.202772
3408.39, 0.203720
3410.63, 0.204767
3412.87, 0.205665
3415.12, 0.206512
3417.37, 0.207510
3419.63, 0.208557
3421.88, 0.209455
3424.14, 0.210352
3426.41, 0.211350
3428.67, 0.212247
3430.94, 0.213195
3433.21, 0.214093
3435.49, 0.214940
3437.77, 0.215738
3440.05, 0.216536
3442.33, 0.217234
3444.62, 0.217933
3446.91, 0.218780
3449.2, 0.219628
3451.5, 0.220526
3453.8, 0.221623
3456.1, 0.222970
3458.41, 0.224516
3460.72, 0.226161
3463.03, 0.227807
3465.34, 0.229403
3467.66, 0.231148
3469.98, 0.232794
3472.31, 0.234440
3474.63, 0.236036
3476.96, 0.237332
3479.3, 0.238629
3481.64, 0.239776
3483.97, 0.240773
3486.32, 0.241671
3488.66, 0.242569
3491.01, 0.243516
3493.36, 0.244464
3495.72, 0.245361
3498.08, 0.246259
3500.44, 0.247007
3502.81, 0.247805
3505.18, 0.248403
3507.55, 0.248703
3509.92, 0.249102
3512.3, 0.249650
3514.68, 0.250049
3517.06, 0.250298
3519.45, 0.250348
3521.84, 0.250049
3524.24, 0.249750
3526.64, 0.249401
3529.04, 0.249052
3531.44, 0.248752
3533.85, 0.248403
3536.26, 0.248054
3538.67, 0.247755
3541.09, 0.247805
3543.51, 0.247855
3545.93, 0.248054
3548.36, 0.248403
3550.79, 0.249002
3553.22, 0.249750
3555.66, 0.250598
3558.1, 0.251445
3560.54, 0.252443
3562.99, 0.253590
3565.44, 0.254787
3567.9, 0.255884
3570.35, 0.256682
3572.81, 0.257230
3575.28, 0.257579
3577.75, 0.257530
3580.22, 0.257081
3582.69, 0.256383
3585.17, 0.255435
3587.65, 0.254138
3590.14, 0.252892
3592.62, 0.251645
3595.11, 0.250498
3597.61, 0.249550
3600.11, 0.248653
3602.61, 0.247955
3605.11, 0.247556
3607.62, 0.247356
3610.14, 0.247506
3612.65, 0.247855
3615.17, 0.248503
3617.69, 0.249351
3620.22, 0.250298
3622.75, 0.251296
3625.28, 0.252343
3627.82, 0.253291
3630.36, 0.254039
3632.9, 0.254587
3635.45, 0.255036
3638.0, 0.255285
3640.56, 0.255485
3643.12, 0.255635
3645.68, 0.255884
3648.24, 0.256283
3650.81, 0.256881
3653.39, 0.257679
3655.96, 0.258876
3658.54, 0.260622
3661.13, 0.262616
3663.71, 0.264661
3666.3, 0.266805
3668.9, 0.268950
3671.5, 0.270995
3674.1, 0.272541
3676.7, 0.274086
3679.31, 0.275682
3681.93, 0.277079
3684.54, 0.278625
3687.17, 0.280270
3689.79, 0.281916
3692.42, 0.283562
3695.05, 0.285357
3697.69, 0.287202
3700.32, 0.288848
3702.97, 0.290494
3705.61, 0.292140
3708.27, 0.293436
3710.92, 0.294483
3713.58, 0.295381
3716.24, 0.296029
3718.91, 0.296678
3721.58, 0.297326
3724.25, 0.297924
3726.93, 0.298722
3729.61, 0.299919
3732.29, 0.301266
3734.98, 0.302612
3737.67, 0.304108
3740.37, 0.305455
3743.07, 0.306602
3745.78, 0.307499
3748.49, 0.308198
3751.2, 0.308647
3753.91, 0.308946
3756.63, 0.309145
3759.36, 0.309345
3762.09, 0.309444
3764.82, 0.309345
3767.55, 0.309245
3770.29, 0.309095
3773.04, 0.308846
3775.78, 0.308647
3778.54, 0.308547
3781.29, 0.308547
3784.05, 0.308497
3786.82, 0.308647
3789.59, 0.308996
3792.36, 0.309395
3795.13, 0.309893
3797.92, 0.310242
3800.7, 0.310342
3803.49, 0.310641
3806.28, 0.311439
3809.08, 0.312237
3811.88, 0.312686
3814.68, 0.312885
3817.49, 0.312836
3820.31, 0.312686
3823.12, 0.312636
3825.94, 0.312536
3828.77, 0.312387
3831.6, 0.312137
3834.43, 0.311888
3837.27, 0.311639
3840.11, 0.311389
3842.96, 0.311040
3845.81, 0.310591
3848.67, 0.310043
3851.53, 0.309494
3854.39, 0.308896
3857.26, 0.308198
3860.13, 0.307599
3863.01, 0.307150
3865.89, 0.306851
3868.77, 0.306702
3871.66, 0.306552
3874.55, 0.306402
3877.45, 0.306153
3880.35, 0.305804
3883.26, 0.305355
3886.17, 0.304807
3889.09, 0.304358
3892.01, 0.304058
3894.93, 0.303659
3897.86, 0.303261
3900.79, 0.302812
3903.73, 0.302463
3906.67, 0.302163
3909.62, 0.301814
3912.57, 0.301465
3915.52, 0.301266
3918.48, 0.301016
3921.45, 0.300717
3924.42, 0.300368
3927.39, 0.300019
3930.37, 0.299620
3933.35, 0.299221
3936.34, 0.298822
3939.33, 0.298274
3942.32, 0.297575
3945.32, 0.296877
3948.33, 0.296079
3951.34, 0.295082
3954.35, 0.293835
3957.37, 0.292638
3960.39, 0.291591
3963.42, 0.290943
3966.45, 0.290444
3969.49, 0.289696
3972.53, 0.288748
3975.58, 0.287701
3978.63, 0.286604
3981.68, 0.285357
3984.75, 0.283911
3987.81, 0.282415
3990.88, 0.280769
3993.95, 0.279024
3997.03, 0.277278
4000.12, 0.275433
4003.21, 0.273638
4006.3, 0.271643
4009.4, 0.269648
4012.5, 0.267603
4015.61, 0.265509
4018.72, 0.263414
4021.84, 0.261270
4024.96, 0.259225
4028.09, 0.257031
4031.22, 0.254787
4034.36, 0.252543
4037.5, 0.250298
4040.65, 0.247905
4043.8, 0.245511
4046.96, 0.243167
4050.12, 0.240923
4053.29, 0.238629
4056.46, 0.236285
4059.64, 0.233841
4062.82, 0.231647
4066.0, 0.229453
4069.19, 0.227209
4072.39, 0.224914
4075.59, 0.222720
4078.8, 0.220626
4082.01, 0.218531
4085.23, 0.216486
4088.45, 0.214691
4091.68, 0.212946
4094.91, 0.211200
4098.15, 0.209604
4101.39, 0.208058
4104.63, 0.206662
4107.89, 0.205316
4111.14, 0.204119
4114.41, 0.203071
4117.67, 0.202024
4120.95, 0.201176
4124.23, 0.200378
4127.51, 0.199580
4130.8, 0.198932
4134.09, 0.198334
4137.39, 0.197785
4140.7, 0.197386
4144.01, 0.197137
4147.32, 0.196937
4150.64, 0.196688
4153.97, 0.196638
4157.3, 0.196738
4160.64, 0.196788
4163.98, 0.197037
4167.33, 0.197336
4170.68, 0.197785
4174.04, 0.198334
4177.4, 0.198932
4180.77, 0.199680
4184.14, 0.200428
4187.52, 0.201226
4190.91, 0.202174
4194.3, 0.203071
4197.69, 0.203869
4201.1, 0.204667
4204.5, 0.205166
4207.92, 0.205415
4211.34, 0.205714
4214.76, 0.205864
4218.19, 0.206014
4221.62, 0.205964
4225.06, 0.205914
4228.51, 0.206014
4231.96, 0.206113
4235.42, 0.206163
4238.88, 0.206313
4242.35, 0.206612
4245.83, 0.206911
4249.31, 0.207260
4252.79, 0.207659
4256.28, 0.207610
4259.78, 0.206861
4263.29, 0.205864
4266.79, 0.204917
4270.31, 0.204019
4273.83, 0.203121
4277.35, 0.202423
4280.89, 0.201825
4284.42, 0.201226
4287.97, 0.200578
4291.52, 0.199930
4295.07, 0.199381
4298.63, 0.198982
4302.2, 0.198533
4305.78, 0.198034
4309.35, 0.197486
4312.94, 0.196937
4316.53, 0.196489
4320.13, 0.195990
4323.73, 0.195441
4327.34, 0.195042
4330.96, 0.194743
4334.58, 0.194344
4338.21, 0.193995
4341.84, 0.193696
4345.48, 0.193446
4349.12, 0.193147
4352.77, 0.192848
4356.43, 0.192798
4360.1, 0.192698
4363.76, 0.192449
4367.44, 0.192200
4371.12, 0.192150
4374.81, 0.192100
4378.51, 0.192100
4382.21, 0.192100
4385.92, 0.192000
4389.63, 0.191851
4393.35, 0.191551
4397.08, 0.191352
4400.81, 0.191202
4404.55, 0.190903
4408.29, 0.190654
4412.04, 0.190404
4415.8, 0.190255
4419.57, 0.190155
4423.34, 0.190005
4427.12, 0.189906
4430.9, 0.189856
4434.69, 0.189856
4438.49, 0.189756
4442.29, 0.189706
4446.1, 0.189706
4449.92, 0.189606
4453.74, 0.189507
4457.57, 0.189457
4461.41, 0.189606
4465.25, 0.189606
4469.1, 0.189756
4472.95, 0.190005
4476.82, 0.190205
4480.69, 0.190504
4484.56, 0.190853
4488.44, 0.191103
4492.33, 0.191352
4496.23, 0.191651
4500.13, 0.191950
4504.04, 0.192150
4507.96, 0.192299
4511.88, 0.192449
4515.81, 0.192648
4519.75, 0.192798
4523.69, 0.192848
4527.65, 0.192898
4531.6, 0.192998
4535.57, 0.193097
4539.54, 0.193297
4543.52, 0.193446
4547.5, 0.193446
4551.5, 0.193446
4555.5, 0.193496
4559.5, 0.193496
4563.52, 0.193446
4567.54, 0.193297
4571.56, 0.193147
4575.6, 0.192798
4579.64, 0.192449
4583.69, 0.192050
4587.75, 0.191701
4591.81, 0.191252
4595.88, 0.190803
4599.96, 0.190255
4604.04, 0.189756
4608.14, 0.189257
4612.24, 0.188908
4616.34, 0.188559
4620.46, 0.188210
4624.58, 0.187811
4628.71, 0.187462
4632.84, 0.187263
4636.99, 0.187063
4641.14, 0.186913
4645.3, 0.186963
4649.47, 0.186913
4653.64, 0.186864
4657.82, 0.186913
4662.01, 0.187013
4666.21, 0.187013
4670.41, 0.187013
4674.62, 0.186913
4678.84, 0.186864
4683.07, 0.186714
4687.3, 0.186415
4691.54, 0.186016
4695.79, 0.185617
4700.05, 0.185168
4704.31, 0.184669
4708.59, 0.184071
4712.87, 0.183472
4717.15, 0.182874
4721.45, 0.182325
4725.76, 0.181627
4730.07, 0.180979
4734.39, 0.180480
4738.72, 0.179932
4743.05, 0.179333
4747.39, 0.178934
4751.75, 0.178635
4756.1, 0.178236
4760.47, 0.177837
4764.85, 0.177538
4769.23, 0.177388
4773.62, 0.177189
4778.02, 0.176890
4782.43, 0.176640
4786.85, 0.176441
4791.27, 0.176241
4795.7, 0.176141
4800.14, 0.175942
4804.59, 0.175643
4809.05, 0.175344
4813.51, 0.174945
4817.99, 0.174546
4822.47, 0.174147
4826.96, 0.173748
4831.46, 0.173349
4835.96, 0.172850
4840.48, 0.172451
4845.0, 0.172252
4849.54, 0.172152
4854.08, 0.171952
4858.63, 0.171703
4863.18, 0.171603
4867.75, 0.171504
4872.33, 0.171304
4876.91, 0.171154
4881.5, 0.171005
4886.1, 0.170805
4890.71, 0.170606
4895.33, 0.170207
4899.96, 0.169858
4904.59, 0.169608
4909.24, 0.169309
4913.89, 0.168910
4918.55, 0.168611
4923.22, 0.168362
4927.9, 0.168062
4932.59, 0.167813
4937.29, 0.167614
4942.0, 0.167414
4946.71, 0.167165
4951.44, 0.166965
4956.17, 0.166716
4960.91, 0.166666
4965.67, 0.166716
4970.43, 0.166566
4975.2, 0.166417
4979.98, 0.166267
4984.76, 0.166267
4989.56, 0.166068
4994.37, 0.165818
4999.18, 0.165519
5004.01, 0.165220
5008.84, 0.164821
5013.69, 0.164422
5018.54, 0.163824
5023.4, 0.163425
5028.28, 0.163125
5033.16, 0.162726
5038.05, 0.162228
5042.95, 0.161679
5047.86, 0.161230
5052.78, 0.160781
5057.71, 0.160233
5062.65, 0.159684
5067.6, 0.159235
5072.56, 0.158737
5077.53, 0.158088
5082.5, 0.157291
5087.49, 0.156742
5092.49, 0.156343
5097.5, 0.155844
5102.51, 0.155246
5107.54, 0.154448
5112.58, 0.153849
5117.62, 0.153251
5122.68, 0.152553
5127.75, 0.151805
5132.82, 0.150907
5137.91, 0.150109
5143.01, 0.149162
5148.12, 0.148264
5153.23, 0.147965
5158.36, 0.147416
5163.5, 0.146668
5168.65, 0.146070
5173.81, 0.145671
5178.98, 0.145272
5184.15, 0.144873
5189.34, 0.144424
5194.54, 0.143925
5199.75, 0.143377
5204.98, 0.143227
5210.21, 0.142629
5215.45, 0.142329
5220.7, 0.142629
5225.96, 0.142479
5231.23, 0.142030
5236.52, 0.141432
5241.81, 0.141282
5247.12, 0.141083
5252.44, 0.140784
5257.76, 0.140434
5263.1, 0.140085
5268.45, 0.139686
5273.81, 0.139287
5279.18, 0.139088
5284.56, 0.138839
5289.95, 0.138340
5295.36, 0.138440
5300.77, 0.138689
5306.2, 0.138689
5311.63, 0.138589
5317.08, 0.138539
5322.54, 0.138489
5328.01, 0.138489
5333.49, 0.138340
5338.98, 0.138041
5344.49, 0.137093
5350.0, 0.136046
5355.53, 0.136245
5361.07, 0.136445
5366.62, 0.136195
5372.18, 0.135697
5377.75, 0.135248
5383.34, 0.134749
5388.93, 0.134400
5394.54, 0.134001
5400.16, 0.133602
5405.79, 0.133104
5411.44, 0.132605
5417.09, 0.131508
5422.76, 0.130610
5428.43, 0.131807
5434.12, 0.132455
5439.83, 0.132306
5445.54, 0.132206
5451.26, 0.132156
5457.0, 0.131807
5462.75, 0.130859
5468.52, 0.130959
5474.29, 0.131109
5480.08, 0.130859
5485.88, 0.131208
5491.69, 0.131208
5497.51, 0.130909
5503.35, 0.130411
5509.2, 0.130211
5515.06, 0.129712
5520.93, 0.129114
5526.82, 0.128815
5532.71, 0.128765
5538.63, 0.128515
5544.55, 0.127917
5550.49, 0.127069
5556.44, 0.126770
5562.4, 0.126870
5568.37, 0.126521
5574.36, 0.125074
5580.36, 0.124227
5586.37, 0.125124
5592.4, 0.125374
5598.44, 0.124576
5604.49, 0.123927
5610.56, 0.123528
5616.63, 0.122930
5622.73, 0.122731
5628.83, 0.122082
5634.95, 0.120436
5641.08, 0.118342
5647.23, 0.118591
5653.39, 0.118641
5659.56, 0.118442
5665.74, 0.118242
5671.94, 0.116646
5678.15, 0.115749
5684.38, 0.115549
5690.62, 0.114452
5696.87, 0.114003
5703.14, 0.113056
5709.42, 0.111210
5715.72, 0.110961
5722.03, 0.111310
5728.35, 0.111410
5734.69, 0.111111
5741.03, 0.110562
5747.4, 0.109914
5753.78, 0.110512
5760.17, 0.109166
5766.58, 0.107321
5773.0, 0.109465
5779.44, 0.111011
5785.88, 0.111659
5792.35, 0.112158
5798.83, 0.112258
5805.32, 0.112457
5811.83, 0.111809
5818.35, 0.109615
5824.89, 0.109216
5831.45, 0.110861
5838.01, 0.111959
5844.59, 0.112108
5851.19, 0.111510
5857.8, 0.110413
5864.43, 0.109415
5871.07, 0.108767
5877.73, 0.105126
5884.4, 0.104428
5891.09, 0.105076
5897.79, 0.104129
5904.5, 0.105924
5911.23, 0.106074
5917.98, 0.105176
5924.75, 0.104179
5931.53, 0.101187
5938.32, 0.0992920
5945.13, 0.101236
5951.96, 0.101735
5958.8, 0.101236
5965.65, 0.0992920
5972.53, 0.0985930
5979.42, 0.0984940
5986.32, 0.0969480
5993.24, 0.0964490
6000.18, 0.0968980
6007.13, 0.0958500
6014.1, 0.0945040
6021.08, 0.0943050
6028.09, 0.0938560
6035.1, 0.0924090
6042.14, 0.0884700
6049.19, 0.0847290
6056.25, 0.0867240
6063.34, 0.0872730
6070.44, 0.0850790
6077.55, 0.0845300
6084.69, 0.0849790
6091.84, 0.0842310
6099.0, 0.0830340
6106.19, 0.0807900
6113.39, 0.0784960
6120.61, 0.0790440
6127.84, 0.0795930
6135.09, 0.0787950
6142.36, 0.0778970
6149.65, 0.0773990
6156.95, 0.0766010
6164.27, 0.0764510
6171.61, 0.0768000
6178.97, 0.0756030
6186.34, 0.0746560
6193.73, 0.0757530
6201.14, 0.0761020
6208.57, 0.0757530
6216.01, 0.0755530
6223.47, 0.0753540
6230.95, 0.0750550
6238.45, 0.0745560
6245.97, 0.0741070
6253.5, 0.0736580
6261.06, 0.0730600
6268.63, 0.0725110
6276.21, 0.0720130
6283.82, 0.0714640
6291.45, 0.0708660
6299.1, 0.0702170
6306.76, 0.0695690
6314.44, 0.0689210
6322.14, 0.0681230
6329.86, 0.0672250
6337.6, 0.0654800
6345.35, 0.0639340
6353.13, 0.0644320
6360.92, 0.0639830
6368.74, 0.0624870
6376.57, 0.0620880
6384.43, 0.0617390
6392.3, 0.0608420
6400.19, 0.0595450
6408.1, 0.0566530
6416.03, 0.0549570
6423.98, 0.0558050
6431.95, 0.0558050
6439.94, 0.0553560
6447.95, 0.0548570
6455.98, 0.0542090
6464.03, 0.0533610
6472.1, 0.0519650
6480.19, 0.0505180
6488.31, 0.0486230
6496.44, 0.0478260
6504.59, 0.0484740
6512.76, 0.0481750
6520.95, 0.0468780
6529.16, 0.0464290
6537.4, 0.0456810
6545.65, 0.0444340
6553.92, 0.0430880
6562.22, 0.0418910
6570.54, 0.0401950
6578.88, 0.0392480
6587.23, 0.0383000
6595.61, 0.0372530
6604.02, 0.0360560
6612.44, 0.0345600
6620.89, 0.0329640
6629.35, 0.0308200
6637.84, 0.0287750
6646.35, 0.0281770
6654.88, 0.0273290
6663.44, 0.0257830
6672.01, 0.0240870
6680.61, 0.0225410
6689.23, 0.0213440
6697.88, 0.0201480
6706.54, 0.0186510
6715.23, 0.0174050
6723.94, 0.0162580
6732.67, 0.0152600
6741.42, 0.0141630
6750.2, 0.0132160
6759.0, 0.0124680
6767.82, 0.0118190
6776.67, 0.0113210
6785.54, 0.0109220
6794.44, 0.0109220
6803.35, 0.0111210
6812.29, 0.0110710
6821.26, 0.0108720
6830.24, 0.0105720
6839.25, 0.0104730
6848.29, 0.0102230
6857.35, 0.0100740
6866.43, 0.0101240
6875.54, 0.0103230
6884.67, 0.0100240
6893.82, 0.00947500
6903.0, 0.00872700
6912.2, 0.00817900
6921.43, 0.00807900
6930.69, 0.00847800
6939.96, 0.00897700
6949.27, 0.00927600
6958.59, 0.00912600
6967.95, 0.00902700
6977.33, 0.00887700
6986.73, 0.00897700
6996.16, 0.00992400
7005.61, 0.0118690
7015.09, 0.0143630
7024.6, 0.0170560
7034.13, 0.0190010
7043.69, 0.0199480
7053.27, 0.0203970
7062.88, 0.0201970
7072.52, 0.0195990
7082.18, 0.0188510
7091.87, 0.0182030
7101.58, 0.0178040
7111.32, 0.0176040
7121.09, 0.0174550
7130.88, 0.0173050
7140.71, 0.0172050
7150.56, 0.0171050
7160.43, 0.0173550
7170.33, 0.0178040
7180.27, 0.0183520
7190.23, 0.0185020
7200.21, 0.0184020
7210.23, 0.0184020
7220.27, 0.0184520
7230.34, 0.0185020
7240.44, 0.0187510
7250.56, 0.0192500
7260.72, 0.0201970
7270.9, 0.0217430
7281.12, 0.0241370
7291.36, 0.0272790
7301.63, 0.0307200
7311.93, 0.0337620
7322.25, 0.0364050
7332.61, 0.0390480
7343.0, 0.0424400
7353.41, 0.0463790
7363.86, 0.0505180
7374.33, 0.0548570
7384.83, 0.0594450
7395.37, 0.0639340
7405.93, 0.0678730
7416.53, 0.0711650
7427.15, 0.0738080
7437.81, 0.0758030
7448.5, 0.0770990
7459.22, 0.0775480
7469.96, 0.0773490
7480.74, 0.0767000
7491.55, 0.0753540
7502.39, 0.0733090
7513.27, 0.0706660
7524.17, 0.0676240
7535.11, 0.0640330
7546.08, 0.0600440
7557.08, 0.0556550
7568.11, 0.0510170
7579.17, 0.0463790
7590.27, 0.0423900
7601.4, 0.0394970
7612.56, 0.0376520
7623.76, 0.0366550
7634.98, 0.0360060
7646.24, 0.0354080
7657.54, 0.0349090
7668.87, 0.0344100
7680.23, 0.0338120
7691.62, 0.0331140
7703.05, 0.0322160
7714.51, 0.0312190
7726.01, 0.0299720
7737.54, 0.0287250
7749.11, 0.0273790
7760.71, 0.0260320
7772.35, 0.0247850
7784.02, 0.0235390
7795.72, 0.0222920
7807.46, 0.0210950
7819.23, 0.0199480
7831.04, 0.0187510
7842.89, 0.0176540
7854.77, 0.0167070
7866.69, 0.0158590
7878.65, 0.0151610
7890.64, 0.0144620
7902.67, 0.0139140
7914.74, 0.0135650
7926.84, 0.0133150
7938.98, 0.0132160
7951.16, 0.0132160
7963.37, 0.0134150
7975.62, 0.0139140
7987.91, 0.0145120
8000.24, 0.0153100
8012.6, 0.0160580
8025.01, 0.0169060
8037.45, 0.0178040
8049.93, 0.0187510
8062.45, 0.0196490
8075.01, 0.0204970
8087.61, 0.0211950
8100.24, 0.0217930
8112.91, 0.0222420
8125.63, 0.0225410
8138.39, 0.0227410
8151.18, 0.0226910
8164.02, 0.0224420
8176.9, 0.0221920
8189.81, 0.0217430
8202.77, 0.0210450
8215.77, 0.0203470
8228.82, 0.0197980
8241.9, 0.0193000
8255.02, 0.0188510
8268.19, 0.0183020
8281.39, 0.0178040
8294.65, 0.0176040
8307.94, 0.0174050
8321.28, 0.0171550
8334.66, 0.0169060
8348.08, 0.0164570
8361.54, 0.0159090
8375.05, 0.0152600
8388.6, 0.0146120
8402.2, 0.0140630
8415.84, 0.0137140
8429.52, 0.0135650
8443.25, 0.0137640
8457.02, 0.0142630
8470.84, 0.0150610
8484.7, 0.0161580
8498.61, 0.0175540
8512.57, 0.0192500
8526.57, 0.0212950
8540.62, 0.0236880
8554.71, 0.0261820
8568.85, 0.0288750
8583.04, 0.0317670
8597.27, 0.0348090
8611.55, 0.0379510
8625.88, 0.0410930
8640.26, 0.0440850
8654.68, 0.0468280
8669.16, 0.0494210
8683.68, 0.0517150
8698.25, 0.0536600
8712.87, 0.0551560
8727.53, 0.0562040
8742.25, 0.0570510
8757.02, 0.0576000
8771.83, 0.0578990
8786.7, 0.0579990
8801.62, 0.0578990
8816.59, 0.0576500
8831.61, 0.0573010
8846.68, 0.0569020
8861.8, 0.0565030
8876.97, 0.0564530
8892.2, 0.0566030
8907.48, 0.0569020
8922.81, 0.0576000
8938.2, 0.0586470
8953.63, 0.0601430
8969.13, 0.0618390
8984.67, 0.0637340
9000.27, 0.0659780
9015.92, 0.0684720
9031.63, 0.0709650
9047.39, 0.0736580
9063.21, 0.0766010
9079.08, 0.0797920
9095.01, 0.0827840
9111.0, 0.0856770
9127.04, 0.0884700
9143.13, 0.0912620
9159.28, 0.0941050
9175.49, 0.0969970
9191.76, 0.100089
9208.09, 0.103431
9224.47, 0.106872
9240.92, 0.110113
9257.42, 0.112906
9273.98, 0.114851
9290.6, 0.115948
9307.28, 0.116148
9324.02, 0.115549
9340.82, 0.114402
9357.68, 0.112806
9374.6, 0.111111
9391.58, 0.109714
9408.62, 0.108667
9425.73, 0.107869
9442.9, 0.107819
9460.13, 0.108468
9477.42, 0.109864
9494.78, 0.111759
9512.2, 0.114053
9529.69, 0.116198
9547.24, 0.117694
9564.86, 0.118292
9582.54, 0.118043
9600.28, 0.116946
9618.1, 0.115100
9635.97, 0.112756
9653.92, 0.110313
9671.93, 0.108268
9690.01, 0.106972
9708.16, 0.106124
9726.37, 0.106024
9744.65, 0.106373
9763.0, 0.106872
9781.43, 0.107121
9799.92, 0.107121
9818.48, 0.106722
9837.1, 0.105874
9855.8, 0.104378
9874.58, 0.102284
9893.42, 0.0999900
9912.34, 0.0978450
9931.33, 0.0961500
9950.39, 0.0946540
9969.52, 0.0929580
9988.74, 0.0911130
10008.0, 0.0892180
10027.4, 0.0868740
10046.8, 0.0839810
10066.3, 0.0802410
10085.9, 0.0755530
10105.6, 0.0706160
10125.3, 0.0659780
10145.1, 0.0620380
10165.0, 0.0598940
10185.0, 0.0598440
10205.0, 0.0617390
10225.2, 0.0652300
10245.4, 0.0692700
10265.7, 0.0732090
10286.0, 0.0766500
10306.5, 0.0796930
10327.0, 0.0826850
10347.6, 0.0856770
10368.3, 0.0882200
10389.1, 0.0902650
10409.9, 0.0912130
10430.9, 0.0908630
10451.9, 0.0892680
10473.0, 0.0866250
10494.2, 0.0834830
10515.5, 0.0799920
10536.9, 0.0763510
10558.4, 0.0729100
10579.9, 0.0695690
10601.5, 0.0664270
10623.3, 0.0632850
10645.1, 0.0601930
10667.0, 0.0571510
10689.0, 0.0543090
10711.1, 0.0516160
10733.2, 0.0490220
10755.5, 0.0467280
10777.9, 0.0448330
10800.3, 0.0434870
10822.9, 0.0430880
10845.5, 0.0439850
10868.2, 0.0461300
10891.1, 0.0486730
10914.0, 0.0509670
10937.0, 0.0528130
10960.2, 0.0542090
10983.4, 0.0554060
11006.7, 0.0566030
11030.1, 0.0573010
11053.6, 0.0573010
11077.3, 0.0564530
11101.0, 0.0550070
11124.8, 0.0534610
11148.7, 0.0512670
11172.7, 0.0488730
11196.9, 0.0468780
11221.1, 0.0453320
11245.4, 0.0442850
11269.9, 0.0443350
11294.4, 0.0454320
11319.1, 0.0470280
11343.9, 0.0487730
11368.8, 0.0507680
11393.7, 0.0523640
11418.8, 0.0535110
11444.0, 0.0547570
11469.4, 0.0560540
11494.8, 0.0571010
11520.3, 0.0582980
11546.0, 0.0593950
11571.8, 0.0604430
11597.7, 0.0613900
11623.7, 0.0619890
11649.8, 0.0622380
11676.0, 0.0621380
11702.4, 0.0612410
11728.9, 0.0601930
11755.5, 0.0592960
11782.2, 0.0579990
11809.0, 0.0564030
11836.0, 0.0550570
11863.0, 0.0539100
11890.3, 0.0529120
11917.6, 0.0526630
11945.0, 0.0540590
11972.6, 0.0571510
12000.4, 0.0607420
12028.2, 0.0634350
12056.2, 0.0646820
12084.3, 0.0646320
12112.5, 0.0641330
12140.9, 0.0635840
12169.4, 0.0631860
12198.0, 0.0629860
12226.8, 0.0630860
12255.7, 0.0634350
12284.7, 0.0641330
12313.9, 0.0650810
12343.2, 0.0663770
12372.7, 0.0673750
12402.3, 0.0684220
12432.0, 0.0698180
12461.9, 0.0711650
12491.9, 0.0725610
12522.1, 0.0740070
12552.4, 0.0751540
12582.9, 0.0761020
12613.5, 0.0769500
12644.3, 0.0775480
12675.2, 0.0776980
12706.3, 0.0775480
12737.5, 0.0768000
12768.9, 0.0752040
12800.4, 0.0722620
12832.1, 0.0677740
12863.9, 0.0629860
12895.9, 0.0608420
12928.1, 0.0633350
12960.4, 0.0689700
12992.9, 0.0743070
13025.5, 0.0778470
13058.3, 0.0794430
13091.3, 0.0792940
13124.4, 0.0779970
13157.8, 0.0754540
13191.2, 0.0711650
13224.9, 0.0657290
13258.7, 0.0600440
13292.7, 0.0559040
13326.9, 0.0554060
13361.2, 0.0581490
13395.7, 0.0623380
13430.4, 0.0662280
13465.3, 0.0687710
13500.4, 0.0691700
13535.7, 0.0675740
13571.1, 0.0648310
13606.7, 0.0632350
13642.5, 0.0642330
13678.5, 0.0662770
13714.7, 0.0676740
13751.1, 0.0676240
13787.6, 0.0661780
13824.4, 0.0642830
13861.4, 0.0627370
13898.5, 0.0615400
13935.9, 0.0592460
13973.5, 0.0549570
14011.2, 0.0488230
14049.2, 0.0420900
14087.4, 0.0373030
14125.8, 0.0357070
14164.3, 0.0361560
14203.2, 0.0370040
14242.2, 0.0366550
14281.4, 0.0348590
14320.9, 0.0321660
14360.5, 0.0295730
14400.4, 0.0285260
14440.5, 0.0312690
14480.9, 0.0370040
14521.4, 0.0419910
14562.2, 0.0449330
14603.3, 0.0462800
14644.5, 0.0463290
14686.0, 0.0452820
14727.7, 0.0441850
14769.7, 0.0440350
14811.9, 0.0450330
14854.3, 0.0457810
14897.0, 0.0457310
14939.9, 0.0458310
14983.1, 0.0460300
15026.5, 0.0465790
15070.2, 0.0466780
15114.2, 0.0464290
15158.3, 0.0466780
15202.8, 0.0471270
15247.5, 0.0478260
15292.5, 0.0489230
15337.7, 0.0495710
15383.2, 0.0502190
15429.0, 0.0511670
15475.1, 0.0527130
15521.4, 0.0544080
15568.0, 0.0557050
15614.9, 0.0562540
15662.1, 0.0558050
15709.6, 0.0545080
15757.3, 0.0521640
15805.4, 0.0485740
15853.7, 0.0444840
15902.3, 0.0405940
15951.2, 0.0380010
16000.5, 0.0375520
16050.0, 0.0386490
16099.8, 0.0401450
16150.0, 0.0406440
16200.5, 0.0399460
16251.3, 0.0391480
16302.4, 0.0382500
16353.8, 0.0373530
16405.5, 0.0363050
16457.6, 0.0355570
16510.0, 0.0358070
16562.8, 0.0372030
16615.9, 0.0398460
16669.3, 0.0432370
16723.1, 0.0463790
16777.2, 0.0482240
16831.7, 0.0497210
16886.5, 0.0512170
16941.7, 0.0521140
16997.2, 0.0533610
17053.1, 0.0548570
17109.4, 0.0561540
17166.1, 0.0572510
17223.1, 0.0579990
17280.5, 0.0587470
17338.3, 0.0577500
17396.5, 0.0559040
17455.1, 0.0530620
17514.0, 0.0489730
17573.4, 0.0449830
17633.2, 0.0426890
17693.4, 0.0421400
17754.0, 0.0422400
17815.0, 0.0418910
17876.4, 0.0410430
17938.3, 0.0405440
18000.5, 0.0408440
18063.3, 0.0415920
18126.4, 0.0423900
18190.0, 0.0424400
18254.1, 0.0419910
18318.6, 0.0417910
18383.5, 0.0413420
18449.0, 0.0404950
18514.9, 0.0394470
18581.2, 0.0386000
18648.0, 0.0389980
18715.4, 0.0392980
18783.2, 0.0392480
18851.5, 0.0390980
18920.3, 0.0392480
18989.6, 0.0391480
19059.4, 0.0398960
19129.7, 0.0408440
19200.6, 0.0410430
19272.0, 0.0402450
19343.9, 0.0404450
19416.3, 0.0423400
19489.3, 0.0449830
19562.8, 0.0462800
19637.0, 0.0468780
19711.6, 0.0470770
19786.8, 0.0471270
19862.6, 0.0463290
19939.0, 0.0427890
20016.0, 0.0402950
20093.6, 0.0405440
20171.8, 0.0411930
20250.6, 0.0413420
20330.0, 0.0420410
20410.0, 0.0427890
20490.7, 0.0440350
20572.0, 0.0447340
20654.0, 0.0439850
20736.6, 0.0436360
20819.9, 0.0430380
20903.8, 0.0426890
20988.5, 0.0427890
21073.8, 0.0415420
21159.8, 0.0406440
21246.5, 0.0407940
21334.0, 0.0424400
21422.1, 0.0434870
21511.0, 0.0427890
21600.7, 0.0420900
21691.0, 0.0430880
21782.1, 0.0430880
21874.0, 0.0433370
21966.7, 0.0444840
22060.2, 0.0453820
22154.5, 0.0471770
22249.6, 0.0483740
22345.5, 0.0484240
22442.2, 0.0504190
22539.8, 0.0537600
22638.2, 0.0547080
22737.5, 0.0540090
22837.7, 0.0526130
22938.7, 0.0516650
23040.7, 0.0524630
23143.5, 0.0551070
23247.3, 0.0575000
23352.1, 0.0592460
23457.7, 0.0599940
23564.4, 0.0610410
23672.0, 0.0604930
23780.5, 0.0601290
23890.1, 0.0598110
24000.7, 0.0592660
24112.3, 0.0589480
24225.0, 0.0594020
24338.7, 0.0592660
24453.5, 0.0583570
24569.4, 0.0570840
24686.4, 0.0561300
24804.5, 0.0551300
24923.8, 0.0539480
25044.2, 0.0529030
25165.8, 0.0530850
25288.6, 0.0541750
25412.5, 0.0554480
25537.7, 0.0564480
25664.1, 0.0574020
25791.8, 0.0589020
25920.8, 0.0607200
26051.1, 0.0630830
26182.6, 0.0654010
26315.5, 0.0669920
26449.8, 0.0678100
26585.4, 0.0676280
26722.5, 0.0662190
26860.9, 0.0639020
27000.8, 0.0605840
27142.1, 0.0580840
27285.0, 0.0575390
27429.4, 0.0582660
27575.3, 0.0588570
27722.7, 0.0583570
27871.8, 0.0563570
28022.4, 0.0536300
28174.7, 0.0509490
28328.7, 0.0484490
28484.4, 0.0472670
28641.7, 0.0478130
28800.9, 0.0494490
28961.8, 0.0515390
29124.5, 0.0537660
29289.0, 0.0555840
29455.4, 0.0573110
29623.8, 0.0589020
29794.0, 0.0601750
29966.3, 0.0618560
30140.5, 0.0633110
30316.7, 0.0641740
30495.1, 0.0644020
30675.5, 0.0651290
30858.1, 0.0656290
31042.8, 0.0643560
31229.8, 0.0618110
31419.1, 0.0589930
31610.7, 0.0555390
31804.6, 0.0514940
32000.9, 0.0470400
32199.7, 0.0434040
32400.9, 0.0412680
32604.8, 0.0405410
32811.1, 0.0401320
33020.1, 0.0387680
33231.8, 0.0363590
33446.2, 0.0342690
33663.4, 0.0346320
33883.4, 0.0388140
34106.3, 0.0434040
34332.1, 0.0448580
34561.0, 0.0435400
34792.9, 0.0419500
35028.0, 0.0414950
35266.3, 0.0424950
35507.8, 0.0448580
35752.7, 0.0463580
36001.0, 0.0456760
36252.8, 0.0447220
36508.1, 0.0435860
36767.0, 0.0423590
37029.7, 0.0429950
37296.1, 0.0447220
37566.3, 0.0455400
37840.5, 0.0444950
38118.8, 0.0443580
38401.2, 0.0469940
38687.8, 0.0523570
38978.6, 0.0585840
39273.9, 0.0627650
39573.7, 0.0644470
39878.1, 0.0664920
40187.3, 0.0694460
40501.2, 0.0736730
40820.0, 0.0779450
41144.0, 0.0820360
41473.2, 0.0862170
41807.6, 0.0901260
42147.5, 0.0928070
42493.0, 0.0934440
42844.2, 0.0919890
43201.2, 0.0888080
43564.3, 0.0838080
43933.5, 0.0784000
44309.0, 0.0760820
44691.0, 0.0789910
45079.6, 0.0833540
45475.0, 0.0833540
45877.5, 0.0801720
46287.1, 0.0784000
46704.2, 0.0781730
47128.7, 0.0787630
47561.1, 0.0822180
48001.5, 0.0878990
48450.1, 0.0943530
48907.2, 0.0960800
49373.0, 0.0940340
49847.7, 0.0918070
50331.5, 0.0886710
50825.0, 0.0852630
51328.2, 0.0821270
51841.5, 0.0781730
52365.1, 0.0739000
52899.4, 0.0714010
53444.8, 0.0670830
54001.5, 0.0638110
54570.1, 0.0622200
55150.6, 0.0601750
55743.6, 0.0565390
56349.5, 0.0538570
56968.7, 0.0545390
57601.7, 0.0629470
58248.9, 0.0764910
58910.9, 0.0897170
59588.1, 0.0964430
60281.0, 0.0995790
60990.2, 0.101579
61716.3, 0.100170
62459.8, 0.0975790
63221.6, 0.0984880
64002.1, 0.102397
64802.1, 0.102261
65622.1, 0.0978520
66463.4, 0.0981700
67326.6, 0.106442
68212.4, 0.113441
69121.9, 0.117986
70056.0, 0.119668
71015.7, 0.119259
72002.0, 0.114850
73016.3, 0.106033
74059.4, 0.0976250
75132.7, 0.0968980
76237.6, 0.106078
77375.5, 0.113668
78547.9, 0.114305
79756.3, 0.112532
81002.5, 0.117213
82288.5, 0.125758
83615.7, 0.127939
84986.5, 0.120395
86402.9, 0.106987
87867.4, 0.100215
89382.4, 0.103579
90950.5, 0.107124
92574.6, 0.0998970
94257.2, 0.103442
96002.7, 0.127530
97814.1, 0.113668
99695.1, 0.107078
101650.0, 0.111123
103683.0, 0.113941
105799.0, 0.118577
108003.0, 0.118986
110301.0, 0.113168
112699.0, 0.114577
115204.0, 0.112487
117822.0, 0.105806
120562.0, 0.114941
123433.0, 0.125122
126443.0, 0.123258
129604.0, 0.122349
132926.0, 0.124713
136424.0, 0.125076
140111.0, 0.123804
144003.0, 0.128167
148118.0, 0.126258
152474.0, 0.129167
157095.0, 0.137802
162004.0, 0.136484
167231.0, 0.138166
172805.0, 0.141302
178764.0, 0.129712
185148.0, 0.131166
192005.0, 0.142438
199390.0, 0.139393
207366.0, 0.165708
216006.0, 0.186933
