Database of Origin, USGS Spectral Database
Sample Description, See USGS database for additional info
Date Added,2016-08-10 05:00:18.490654

Data ID,USGS_kao09          
Sample ID, kaolinite_cm9.12017
Mineral Name, kaolinite
Material Class,Phyllosilicate

Wavelength
1350.04, 0.667581
1350.39, 0.664932
1350.74, 0.662217
1351.1, 0.659051
1351.45, 0.654785
1351.8, 0.650197
1352.15, 0.646578
1352.51, 0.643282
1352.86, 0.641085
1353.21, 0.638694
1353.56, 0.636432
1353.92, 0.634945
1354.27, 0.634235
1354.63, 0.633394
1354.98, 0.632360
1355.33, 0.631456
1355.69, 0.631003
1356.04, 0.630551
1356.4, 0.630422
1356.75, 0.629905
1357.11, 0.629388
1357.46, 0.628224
1357.82, 0.627578
1358.18, 0.627190
1358.53, 0.626415
1358.89, 0.625769
1359.24, 0.624928
1359.6, 0.623571
1359.96, 0.622667
1360.31, 0.622473
1360.67, 0.623507
1361.03, 0.623894
1361.39, 0.624153
1361.74, 0.625058
1362.1, 0.625769
1362.46, 0.625252
1362.82, 0.624476
1363.18, 0.624864
1363.53, 0.625252
1363.89, 0.626092
1364.25, 0.627449
1364.61, 0.629129
1364.97, 0.630422
1365.33, 0.631003
1365.69, 0.631197
1366.05, 0.631649
1366.41, 0.632037
1366.77, 0.632360
1367.13, 0.632231
1367.49, 0.632296
1367.85, 0.631908
1368.21, 0.631003
1368.57, 0.629711
1368.93, 0.627384
1369.3, 0.626156
1369.66, 0.625833
1370.02, 0.625445
1370.38, 0.625510
1370.74, 0.625445
1371.11, 0.624993
1371.47, 0.623959
1371.83, 0.623119
1372.19, 0.623054
1372.56, 0.621826
1372.92, 0.620082
1373.29, 0.618789
1373.65, 0.617367
1374.01, 0.615558
1374.38, 0.613684
1374.74, 0.612520
1375.11, 0.610905
1375.47, 0.608772
1375.84, 0.607803
1376.2, 0.606704
1376.57, 0.605218
1376.93, 0.603150
1377.3, 0.601082
1377.67, 0.598949
1378.03, 0.596558
1378.4, 0.593908
1378.76, 0.591194
1379.13, 0.587833
1379.5, 0.584279
1379.87, 0.581048
1380.23, 0.578657
1380.6, 0.576847
1380.97, 0.574714
1381.34, 0.571806
1381.7, 0.568769
1382.07, 0.567153
1382.44, 0.565990
1382.81, 0.562953
1383.18, 0.559334
1383.55, 0.556102
1383.92, 0.553194
1384.29, 0.550286
1384.66, 0.547184
1385.03, 0.543823
1385.4, 0.540140
1385.77, 0.536262
1386.14, 0.532126
1386.51, 0.527085
1386.88, 0.522432
1387.25, 0.518490
1387.62, 0.514096
1387.99, 0.509120
1388.36, 0.503885
1388.74, 0.498262
1389.11, 0.492317
1389.48, 0.486695
1389.85, 0.480878
1390.23, 0.475062
1390.6, 0.468793
1390.97, 0.461943
1391.35, 0.455028
1391.72, 0.448307
1392.09, 0.441844
1392.47, 0.435317
1392.84, 0.428919
1393.21, 0.422845
1393.59, 0.417157
1393.96, 0.412892
1394.34, 0.410243
1394.71, 0.408756
1395.09, 0.407787
1395.46, 0.407787
1395.84, 0.408498
1396.22, 0.410436
1396.59, 0.412828
1396.97, 0.415477
1397.35, 0.418127
1397.72, 0.421035
1398.1, 0.423879
1398.48, 0.426593
1398.85, 0.429566
1399.23, 0.432151
1399.61, 0.434154
1399.99, 0.436028
1400.37, 0.437773
1400.74, 0.439324
1401.12, 0.440681
1401.5, 0.441198
1401.88, 0.440746
1402.26, 0.440229
1402.64, 0.439518
1403.02, 0.438549
1403.4, 0.437644
1403.78, 0.436674
1404.16, 0.435705
1404.54, 0.434865
1404.92, 0.434542
1405.3, 0.434154
1405.68, 0.434606
1406.06, 0.436804
1406.44, 0.440100
1406.83, 0.444171
1407.21, 0.449406
1407.59, 0.454382
1407.97, 0.459358
1408.35, 0.464334
1408.74, 0.469310
1409.12, 0.473899
1409.5, 0.476871
1409.89, 0.478422
1410.27, 0.478293
1410.65, 0.475837
1411.04, 0.471443
1411.42, 0.464851
1411.81, 0.455545
1412.19, 0.442491
1412.58, 0.425171
1412.96, 0.404103
1413.35, 0.380386
1413.73, 0.354406
1414.12, 0.327587
1414.5, 0.304774
1414.89, 0.293464
1415.28, 0.297859
1415.66, 0.317828
1416.05, 0.348396
1416.44, 0.382389
1416.82, 0.414831
1417.21, 0.443525
1417.6, 0.467888
1417.98, 0.488181
1418.37, 0.504790
1418.76, 0.519007
1419.15, 0.530446
1419.54, 0.540075
1419.93, 0.548929
1420.32, 0.556749
1420.71, 0.563146
1421.09, 0.569027
1421.48, 0.574197
1421.88, 0.578592
1422.27, 0.582276
1422.66, 0.585184
1423.05, 0.587640
1423.44, 0.590031
1423.83, 0.592357
1424.22, 0.593650
1424.61, 0.594942
1425.0, 0.596946
1425.39, 0.598949
1425.78, 0.600759
1426.18, 0.602633
1426.57, 0.604765
1426.96, 0.606381
1427.36, 0.608190
1427.75, 0.609871
1428.14, 0.611292
1428.54, 0.612391
1428.93, 0.613490
1429.32, 0.614588
1429.72, 0.615364
1430.11, 0.616462
1430.51, 0.618078
1430.9, 0.619048
1431.3, 0.619823
1431.69, 0.621180
1432.09, 0.622020
1432.48, 0.621956
1432.88, 0.622990
1433.28, 0.623765
1433.67, 0.624218
1434.07, 0.624928
1434.46, 0.625252
1434.86, 0.625316
1435.26, 0.625704
1435.66, 0.626286
1436.05, 0.626803
1436.45, 0.626996
1436.85, 0.627255
1437.25, 0.627578
1437.65, 0.627966
1438.05, 0.628483
1438.44, 0.628935
1438.84, 0.629129
1439.24, 0.629194
1439.64, 0.629129
1440.04, 0.629065
1440.44, 0.629646
1440.84, 0.629840
1441.24, 0.630228
1441.65, 0.630551
1442.05, 0.630551
1442.45, 0.630422
1442.85, 0.630422
1443.25, 0.630745
1443.65, 0.630615
1444.05, 0.630486
1444.46, 0.630357
1444.86, 0.631262
1445.26, 0.631649
1445.67, 0.631262
1446.07, 0.630809
1446.47, 0.630422
1446.88, 0.630034
1447.28, 0.629905
1447.68, 0.630034
1448.09, 0.630034
1448.49, 0.630034
1448.9, 0.630034
1449.3, 0.629905
1449.71, 0.629840
1450.11, 0.630034
1450.52, 0.630357
1450.93, 0.630551
1451.33, 0.631132
1451.74, 0.631649
1452.14, 0.631779
1452.55, 0.631649
1452.96, 0.631585
1453.36, 0.631456
1453.77, 0.631520
1454.18, 0.631326
1454.59, 0.631973
1455.0, 0.632296
1455.41, 0.632231
1455.81, 0.632425
1456.22, 0.632619
1456.63, 0.632490
1457.04, 0.632102
1457.45, 0.632296
1457.86, 0.632360
1458.27, 0.632296
1458.68, 0.632490
1459.09, 0.632942
1459.5, 0.633071
1459.91, 0.632684
1460.32, 0.632619
1460.74, 0.632619
1461.15, 0.632813
1461.56, 0.632360
1461.97, 0.631908
1462.39, 0.632037
1462.8, 0.632296
1463.21, 0.632037
1463.62, 0.631908
1464.04, 0.631973
1464.45, 0.631908
1464.86, 0.632037
1465.28, 0.631973
1465.69, 0.631908
1466.11, 0.631973
1466.52, 0.631843
1466.94, 0.631456
1467.35, 0.631779
1467.77, 0.631973
1468.18, 0.631585
1468.6, 0.631714
1469.02, 0.632037
1469.43, 0.632231
1469.85, 0.632102
1470.27, 0.632167
1470.68, 0.632037
1471.1, 0.631585
1471.52, 0.631714
1471.94, 0.631843
1472.35, 0.631973
1472.77, 0.631779
1473.19, 0.631520
1473.61, 0.631714
1474.03, 0.631843
1474.45, 0.631843
1474.87, 0.632167
1475.29, 0.632360
1475.71, 0.632102
1476.13, 0.632425
1476.55, 0.632231
1476.97, 0.632037
1477.39, 0.632296
1477.81, 0.632102
1478.23, 0.632102
1478.65, 0.632167
1479.07, 0.632296
1479.5, 0.632360
1479.92, 0.632167
1480.34, 0.632490
1480.76, 0.632296
1481.19, 0.632296
1481.61, 0.632296
1482.03, 0.632102
1482.46, 0.632231
1482.88, 0.632231
1483.31, 0.632102
1483.73, 0.632554
1484.16, 0.632748
1484.58, 0.632231
1485.01, 0.632490
1485.43, 0.633007
1485.86, 0.633265
1486.28, 0.633265
1486.71, 0.633071
1487.14, 0.633265
1487.56, 0.633330
1487.99, 0.633136
1488.42, 0.633330
1488.84, 0.633330
1489.27, 0.633459
1489.7, 0.633976
1490.13, 0.634235
1490.56, 0.634041
1490.98, 0.634041
1491.41, 0.634687
1491.84, 0.634881
1492.27, 0.634170
1492.7, 0.634041
1493.13, 0.634170
1493.56, 0.633911
1493.99, 0.633976
1494.42, 0.634041
1494.85, 0.634235
1495.29, 0.634299
1495.72, 0.634622
1496.15, 0.634622
1496.58, 0.634816
1497.01, 0.635010
1497.44, 0.635204
1497.88, 0.635010
1498.31, 0.635075
1498.74, 0.635204
1499.18, 0.635527
1499.61, 0.635462
1500.04, 0.635398
1500.48, 0.635656
1500.91, 0.635721
1501.35, 0.635592
1501.78, 0.635656
1502.22, 0.635656
1502.65, 0.635850
1503.09, 0.636238
1503.53, 0.636238
1503.96, 0.636044
1504.4, 0.636173
1504.83, 0.636367
1505.27, 0.636303
1505.71, 0.636432
1506.15, 0.636626
1506.58, 0.636755
1507.02, 0.636755
1507.46, 0.636626
1507.9, 0.636690
1508.34, 0.637272
1508.78, 0.637530
1509.21, 0.637724
1509.66, 0.637660
1510.09, 0.637595
1510.53, 0.637789
1510.97, 0.637660
1511.42, 0.637724
1511.86, 0.637983
1512.3, 0.638047
1512.74, 0.638047
1513.18, 0.638241
1513.62, 0.638371
1514.06, 0.638306
1514.51, 0.638629
1514.95, 0.638758
1515.39, 0.638758
1515.83, 0.638823
1516.28, 0.638694
1516.72, 0.638694
1517.16, 0.638823
1517.61, 0.639146
1518.05, 0.639405
1518.5, 0.639211
1518.94, 0.639017
1519.39, 0.639146
1519.83, 0.639405
1520.28, 0.639663
1520.73, 0.640115
1521.17, 0.640245
1521.62, 0.640051
1522.07, 0.639792
1522.51, 0.639728
1522.96, 0.639922
1523.41, 0.640051
1523.85, 0.639986
1524.3, 0.640245
1524.75, 0.640245
1525.2, 0.640439
1525.65, 0.640697
1526.1, 0.640568
1526.55, 0.640374
1527.0, 0.640503
1527.45, 0.640891
1527.9, 0.641279
1528.35, 0.641085
1528.8, 0.641085
1529.25, 0.641343
1529.7, 0.641666
1530.15, 0.641860
1530.6, 0.641731
1531.05, 0.641343
1531.51, 0.641602
1531.96, 0.641796
1532.41, 0.641990
1532.87, 0.642313
1533.32, 0.642442
1533.77, 0.642313
1534.23, 0.642442
1534.68, 0.642571
1535.14, 0.642765
1535.59, 0.642959
1536.05, 0.643217
1536.5, 0.643217
1536.96, 0.643024
1537.41, 0.643217
1537.87, 0.643541
1538.32, 0.643928
1538.78, 0.644316
1539.24, 0.644316
1539.7, 0.644510
1540.15, 0.644381
1540.61, 0.644316
1541.07, 0.644575
1541.53, 0.644962
1541.98, 0.645544
1542.44, 0.645932
1542.9, 0.645932
1543.36, 0.645673
1543.82, 0.645673
1544.28, 0.645867
1544.74, 0.645867
1545.2, 0.646126
1545.66, 0.646190
1546.12, 0.646513
1546.59, 0.647030
1547.05, 0.647160
1547.51, 0.647030
1547.97, 0.647289
1548.43, 0.647677
1548.9, 0.647806
1549.36, 0.647677
1549.82, 0.647806
1550.29, 0.648000
1550.75, 0.648258
1551.21, 0.648387
1551.68, 0.648711
1552.14, 0.648969
1552.61, 0.648775
1553.07, 0.648775
1553.54, 0.649163
1554.0, 0.649163
1554.47, 0.649292
1554.93, 0.649486
1555.4, 0.649615
1555.87, 0.649939
1556.34, 0.650197
1556.8, 0.650068
1557.27, 0.650326
1557.74, 0.650649
1558.21, 0.650779
1558.68, 0.651037
1559.14, 0.651425
1559.61, 0.651619
1560.08, 0.651296
1560.55, 0.651231
1561.02, 0.651489
1561.49, 0.651942
1561.96, 0.652330
1562.43, 0.652136
1562.9, 0.652459
1563.38, 0.652717
1563.85, 0.652847
1564.32, 0.653170
1564.79, 0.653105
1565.26, 0.653299
1565.74, 0.653493
1566.21, 0.653428
1566.68, 0.653299
1567.16, 0.653558
1567.63, 0.654010
1568.1, 0.654333
1568.58, 0.654268
1569.05, 0.654333
1569.53, 0.654656
1570.0, 0.654656
1570.48, 0.654979
1570.96, 0.654656
1571.43, 0.654527
1571.91, 0.654656
1572.39, 0.655238
1572.86, 0.655367
1573.34, 0.654979
1573.82, 0.655109
1574.3, 0.655626
1574.77, 0.655884
1575.25, 0.656207
1575.73, 0.656401
1576.21, 0.656272
1576.69, 0.656530
1577.17, 0.657047
1577.65, 0.656918
1578.13, 0.656918
1578.61, 0.657241
1579.09, 0.657758
1579.57, 0.657887
1580.05, 0.658211
1580.54, 0.658275
1581.02, 0.658081
1581.5, 0.658081
1581.98, 0.658275
1582.47, 0.658275
1582.95, 0.658340
1583.43, 0.658598
1583.92, 0.658986
1584.4, 0.659051
1584.88, 0.659503
1585.37, 0.659309
1585.85, 0.659568
1586.34, 0.659826
1586.82, 0.659568
1587.31, 0.659697
1587.8, 0.660085
1588.28, 0.660085
1588.77, 0.660279
1589.26, 0.660602
1589.74, 0.660860
1590.23, 0.661119
1590.72, 0.661119
1591.21, 0.661054
1591.7, 0.661183
1592.19, 0.661571
1592.67, 0.661700
1593.16, 0.661830
1593.65, 0.662088
1594.14, 0.662282
1594.63, 0.662540
1595.12, 0.662928
1595.61, 0.662670
1596.11, 0.662476
1596.6, 0.662282
1597.09, 0.662734
1597.58, 0.663251
1598.08, 0.663445
1598.57, 0.663704
1599.06, 0.664156
1599.55, 0.664221
1600.05, 0.664285
1600.54, 0.664350
1601.04, 0.664544
1601.53, 0.664867
1602.03, 0.664996
1602.52, 0.665319
1603.02, 0.665384
1603.51, 0.665513
1604.01, 0.665836
1604.5, 0.665836
1605.0, 0.666030
1605.5, 0.666418
1606.0, 0.666353
1606.49, 0.666289
1606.99, 0.666418
1607.49, 0.666741
1607.99, 0.667064
1608.49, 0.667323
1608.99, 0.667258
1609.49, 0.667258
1609.99, 0.667646
1610.49, 0.667904
1610.99, 0.668227
1611.49, 0.668292
1611.99, 0.668551
1612.49, 0.668938
1612.99, 0.669003
1613.49, 0.668938
1614.0, 0.669068
1614.5, 0.669520
1615.0, 0.669714
1615.51, 0.669714
1616.01, 0.669714
1616.51, 0.669779
1617.02, 0.670231
1617.52, 0.670425
1618.03, 0.670425
1618.53, 0.670619
1619.04, 0.670683
1619.54, 0.670619
1620.05, 0.671071
1620.55, 0.671717
1621.06, 0.671782
1621.57, 0.671653
1622.08, 0.671911
1622.58, 0.672040
1623.09, 0.672170
1623.6, 0.672364
1624.11, 0.672622
1624.62, 0.672622
1625.13, 0.672622
1625.64, 0.672751
1626.15, 0.673074
1626.66, 0.673268
1627.17, 0.673462
1627.68, 0.673656
1628.19, 0.673914
1628.7, 0.674108
1629.21, 0.674173
1629.72, 0.673979
1630.24, 0.674238
1630.75, 0.674690
1631.26, 0.675013
1631.78, 0.674755
1632.29, 0.674884
1632.8, 0.674819
1633.32, 0.674819
1633.83, 0.675272
1634.35, 0.675724
1634.86, 0.675789
1635.38, 0.675853
1635.9, 0.675918
1636.41, 0.675918
1636.93, 0.676370
1637.45, 0.676500
1637.96, 0.676306
1638.48, 0.676112
1639.0, 0.676176
1639.52, 0.676306
1640.04, 0.676564
1640.56, 0.676952
1641.08, 0.677081
1641.59, 0.677275
1642.11, 0.677534
1642.63, 0.677340
1643.16, 0.677534
1643.68, 0.678180
1644.2, 0.678115
1644.72, 0.677921
1645.24, 0.677986
1645.76, 0.677792
1646.29, 0.677792
1646.81, 0.678180
1647.33, 0.678244
1647.86, 0.678244
1648.38, 0.678309
1648.9, 0.678503
1649.43, 0.678632
1649.95, 0.678761
1650.48, 0.678568
1651.0, 0.678761
1651.53, 0.678891
1652.06, 0.679085
1652.58, 0.679214
1653.11, 0.679408
1653.64, 0.679472
1654.17, 0.679278
1654.69, 0.679408
1655.22, 0.679731
1655.75, 0.679860
1656.28, 0.680183
1656.81, 0.680054
1657.34, 0.680119
1657.87, 0.680054
1658.4, 0.679860
1658.93, 0.680119
1659.46, 0.680248
1659.99, 0.680377
1660.52, 0.680377
1661.05, 0.680442
1661.59, 0.680700
1662.12, 0.680765
1662.65, 0.680959
1663.19, 0.681217
1663.72, 0.681217
1664.26, 0.681153
1664.79, 0.681153
1665.32, 0.681347
1665.86, 0.681670
1666.39, 0.681799
1666.93, 0.682057
1667.47, 0.682122
1668.0, 0.682057
1668.54, 0.682316
1669.08, 0.682380
1669.61, 0.682510
1670.15, 0.682704
1670.69, 0.682768
1671.23, 0.682704
1671.77, 0.682380
1672.31, 0.682897
1672.85, 0.683350
1673.39, 0.683673
1673.93, 0.683673
1674.47, 0.683673
1675.01, 0.683738
1675.55, 0.683802
1676.09, 0.683996
1676.64, 0.683932
1677.18, 0.683867
1677.72, 0.683996
1678.26, 0.684255
1678.81, 0.684319
1679.35, 0.684513
1679.89, 0.684707
1680.44, 0.684901
1680.98, 0.685030
1681.53, 0.685095
1682.07, 0.685224
1682.62, 0.685224
1683.17, 0.685353
1683.71, 0.685741
1684.26, 0.686064
1684.81, 0.685741
1685.36, 0.685612
1685.9, 0.685741
1686.45, 0.685741
1687.0, 0.686193
1687.55, 0.686710
1688.1, 0.686646
1688.65, 0.686581
1689.2, 0.686581
1689.75, 0.686775
1690.3, 0.686840
1690.85, 0.687163
1691.41, 0.687227
1691.96, 0.687227
1692.51, 0.687227
1693.06, 0.687033
1693.61, 0.687227
1694.17, 0.687680
1694.72, 0.688003
1695.28, 0.688132
1695.83, 0.687938
1696.39, 0.687809
1696.94, 0.687938
1697.5, 0.688003
1698.05, 0.688003
1698.61, 0.688261
1699.17, 0.688649
1699.72, 0.688778
1700.28, 0.688585
1700.84, 0.688455
1701.4, 0.688585
1701.95, 0.688714
1702.51, 0.688778
1703.07, 0.688520
1703.63, 0.688520
1704.19, 0.688714
1704.75, 0.688908
1705.31, 0.689102
1705.88, 0.689037
1706.44, 0.688972
1707.0, 0.689037
1707.56, 0.689037
1708.12, 0.688843
1708.69, 0.689037
1709.25, 0.689037
1709.81, 0.688908
1710.38, 0.689102
1710.94, 0.689102
1711.51, 0.689037
1712.07, 0.689166
1712.64, 0.689360
1713.2, 0.689425
1713.77, 0.689360
1714.34, 0.689102
1714.9, 0.689037
1715.47, 0.689102
1716.04, 0.689166
1716.61, 0.689166
1717.18, 0.688843
1717.74, 0.688972
1718.31, 0.689166
1718.88, 0.689102
1719.45, 0.688972
1720.02, 0.689037
1720.59, 0.689037
1721.17, 0.688972
1721.74, 0.688714
1722.31, 0.688843
1722.88, 0.688585
1723.45, 0.688649
1724.03, 0.688714
1724.6, 0.688585
1725.18, 0.688585
1725.75, 0.688585
1726.33, 0.688843
1726.9, 0.688908
1727.48, 0.688908
1728.05, 0.688714
1728.63, 0.688455
1729.2, 0.688455
1729.78, 0.688326
1730.36, 0.688067
1730.94, 0.688132
1731.51, 0.688197
1732.09, 0.688261
1732.67, 0.688326
1733.25, 0.688197
1733.83, 0.688003
1734.41, 0.688132
1734.99, 0.688197
1735.57, 0.688326
1736.15, 0.688455
1736.73, 0.688326
1737.32, 0.688067
1737.9, 0.688067
1738.48, 0.688261
1739.07, 0.688391
1739.65, 0.688520
1740.23, 0.688391
1740.82, 0.688391
1741.4, 0.688585
1741.99, 0.688391
1742.57, 0.688326
1743.16, 0.688585
1743.74, 0.688843
1744.33, 0.688972
1744.92, 0.688843
1745.51, 0.689102
1746.09, 0.689037
1746.68, 0.688972
1747.27, 0.689037
1747.86, 0.689102
1748.45, 0.688908
1749.04, 0.688778
1749.63, 0.688972
1750.22, 0.689360
1750.81, 0.689360
1751.4, 0.689102
1751.99, 0.689360
1752.59, 0.689619
1753.18, 0.689683
1753.77, 0.689489
1754.37, 0.689295
1754.96, 0.688972
1755.56, 0.688908
1756.15, 0.688972
1756.74, 0.689037
1757.34, 0.689102
1757.94, 0.688908
1758.53, 0.688972
1759.13, 0.689166
1759.73, 0.689037
1760.32, 0.688714
1760.92, 0.688261
1761.52, 0.688067
1762.12, 0.688261
1762.72, 0.688520
1763.32, 0.688714
1763.92, 0.688649
1764.52, 0.688455
1765.12, 0.688132
1765.72, 0.687809
1766.32, 0.687680
1766.92, 0.687680
1767.53, 0.687615
1768.13, 0.687809
1768.73, 0.687809
1769.34, 0.687551
1769.94, 0.687486
1770.55, 0.687357
1771.15, 0.687357
1771.76, 0.686904
1772.36, 0.686646
1772.97, 0.686581
1773.57, 0.686129
1774.18, 0.685935
1774.79, 0.685806
1775.4, 0.685483
1776.0, 0.685418
1776.61, 0.685483
1777.22, 0.685030
1777.83, 0.684578
1778.44, 0.684642
1779.05, 0.684448
1779.66, 0.683608
1780.27, 0.683156
1780.88, 0.682704
1781.5, 0.682251
1782.11, 0.681993
1782.72, 0.681540
1783.33, 0.680894
1783.95, 0.680506
1784.56, 0.680054
1785.18, 0.679666
1785.79, 0.679408
1786.41, 0.678761
1787.02, 0.678374
1787.64, 0.678051
1788.26, 0.677469
1788.87, 0.677017
1789.49, 0.676564
1790.11, 0.676176
1790.73, 0.676047
1791.35, 0.675983
1791.96, 0.675659
1792.58, 0.675272
1793.21, 0.675142
1793.83, 0.674884
1794.45, 0.674496
1795.07, 0.674302
1795.69, 0.674238
1796.31, 0.674302
1796.93, 0.674367
1797.56, 0.674432
1798.18, 0.674173
1798.8, 0.674108
1799.43, 0.674044
1800.05, 0.674044
1800.68, 0.674108
1801.3, 0.673979
1801.93, 0.674108
1802.56, 0.674108
1803.18, 0.673785
1803.81, 0.673527
1804.44, 0.673398
1805.07, 0.673333
1805.7, 0.673268
1806.33, 0.673074
1806.95, 0.672751
1807.58, 0.672557
1808.22, 0.672299
1808.85, 0.671911
1809.48, 0.671200
1810.11, 0.670813
1810.74, 0.670489
1811.38, 0.669908
1812.01, 0.669262
1812.64, 0.669003
1813.28, 0.668745
1813.91, 0.668227
1814.55, 0.667387
1815.18, 0.667193
1815.82, 0.667129
1816.45, 0.666676
1817.09, 0.665966
1817.73, 0.665642
1818.36, 0.665707
1819.0, 0.665836
1819.64, 0.666418
1820.28, 0.667064
1820.92, 0.667064
1821.56, 0.667193
1822.2, 0.667193
1822.84, 0.667517
1823.48, 0.667969
1824.12, 0.668357
1824.76, 0.668938
1825.41, 0.670360
1826.05, 0.672040
1826.69, 0.672040
1827.34, 0.671847
1827.98, 0.672687
1828.63, 0.673785
1829.27, 0.674238
1829.92, 0.674690
1830.56, 0.675595
1831.21, 0.676176
1831.86, 0.676112
1832.5, 0.676306
1833.15, 0.676047
1833.8, 0.676241
1834.45, 0.676823
1835.1, 0.677017
1835.75, 0.677210
1836.4, 0.677146
1837.05, 0.677081
1837.7, 0.677081
1838.35, 0.675724
1839.01, 0.675013
1839.66, 0.675207
1840.31, 0.673914
1840.96, 0.672816
1841.62, 0.672687
1842.27, 0.671330
1842.93, 0.669649
1843.58, 0.668874
1844.24, 0.669068
1844.9, 0.669843
1845.55, 0.671394
1846.21, 0.673979
1846.87, 0.676693
1847.53, 0.678115
1848.18, 0.679149
1848.84, 0.679537
1849.5, 0.680313
1850.16, 0.681799
1850.82, 0.682704
1851.48, 0.683221
1852.14, 0.684190
1852.81, 0.685353
1853.47, 0.686775
1854.13, 0.686969
1854.8, 0.686193
1855.46, 0.686258
1856.12, 0.687357
1856.79, 0.688003
1857.45, 0.687615
1858.12, 0.687486
1858.79, 0.688261
1859.45, 0.689360
1860.12, 0.689295
1860.79, 0.688261
1861.46, 0.687357
1862.12, 0.687163
1862.79, 0.687227
1863.46, 0.687357
1864.13, 0.687486
1864.8, 0.687292
1865.48, 0.687033
1866.15, 0.686840
1866.82, 0.687227
1867.49, 0.687938
1868.16, 0.687486
1868.84, 0.686517
1869.51, 0.686129
1870.19, 0.686710
1870.86, 0.687098
1871.54, 0.685676
1872.21, 0.685095
1872.89, 0.685676
1873.56, 0.684642
1874.24, 0.682897
1874.92, 0.682122
1875.6, 0.681670
1876.28, 0.681540
1876.96, 0.681476
1877.64, 0.679860
1878.32, 0.678826
1879.0, 0.677921
1879.68, 0.677404
1880.36, 0.677081
1881.04, 0.676564
1881.73, 0.675595
1882.41, 0.674755
1883.09, 0.674432
1883.78, 0.674367
1884.46, 0.673333
1885.15, 0.672428
1885.83, 0.671653
1886.52, 0.671071
1887.21, 0.670489
1887.89, 0.669843
1888.58, 0.669132
1889.27, 0.668809
1889.96, 0.668874
1890.65, 0.667840
1891.34, 0.667193
1892.03, 0.666741
1892.72, 0.665836
1893.41, 0.665125
1894.1, 0.664091
1894.79, 0.663058
1895.49, 0.662540
1896.18, 0.661765
1896.87, 0.660989
1897.57, 0.660279
1898.26, 0.659568
1898.96, 0.659374
1899.65, 0.658921
1900.35, 0.657500
1901.05, 0.655819
1901.74, 0.654850
1902.44, 0.654850
1903.14, 0.654139
1903.84, 0.652394
1904.54, 0.652071
1905.24, 0.652071
1905.94, 0.651296
1906.64, 0.650520
1907.34, 0.649357
1908.04, 0.648517
1908.75, 0.648258
1909.45, 0.647806
1910.15, 0.647612
1910.86, 0.647612
1911.56, 0.647547
1912.27, 0.647418
1912.97, 0.648000
1913.68, 0.648064
1914.39, 0.647224
1915.09, 0.647030
1915.8, 0.647224
1916.51, 0.647224
1917.22, 0.646901
1917.93, 0.647095
1918.64, 0.647547
1919.35, 0.648064
1920.06, 0.648905
1920.77, 0.648840
1921.48, 0.647741
1922.19, 0.647224
1922.91, 0.647483
1923.62, 0.647935
1924.33, 0.648000
1925.05, 0.647741
1925.76, 0.647483
1926.48, 0.647353
1927.19, 0.647612
1927.91, 0.647870
1928.63, 0.647741
1929.35, 0.647224
1930.07, 0.647095
1930.78, 0.646966
1931.5, 0.646772
1932.22, 0.646643
1932.94, 0.646707
1933.66, 0.646772
1934.39, 0.646319
1935.11, 0.645932
1935.83, 0.646061
1936.55, 0.645996
1937.28, 0.645738
1938.0, 0.645415
1938.73, 0.645285
1939.45, 0.645479
1940.18, 0.645609
1940.9, 0.645544
1941.63, 0.645479
1942.36, 0.645479
1943.09, 0.645479
1943.81, 0.645609
1944.54, 0.646061
1945.27, 0.646384
1946.0, 0.646513
1946.73, 0.646643
1947.47, 0.647160
1948.2, 0.647224
1948.93, 0.647224
1949.66, 0.647418
1950.4, 0.647612
1951.13, 0.647547
1951.86, 0.647612
1952.6, 0.648000
1953.34, 0.648387
1954.07, 0.648711
1954.81, 0.648452
1955.55, 0.648194
1956.29, 0.648581
1957.02, 0.648775
1957.76, 0.648452
1958.5, 0.648581
1959.24, 0.648711
1959.98, 0.648646
1960.72, 0.648711
1961.47, 0.648711
1962.21, 0.648775
1962.95, 0.648775
1963.7, 0.648775
1964.44, 0.648840
1965.18, 0.648840
1965.93, 0.648711
1966.67, 0.648646
1967.42, 0.648711
1968.17, 0.648775
1968.92, 0.648905
1969.66, 0.648905
1970.41, 0.648711
1971.16, 0.648775
1971.91, 0.648840
1972.66, 0.648775
1973.41, 0.648905
1974.16, 0.648969
1974.92, 0.649163
1975.67, 0.649098
1976.42, 0.649098
1977.18, 0.649034
1977.93, 0.648840
1978.69, 0.648905
1979.44, 0.649098
1980.2, 0.649163
1980.95, 0.649034
1981.71, 0.648969
1982.47, 0.648905
1983.23, 0.648905
1983.99, 0.648775
1984.74, 0.648581
1985.51, 0.648387
1986.27, 0.648000
1987.03, 0.647870
1987.79, 0.647870
1988.55, 0.647935
1989.32, 0.648064
1990.08, 0.647870
1990.84, 0.647547
1991.61, 0.647224
1992.37, 0.647160
1993.14, 0.646901
1993.9, 0.646578
1994.67, 0.646319
1995.44, 0.645932
1996.21, 0.645479
1996.98, 0.644898
1997.75, 0.644445
1998.52, 0.644187
1999.29, 0.644122
2000.06, 0.643928
2000.83, 0.643605
2001.6, 0.643670
2002.38, 0.643541
2003.15, 0.643153
2003.93, 0.643088
2004.7, 0.643024
2005.48, 0.642830
2006.25, 0.642507
2007.03, 0.642183
2007.81, 0.642054
2008.58, 0.641990
2009.36, 0.641860
2010.14, 0.641666
2010.92, 0.641602
2011.7, 0.641279
2012.48, 0.640891
2013.26, 0.640439
2014.05, 0.640180
2014.83, 0.640051
2015.61, 0.639857
2016.4, 0.639405
2017.18, 0.638952
2017.97, 0.638500
2018.75, 0.638112
2019.54, 0.637789
2020.32, 0.637595
2021.11, 0.637530
2021.9, 0.637207
2022.69, 0.636755
2023.48, 0.636303
2024.27, 0.635850
2025.06, 0.635592
2025.85, 0.635269
2026.64, 0.634881
2027.44, 0.634364
2028.23, 0.633524
2029.02, 0.633071
2029.82, 0.633007
2030.61, 0.632748
2031.41, 0.632296
2032.2, 0.632037
2033.0, 0.631649
2033.8, 0.631197
2034.6, 0.630745
2035.4, 0.630486
2036.2, 0.630357
2037.0, 0.629840
2037.8, 0.629323
2038.6, 0.628871
2039.4, 0.628612
2040.2, 0.628224
2041.01, 0.627772
2041.81, 0.627384
2042.61, 0.627061
2043.42, 0.626415
2044.22, 0.625962
2045.03, 0.625639
2045.84, 0.624799
2046.65, 0.624024
2047.46, 0.623636
2048.26, 0.623119
2049.07, 0.622537
2049.88, 0.622150
2050.69, 0.621826
2051.51, 0.621116
2052.32, 0.620534
2053.13, 0.620211
2053.94, 0.619823
2054.76, 0.619241
2055.57, 0.618789
2056.39, 0.618078
2057.2, 0.617432
2058.02, 0.616915
2058.84, 0.616462
2059.66, 0.615881
2060.48, 0.615170
2061.29, 0.614524
2062.11, 0.613877
2062.94, 0.613037
2063.76, 0.611939
2064.58, 0.610646
2065.4, 0.609418
2066.22, 0.608061
2067.05, 0.606898
2067.87, 0.605411
2068.7, 0.603602
2069.52, 0.601857
2070.35, 0.599789
2071.18, 0.597915
2072.0, 0.596235
2072.83, 0.594748
2073.66, 0.593650
2074.49, 0.593003
2075.32, 0.592163
2076.15, 0.591582
2076.98, 0.591194
2077.82, 0.590742
2078.65, 0.590225
2079.48, 0.589514
2080.32, 0.588480
2081.15, 0.587123
2081.99, 0.585442
2082.83, 0.583503
2083.66, 0.581565
2084.5, 0.579303
2085.34, 0.576782
2086.18, 0.574133
2087.02, 0.572194
2087.86, 0.570772
2088.7, 0.569674
2089.54, 0.569157
2090.39, 0.569157
2091.23, 0.569351
2092.07, 0.569286
2092.92, 0.569351
2093.76, 0.569351
2094.61, 0.569092
2095.45, 0.568833
2096.3, 0.568575
2097.15, 0.568381
2098.0, 0.568446
2098.85, 0.567929
2099.7, 0.567347
2100.55, 0.567024
2101.4, 0.566701
2102.25, 0.566184
2103.1, 0.565344
2103.96, 0.564439
2104.81, 0.563534
2105.67, 0.562048
2106.52, 0.559980
2107.38, 0.556813
2108.24, 0.552806
2109.09, 0.548283
2109.95, 0.543823
2110.81, 0.539946
2111.67, 0.536973
2112.53, 0.535293
2113.39, 0.534453
2114.25, 0.534259
2115.12, 0.534453
2115.98, 0.534647
2116.84, 0.534841
2117.71, 0.534582
2118.58, 0.534000
2119.44, 0.533225
2120.31, 0.532191
2121.18, 0.530834
2122.04, 0.529477
2122.91, 0.528119
2123.78, 0.526827
2124.65, 0.525599
2125.52, 0.524307
2126.4, 0.523079
2127.27, 0.521786
2128.14, 0.520494
2129.02, 0.518943
2129.89, 0.517392
2130.77, 0.515905
2131.64, 0.514160
2132.52, 0.512157
2133.4, 0.510024
2134.27, 0.507439
2135.15, 0.504596
2136.03, 0.501429
2136.91, 0.497810
2137.79, 0.493868
2138.68, 0.489732
2139.56, 0.485079
2140.44, 0.480232
2141.33, 0.475062
2142.21, 0.469763
2143.1, 0.464205
2143.99, 0.458259
2144.87, 0.451603
2145.76, 0.443912
2146.65, 0.435705
2147.54, 0.427239
2148.43, 0.418644
2149.32, 0.410307
2150.21, 0.402681
2151.1, 0.395766
2151.99, 0.389369
2152.89, 0.383682
2153.78, 0.379028
2154.68, 0.374957
2155.57, 0.371144
2156.47, 0.367267
2157.37, 0.363648
2158.27, 0.360222
2159.16, 0.356668
2160.06, 0.353631
2160.96, 0.351498
2161.86, 0.350464
2162.77, 0.350335
2163.67, 0.350916
2164.57, 0.352209
2165.48, 0.353760
2166.38, 0.355311
2167.29, 0.356797
2168.2, 0.358219
2169.1, 0.359770
2170.01, 0.361321
2170.92, 0.363066
2171.83, 0.365069
2172.74, 0.366879
2173.65, 0.368818
2174.56, 0.371015
2175.47, 0.372889
2176.39, 0.374699
2177.3, 0.376573
2178.22, 0.378253
2179.13, 0.379610
2180.05, 0.380450
2180.96, 0.381161
2181.88, 0.381484
2182.8, 0.381484
2183.72, 0.380967
2184.64, 0.379675
2185.56, 0.377607
2186.48, 0.374892
2187.41, 0.371532
2188.33, 0.367977
2189.25, 0.364165
2190.18, 0.360222
2191.1, 0.356603
2192.03, 0.353372
2192.96, 0.350593
2193.89, 0.348331
2194.82, 0.346716
2195.74, 0.345811
2196.68, 0.345035
2197.61, 0.344260
2198.54, 0.343161
2199.47, 0.341093
2200.4, 0.337410
2201.34, 0.331787
2202.28, 0.324161
2203.21, 0.314403
2204.15, 0.302383
2205.08, 0.288617
2206.02, 0.274141
2206.96, 0.260958
2207.9, 0.251910
2208.84, 0.250165
2209.78, 0.257533
2210.73, 0.273107
2211.67, 0.293723
2212.61, 0.315760
2213.56, 0.336893
2214.5, 0.355957
2215.45, 0.372824
2216.4, 0.387365
2217.35, 0.399967
2218.3, 0.410824
2219.24, 0.420195
2220.2, 0.428402
2221.15, 0.435640
2222.1, 0.441586
2223.05, 0.446497
2224.0, 0.450827
2224.96, 0.454511
2225.91, 0.457419
2226.87, 0.459681
2227.83, 0.461555
2228.79, 0.462848
2229.74, 0.464011
2230.7, 0.464786
2231.66, 0.464980
2232.63, 0.464318
2233.59, 0.464054
2234.55, 0.463127
2235.51, 0.461869
2236.48, 0.460744
2237.44, 0.459089
2238.41, 0.457501
2239.38, 0.456310
2240.34, 0.455581
2241.31, 0.454920
2242.28, 0.454192
2243.25, 0.453662
2244.22, 0.453794
2245.19, 0.453993
2246.17, 0.453927
2247.14, 0.453728
2248.12, 0.454258
2249.09, 0.454589
2250.07, 0.454589
2251.04, 0.454655
2252.02, 0.454787
2253.0, 0.454655
2253.98, 0.454324
2254.96, 0.453463
2255.94, 0.452073
2256.92, 0.450948
2257.91, 0.450286
2258.89, 0.449624
2259.88, 0.449029
2260.86, 0.447970
2261.85, 0.446646
2262.83, 0.445587
2263.82, 0.444925
2264.81, 0.443667
2265.8, 0.442079
2266.79, 0.440821
2267.78, 0.439100
2268.78, 0.436982
2269.77, 0.434930
2270.76, 0.433342
2271.76, 0.431356
2272.75, 0.428907
2273.75, 0.426723
2274.75, 0.424274
2275.75, 0.422023
2276.75, 0.419773
2277.75, 0.417589
2278.75, 0.416066
2279.75, 0.414478
2280.75, 0.412360
2281.76, 0.410507
2282.76, 0.408852
2283.77, 0.407660
2284.77, 0.406006
2285.78, 0.404880
2286.79, 0.403557
2287.8, 0.402299
2288.81, 0.401108
2289.82, 0.400313
2290.83, 0.399188
2291.84, 0.398262
2292.86, 0.397269
2293.87, 0.396541
2294.89, 0.396077
2295.91, 0.395614
2296.92, 0.394290
2297.94, 0.393099
2298.96, 0.392371
2299.98, 0.391444
2301.0, 0.390186
2302.02, 0.388995
2303.04, 0.387208
2304.07, 0.385288
2305.09, 0.383237
2306.12, 0.381118
2307.15, 0.378736
2308.17, 0.376287
2309.2, 0.373639
2310.23, 0.371587
2311.26, 0.369866
2312.29, 0.368145
2313.32, 0.366888
2314.35, 0.366358
2315.39, 0.365564
2316.42, 0.364439
2317.46, 0.363843
2318.5, 0.363512
2319.53, 0.363446
2320.57, 0.362916
2321.61, 0.362122
2322.65, 0.361990
2323.69, 0.361195
2324.73, 0.360798
2325.78, 0.360203
2326.82, 0.359872
2327.86, 0.360467
2328.91, 0.361791
2329.96, 0.362652
2331.01, 0.363578
2332.05, 0.364836
2333.1, 0.366292
2334.15, 0.367285
2335.21, 0.368741
2336.26, 0.369734
2337.31, 0.369668
2338.36, 0.369800
2339.42, 0.369866
2340.48, 0.369469
2341.53, 0.368609
2342.59, 0.366888
2343.65, 0.365034
2344.71, 0.363115
2345.77, 0.361394
2346.83, 0.359938
2347.9, 0.358018
2348.96, 0.355966
2350.02, 0.354113
2351.09, 0.352392
2352.16, 0.350671
2353.23, 0.348884
2354.29, 0.347097
2355.36, 0.345575
2356.43, 0.344582
2357.51, 0.343721
2358.58, 0.343523
2359.65, 0.343655
2360.73, 0.344648
2361.8, 0.345840
2362.88, 0.346766
2363.96, 0.347229
2365.03, 0.347825
2366.11, 0.347693
2367.19, 0.347229
2368.27, 0.346501
2369.36, 0.345442
2370.44, 0.343192
2371.53, 0.340809
2372.61, 0.338360
2373.7, 0.335382
2374.78, 0.332403
2375.87, 0.329292
2376.96, 0.325983
2378.05, 0.323534
2379.14, 0.321151
2380.24, 0.318900
2381.33, 0.317113
2382.42, 0.316120
2383.52, 0.314995
2384.61, 0.314466
2385.71, 0.314995
2386.81, 0.316054
2387.91, 0.317577
2389.01, 0.319629
2390.11, 0.321349
2391.22, 0.322541
2392.32, 0.324063
2393.42, 0.325652
2394.53, 0.327042
2395.64, 0.329094
2396.74, 0.331410
2397.85, 0.333992
2398.96, 0.336573
2400.07, 0.338426
2401.18, 0.339882
2402.3, 0.340677
2403.41, 0.340677
2404.52, 0.340412
2405.64, 0.340147
2406.76, 0.340213
2407.88, 0.340147
2408.99, 0.340015
2410.11, 0.339618
2411.23, 0.339221
2412.36, 0.338757
2413.48, 0.338029
2414.6, 0.336838
2415.73, 0.335249
2416.85, 0.334256
2417.98, 0.333330
2419.11, 0.332072
2420.24, 0.330881
2421.37, 0.329226
2422.5, 0.327770
2423.64, 0.326049
2424.77, 0.324460
2425.9, 0.323004
2427.04, 0.321416
2428.18, 0.319761
2429.31, 0.318239
2430.45, 0.315922
2431.59, 0.313076
2432.73, 0.310296
2433.88, 0.307516
2435.02, 0.304537
2436.16, 0.301757
2437.31, 0.299242
2438.45, 0.296595
2439.6, 0.294410
2440.75, 0.292756
2441.9, 0.291432
2443.05, 0.290042
2444.2, 0.288453
2445.35, 0.287130
2446.51, 0.285806
2447.67, 0.284813
2448.82, 0.283555
2449.98, 0.282298
2451.14, 0.281371
2452.3, 0.280444
2453.46, 0.278922
2454.62, 0.277598
2455.78, 0.276407
2456.94, 0.275679
2458.11, 0.275083
2459.28, 0.274156
2460.44, 0.273296
2461.61, 0.273031
2462.78, 0.273164
2463.95, 0.273031
2465.12, 0.273097
2466.3, 0.273164
2467.47, 0.272833
2468.65, 0.272303
2469.82, 0.271906
2471.0, 0.271376
2472.18, 0.270516
2473.36, 0.269986
2474.54, 0.269523
2475.72, 0.268597
2476.9, 0.267802
2478.08, 0.266876
2479.27, 0.265419
2480.46, 0.263897
2481.64, 0.261911
2482.83, 0.259860
2484.02, 0.257543
2485.21, 0.255623
2486.4, 0.253969
2487.6, 0.252645
2488.79, 0.251983
2489.99, 0.251784
2491.18, 0.251321
2492.38, 0.251255
2493.58, 0.250858
2494.78, 0.250262
2495.98, 0.250063
2497.18, 0.249666
2498.39, 0.248806
2499.59, 0.248607
2500.8, 0.248872
2502.01, 0.248806
2503.21, 0.248078
2504.42, 0.247548
2505.63, 0.246953
2506.84, 0.246092
2508.06, 0.245232
2509.27, 0.244173
2510.49, 0.243577
2511.7, 0.243378
2512.92, 0.242849
2514.14, 0.242518
2515.36, 0.242584
2516.58, 0.242518
2517.8, 0.241459
2519.03, 0.240797
2520.25, 0.240797
2521.48, 0.240334
2522.7, 0.239738
2523.93, 0.239076
2525.16, 0.237951
2526.39, 0.237355
2527.62, 0.237024
2528.86, 0.235965
2530.09, 0.235038
2531.33, 0.234774
2532.56, 0.234708
2533.8, 0.234178
2535.04, 0.234112
2536.28, 0.233781
2537.52, 0.232192
2538.76, 0.230604
2540.01, 0.229545
2541.25, 0.228552
2542.5, 0.227361
2543.75, 0.226103
2544.99, 0.224581
2546.24, 0.223654
2547.49, 0.223522
2548.75, 0.223588
2550.0, 0.223455
2551.26, 0.223389
2552.51, 0.223720
2553.77, 0.223455
2555.03, 0.222793
2556.29, 0.222793
2557.55, 0.222860
2558.81, 0.222661
2560.08, 0.223257
2561.34, 0.223786
2562.61, 0.223191
2563.88, 0.222132
2565.14, 0.220411
2566.41, 0.218888
2567.68, 0.218491
2568.96, 0.218954
2570.23, 0.218094
2571.51, 0.216770
2572.78, 0.217035
2574.06, 0.216175
2575.34, 0.214917
2576.62, 0.214917
2577.9, 0.214056
2579.18, 0.213593
2580.47, 0.214387
2581.75, 0.214785
2583.04, 0.215910
2584.32, 0.216307
2585.61, 0.214718
2586.9, 0.214983
2588.2, 0.214851
2589.49, 0.214255
2590.78, 0.212997
2592.08, 0.212534
2593.37, 0.214983
2594.67, 0.217432
2595.97, 0.214255
2597.27, 0.210350
2598.57, 0.208033
2599.88, 0.207305
2601.18, 0.207305
2602.49, 0.207239
2603.79, 0.207040
2605.1, 0.207239
2606.41, 0.205717
2607.72, 0.203731
2609.03, 0.202606
2610.35, 0.201414
2611.66, 0.200223
2612.98, 0.199826
2614.3, 0.199164
2615.62, 0.199362
2616.94, 0.199296
2618.26, 0.197377
2619.58, 0.197377
2620.91, 0.196781
2622.23, 0.194001
2623.56, 0.192082
2624.89, 0.191420
2626.22, 0.191618
2627.55, 0.189302
2628.88, 0.187515
2630.21, 0.187316
2631.55, 0.184337
2632.89, 0.181425
2634.22, 0.179373
2635.56, 0.176726
2636.9, 0.174144
2638.25, 0.171695
2639.59, 0.169710
2640.93, 0.167592
2642.28, 0.165407
2643.63, 0.162892
2644.98, 0.160973
2646.33, 0.158921
2647.68, 0.156339
2649.03, 0.153758
2650.39, 0.151772
2651.74, 0.150448
2653.1, 0.148198
2654.46, 0.145550
2655.82, 0.142969
2657.18, 0.139660
2658.54, 0.136946
2659.9, 0.134232
2661.27, 0.130856
2662.64, 0.127216
2664.01, 0.124833
2665.38, 0.122583
2666.74, 0.118678
2668.12, 0.113846
2669.49, 0.110735
2670.87, 0.106896
2672.24, 0.101667
2673.62, 0.0975630
2675.0, 0.0943200
2676.38, 0.0907460
2677.76, 0.0866420
2679.15, 0.0824060
2680.54, 0.0777060
2681.92, 0.0732720
2683.31, 0.0692340
2684.7, 0.0648660
2686.09, 0.0603650
2687.48, 0.0555990
2688.88, 0.0507010
2690.27, 0.0457370
2691.67, 0.0411700
2693.07, 0.0370660
2694.47, 0.0325650
2695.87, 0.0281970
2697.27, 0.0243580
2698.67, 0.0211140
2700.08, 0.0183340
2701.49, 0.0159520
2702.9, 0.0140980
2704.31, 0.0130390
2705.72, 0.0127750
2707.13, 0.0129070
2708.54, 0.0134360
2709.96, 0.0142310
2711.38, 0.0148260
2712.8, 0.0154880
2714.22, 0.0166800
2715.64, 0.0178050
2717.06, 0.0187320
2718.49, 0.0192610
2719.91, 0.0189960
2721.34, 0.0176060
2722.77, 0.0162160
2724.2, 0.0157530
2725.63, 0.0158190
2727.07, 0.0164810
2728.5, 0.0178710
2729.94, 0.0187980
2731.38, 0.0189960
2732.82, 0.0185330
2734.26, 0.0175400
2735.7, 0.0165470
2737.15, 0.0162160
2738.59, 0.0173420
2740.04, 0.0193270
2741.49, 0.0217100
2742.94, 0.0243580
2744.39, 0.0268730
2745.84, 0.0293880
2747.3, 0.0316390
2748.76, 0.0325650
2750.21, 0.0328960
2751.67, 0.0322340
2753.14, 0.0303810
2754.6, 0.0274020
2756.06, 0.0229020
2757.53, 0.0180040
2759.0, 0.0142970
2760.46, 0.0131720
2761.94, 0.0158190
2763.41, 0.0220410
2764.88, 0.0297850
2766.36, 0.0371980
2767.83, 0.0434200
2769.31, 0.0489140
2770.79, 0.0533490
2772.27, 0.0566580
2773.76, 0.0592390
2775.24, 0.0611590
2776.73, 0.0622180
2778.22, 0.0631450
2779.71, 0.0647990
2781.2, 0.0669840
2782.69, 0.0693000
2784.18, 0.0713520
2785.68, 0.0732050
2787.18, 0.0749930
2788.68, 0.0766470
2790.18, 0.0779710
2791.68, 0.0792950
2793.19, 0.0807510
2794.69, 0.0820750
2796.2, 0.0833320
2797.71, 0.0846560
2799.22, 0.0860460
2800.73, 0.0875020
2802.24, 0.0891570
2803.76, 0.0902160
2805.28, 0.0907460
2806.8, 0.0915400
2808.32, 0.0925330
2809.84, 0.0933270
2811.36, 0.0937900
2812.89, 0.0945180
2814.42, 0.0951800
2815.94, 0.0957760
2817.48, 0.0963060
2819.01, 0.0970340
2820.54, 0.0978280
2822.08, 0.0984240
2823.61, 0.0989530
2825.15, 0.0994830
2826.69, 0.0999460
2828.23, 0.100475
2829.78, 0.100939
2831.32, 0.101535
2832.87, 0.102196
2834.42, 0.102660
2835.97, 0.103057
2837.52, 0.103189
2839.08, 0.103520
2840.63, 0.103984
2842.19, 0.104447
2843.75, 0.105043
2845.31, 0.105572
2846.87, 0.105969
2848.44, 0.106168
2850.0, 0.106565
2851.57, 0.107227
2853.14, 0.107624
2854.71, 0.108418
2856.28, 0.109279
2857.86, 0.109874
2859.43, 0.110536
2861.01, 0.111132
2862.59, 0.111926
2864.17, 0.112522
2865.76, 0.113118
2867.34, 0.113846
2868.93, 0.114508
2870.52, 0.115170
2872.11, 0.115567
2873.7, 0.116030
2875.29, 0.116493
2876.89, 0.116493
2878.49, 0.116427
2880.08, 0.116758
2881.69, 0.117155
2883.29, 0.117221
2884.89, 0.117817
2886.5, 0.118082
2888.11, 0.117883
2889.72, 0.117949
2891.33, 0.118413
2892.94, 0.118876
2894.56, 0.119406
2896.17, 0.120068
2897.79, 0.120663
2899.42, 0.121458
2901.04, 0.122450
2902.66, 0.123245
2904.29, 0.123840
2905.92, 0.124701
2907.55, 0.125429
2909.18, 0.125892
2910.81, 0.126554
2912.45, 0.127084
2914.08, 0.127679
2915.72, 0.128076
2917.36, 0.128341
2919.01, 0.128606
2920.65, 0.128805
2922.3, 0.129202
2923.94, 0.129797
2925.59, 0.130856
2927.25, 0.131982
2928.9, 0.132842
2930.56, 0.133504
2932.21, 0.134166
2933.87, 0.134828
2935.53, 0.135291
2937.2, 0.135821
2938.86, 0.136747
2940.53, 0.137674
2942.2, 0.138336
2943.87, 0.138998
2945.54, 0.139593
2947.22, 0.140123
2948.89, 0.140785
2950.57, 0.141381
2952.25, 0.142109
2953.93, 0.143101
2955.62, 0.143763
2957.3, 0.144227
2958.99, 0.144624
2960.68, 0.145352
2962.37, 0.145948
2964.07, 0.146345
2965.76, 0.147007
2967.46, 0.147933
2969.16, 0.148595
2970.86, 0.148992
2972.56, 0.149522
2974.27, 0.150250
2975.98, 0.150779
2977.69, 0.151375
2979.4, 0.151971
2981.11, 0.152236
2982.83, 0.152831
2984.54, 0.153626
2986.26, 0.154287
2987.98, 0.155148
2989.71, 0.155876
2991.43, 0.156803
2993.16, 0.157663
2994.89, 0.158524
2996.62, 0.159318
2998.35, 0.160244
3000.09, 0.161039
3001.83, 0.161833
3003.57, 0.162694
3005.31, 0.163289
3007.05, 0.164083
3008.79, 0.164878
3010.54, 0.165606
3012.29, 0.166268
3014.04, 0.166930
3015.8, 0.167724
3017.55, 0.168518
3019.31, 0.169312
3021.07, 0.170041
3022.83, 0.170702
3024.59, 0.171364
3026.36, 0.172159
3028.13, 0.172887
3029.9, 0.173615
3031.67, 0.174277
3033.44, 0.174872
3035.22, 0.175336
3037.0, 0.175931
3038.78, 0.176726
3040.56, 0.177520
3042.34, 0.178248
3044.13, 0.179042
3045.92, 0.179903
3047.71, 0.180829
3049.5, 0.181557
3051.3, 0.182219
3053.09, 0.183014
3054.89, 0.183808
3056.69, 0.184470
3058.5, 0.185132
3060.3, 0.185926
3062.11, 0.186654
3063.92, 0.187250
3065.73, 0.187912
3067.55, 0.188574
3069.36, 0.189103
3071.18, 0.189633
3073.0, 0.190427
3074.82, 0.191089
3076.65, 0.191618
3078.48, 0.192280
3080.31, 0.193273
3082.14, 0.193803
3083.97, 0.194531
3085.8, 0.195259
3087.64, 0.195722
3089.48, 0.196251
3091.33, 0.196847
3093.17, 0.197377
3095.02, 0.197906
3096.87, 0.198436
3098.72, 0.198965
3100.57, 0.199760
3102.43, 0.200488
3104.28, 0.201150
3106.14, 0.202010
3108.01, 0.202738
3109.87, 0.203532
3111.74, 0.204327
3113.61, 0.204989
3115.48, 0.205518
3117.35, 0.206246
3119.23, 0.207040
3121.1, 0.207835
3122.98, 0.208695
3124.87, 0.209688
3126.75, 0.210482
3128.64, 0.211144
3130.53, 0.212005
3132.42, 0.212931
3134.31, 0.213659
3136.21, 0.214454
3138.11, 0.215513
3140.01, 0.216241
3141.91, 0.217101
3143.82, 0.218094
3145.73, 0.219021
3147.64, 0.219616
3149.55, 0.220146
3151.46, 0.221139
3153.38, 0.221933
3155.3, 0.222595
3157.22, 0.223257
3159.14, 0.224051
3161.07, 0.224713
3163.0, 0.225242
3164.93, 0.225772
3166.86, 0.226301
3168.8, 0.226897
3170.74, 0.227625
3172.68, 0.228022
3174.62, 0.228618
3176.56, 0.229346
3178.51, 0.230140
3180.46, 0.230935
3182.42, 0.231597
3184.37, 0.232259
3186.33, 0.232920
3188.29, 0.233582
3190.25, 0.234377
3192.21, 0.235171
3194.18, 0.235833
3196.15, 0.236561
3198.12, 0.237421
3200.09, 0.238414
3202.07, 0.239275
3204.05, 0.239870
3206.03, 0.240532
3208.02, 0.241525
3210.0, 0.242584
3211.99, 0.243378
3213.98, 0.244040
3215.98, 0.244834
3217.97, 0.245695
3219.97, 0.246489
3221.97, 0.247416
3223.98, 0.248276
3225.98, 0.249137
3227.99, 0.249931
3230.0, 0.250593
3232.02, 0.251189
3234.03, 0.251983
3236.05, 0.252843
3238.07, 0.253572
3240.1, 0.254366
3242.12, 0.255226
3244.15, 0.256087
3246.18, 0.256815
3248.22, 0.257410
3250.25, 0.258006
3252.29, 0.258668
3254.33, 0.259131
3256.38, 0.259793
3258.43, 0.260654
3260.47, 0.261514
3262.53, 0.262176
3264.58, 0.262838
3266.64, 0.263566
3268.7, 0.264427
3270.76, 0.265287
3272.82, 0.265949
3274.89, 0.266611
3276.96, 0.267339
3279.04, 0.267935
3281.11, 0.268663
3283.19, 0.269457
3285.27, 0.270450
3287.35, 0.271376
3289.44, 0.272303
3291.53, 0.273164
3293.62, 0.273892
3295.71, 0.274818
3297.81, 0.275811
3299.91, 0.276738
3302.01, 0.277598
3304.11, 0.278525
3306.22, 0.279385
3308.33, 0.280378
3310.44, 0.281172
3312.56, 0.281901
3314.68, 0.282695
3316.8, 0.283224
3318.92, 0.283820
3321.05, 0.284548
3323.18, 0.285342
3325.31, 0.286137
3327.44, 0.286799
3329.58, 0.287593
3331.72, 0.288387
3333.86, 0.289115
3336.01, 0.289843
3338.16, 0.290571
3340.31, 0.291233
3342.46, 0.291961
3344.61, 0.292623
3346.77, 0.293219
3348.94, 0.293748
3351.1, 0.294344
3353.27, 0.294807
3355.44, 0.295403
3357.61, 0.296264
3359.79, 0.297058
3361.97, 0.297720
3364.15, 0.298117
3366.33, 0.298646
3368.52, 0.299308
3370.71, 0.299904
3372.9, 0.300500
3375.1, 0.301162
3377.3, 0.301824
3379.5, 0.302353
3381.71, 0.302949
3383.91, 0.303677
3386.12, 0.304339
3388.34, 0.305067
3390.55, 0.305795
3392.77, 0.306391
3394.99, 0.306986
3397.22, 0.307648
3399.45, 0.308178
3401.68, 0.308641
3403.91, 0.309369
3406.15, 0.309700
3408.39, 0.310296
3410.63, 0.310958
3412.87, 0.311620
3415.12, 0.312480
3417.37, 0.313539
3419.63, 0.314598
3421.88, 0.315723
3424.14, 0.316782
3426.41, 0.317841
3428.67, 0.318967
3430.94, 0.320092
3433.21, 0.321217
3435.49, 0.322276
3437.77, 0.323401
3440.05, 0.324527
3442.33, 0.325519
3444.62, 0.326314
3446.91, 0.327174
3449.2, 0.328035
3451.5, 0.329027
3453.8, 0.329888
3456.1, 0.330682
3458.41, 0.331344
3460.72, 0.331940
3463.03, 0.332668
3465.34, 0.333330
3467.66, 0.333661
3469.98, 0.334256
3472.31, 0.334918
3474.63, 0.335580
3476.96, 0.336176
3479.3, 0.336705
3481.64, 0.337169
3483.97, 0.337831
3486.32, 0.338426
3488.66, 0.339022
3491.01, 0.339552
3493.36, 0.340081
3495.72, 0.340544
3498.08, 0.341074
3500.44, 0.341670
3502.81, 0.342331
3505.18, 0.343192
3507.55, 0.344119
3509.92, 0.344847
3512.3, 0.345773
3514.68, 0.346766
3517.06, 0.347759
3519.45, 0.348884
3521.84, 0.349943
3524.24, 0.350738
3526.64, 0.351664
3529.04, 0.352525
3531.44, 0.353385
3533.85, 0.354246
3536.26, 0.354841
3538.67, 0.355371
3541.09, 0.355966
3543.51, 0.356430
3545.93, 0.356695
3548.36, 0.356893
3550.79, 0.356959
3553.22, 0.356827
3555.66, 0.356562
3558.1, 0.356165
3560.54, 0.355503
3562.99, 0.354775
3565.44, 0.354246
3567.9, 0.353981
3570.35, 0.353848
3572.81, 0.353915
3575.28, 0.354246
3577.75, 0.354643
3580.22, 0.355040
3582.69, 0.355371
3585.17, 0.355900
3587.65, 0.356496
3590.14, 0.357026
3592.62, 0.357489
3595.11, 0.357886
3597.61, 0.358283
3600.11, 0.358746
3602.61, 0.359276
3605.11, 0.359805
3607.62, 0.360335
3610.14, 0.360931
3612.65, 0.361659
3615.17, 0.362453
3617.69, 0.363247
3620.22, 0.364174
3622.75, 0.364968
3625.28, 0.365696
3627.82, 0.366424
3630.36, 0.367219
3632.9, 0.367947
3635.45, 0.368542
3638.0, 0.369204
3640.56, 0.369932
3643.12, 0.370528
3645.68, 0.370793
3648.24, 0.370859
3650.81, 0.370925
3653.39, 0.370793
3655.96, 0.370594
3658.54, 0.370330
3661.13, 0.369668
3663.71, 0.369006
3666.3, 0.368079
3668.9, 0.366888
3671.5, 0.365299
3674.1, 0.363049
3676.7, 0.360136
3679.31, 0.355834
3681.93, 0.350274
3684.54, 0.344516
3687.17, 0.340081
3689.79, 0.337500
3692.42, 0.336705
3695.05, 0.337301
3697.69, 0.338823
3700.32, 0.341339
3702.97, 0.344052
3705.61, 0.346700
3708.27, 0.350473
3710.92, 0.356496
3713.58, 0.363314
3716.24, 0.369072
3718.91, 0.373308
3721.58, 0.376684
3724.25, 0.379464
3726.93, 0.381449
3729.61, 0.383170
3732.29, 0.384560
3734.98, 0.385553
3737.67, 0.384693
3740.37, 0.380854
3743.07, 0.379398
3745.78, 0.385487
3748.49, 0.391312
3751.2, 0.393959
3753.91, 0.395349
3756.63, 0.396408
3759.36, 0.397335
3762.09, 0.398063
3764.82, 0.398659
3767.55, 0.399387
3770.29, 0.399982
3773.04, 0.400512
3775.78, 0.400909
3778.54, 0.401439
3781.29, 0.401968
3784.05, 0.402365
3786.82, 0.402829
3789.59, 0.403358
3792.36, 0.403954
3795.13, 0.404417
3797.92, 0.404748
3800.7, 0.405145
3803.49, 0.405609
3806.28, 0.406204
3809.08, 0.406601
3811.88, 0.407065
3814.68, 0.407594
3817.49, 0.408058
3820.31, 0.408388
3823.12, 0.408852
3825.94, 0.409183
3828.77, 0.409447
3831.6, 0.409778
3834.43, 0.410176
3837.27, 0.410440
3840.11, 0.410771
3842.96, 0.411036
3845.81, 0.411168
3848.67, 0.411433
3851.53, 0.411764
3854.39, 0.411896
3857.26, 0.412095
3860.13, 0.412360
3863.01, 0.412360
3865.89, 0.412492
3868.77, 0.412691
3871.66, 0.412691
3874.55, 0.412823
3877.45, 0.412956
3880.35, 0.413088
3883.26, 0.413088
3886.17, 0.413154
3889.09, 0.413088
3892.01, 0.413154
3894.93, 0.413154
3897.86, 0.413154
3900.79, 0.413088
3903.73, 0.413088
3906.67, 0.413154
3909.62, 0.413154
3912.57, 0.413022
3915.52, 0.412956
3918.48, 0.412956
3921.45, 0.412956
3924.42, 0.412823
3927.39, 0.412823
3930.37, 0.412757
3933.35, 0.412426
3936.34, 0.412227
3939.33, 0.412095
3942.32, 0.411830
3945.32, 0.411698
3948.33, 0.411632
3951.34, 0.411566
3954.35, 0.411301
3957.37, 0.411036
3960.39, 0.410771
3963.42, 0.410639
3966.45, 0.410507
3969.49, 0.410374
3972.53, 0.410176
3975.58, 0.409977
3978.63, 0.409778
3981.68, 0.409712
3984.75, 0.409514
3987.81, 0.409249
3990.88, 0.408852
3993.95, 0.408719
3997.03, 0.408653
4000.12, 0.408455
4003.21, 0.408190
4006.3, 0.407859
4009.4, 0.407528
4012.5, 0.407329
4015.61, 0.407065
4018.72, 0.406800
4021.84, 0.406403
4024.96, 0.406204
4028.09, 0.405807
4031.22, 0.405410
4034.36, 0.405013
4037.5, 0.404748
4040.65, 0.404417
4043.8, 0.404020
4046.96, 0.403689
4050.12, 0.403424
4053.29, 0.403093
4056.46, 0.402829
4059.64, 0.402630
4062.82, 0.402299
4066.0, 0.401902
4069.19, 0.401637
4072.39, 0.401240
4075.59, 0.401041
4078.8, 0.400843
4082.01, 0.400512
4085.23, 0.400115
4088.45, 0.399982
4091.68, 0.399718
4094.91, 0.399453
4098.15, 0.399122
4101.39, 0.398857
4104.63, 0.398592
4107.89, 0.398328
4111.14, 0.397931
4114.41, 0.397666
4117.67, 0.397533
4120.95, 0.397202
4124.23, 0.396872
4127.51, 0.396673
4130.8, 0.396408
4134.09, 0.396143
4137.39, 0.395879
4140.7, 0.395680
4144.01, 0.395482
4147.32, 0.395283
4150.64, 0.395151
4153.97, 0.394886
4157.3, 0.394555
4160.64, 0.394224
4163.98, 0.393893
4167.33, 0.393694
4170.68, 0.393430
4174.04, 0.393231
4177.4, 0.393033
4180.77, 0.392834
4184.14, 0.392503
4187.52, 0.392238
4190.91, 0.391973
4194.3, 0.391643
4197.69, 0.391245
4201.1, 0.390914
4204.5, 0.390584
4207.92, 0.390120
4211.34, 0.389657
4214.76, 0.389326
4218.19, 0.388664
4221.62, 0.388002
4225.06, 0.387473
4228.51, 0.387009
4231.96, 0.386480
4235.42, 0.386016
4238.88, 0.385487
4242.35, 0.384957
4245.83, 0.384362
4249.31, 0.383832
4252.79, 0.383104
4256.28, 0.382244
4259.78, 0.380854
4263.29, 0.379530
4266.79, 0.378736
4270.31, 0.378669
4273.83, 0.378934
4277.35, 0.379265
4280.89, 0.379398
4284.42, 0.379398
4287.97, 0.379133
4291.52, 0.378934
4295.07, 0.378669
4298.63, 0.378338
4302.2, 0.377743
4305.78, 0.377081
4309.35, 0.376618
4312.94, 0.376022
4316.53, 0.375228
4320.13, 0.374301
4323.73, 0.373242
4327.34, 0.372315
4330.96, 0.371322
4334.58, 0.370263
4338.21, 0.369138
4341.84, 0.368079
4345.48, 0.366954
4349.12, 0.365829
4352.77, 0.364770
4356.43, 0.363975
4360.1, 0.363115
4363.76, 0.362254
4367.44, 0.361526
4371.12, 0.360997
4374.81, 0.360534
4378.51, 0.360070
4382.21, 0.359805
4385.92, 0.359475
4389.63, 0.358813
4393.35, 0.358151
4397.08, 0.357489
4400.81, 0.356761
4404.55, 0.355834
4408.29, 0.355172
4412.04, 0.354444
4415.8, 0.353782
4419.57, 0.353120
4423.34, 0.352591
4427.12, 0.351929
4430.9, 0.351399
4434.69, 0.350804
4438.49, 0.350208
4442.29, 0.349348
4446.1, 0.348289
4449.92, 0.347097
4453.74, 0.345773
4457.57, 0.344185
4461.41, 0.342464
4465.25, 0.340280
4469.1, 0.337897
4472.95, 0.335382
4476.82, 0.333065
4480.69, 0.331013
4484.56, 0.329358
4488.44, 0.328233
4492.33, 0.327571
4496.23, 0.327373
4500.13, 0.327174
4504.04, 0.326843
4507.96, 0.326843
4511.88, 0.327108
4515.81, 0.327571
4519.75, 0.327902
4523.69, 0.328366
4527.65, 0.328696
4531.6, 0.329027
4535.57, 0.329027
4539.54, 0.328763
4543.52, 0.328167
4547.5, 0.327174
4551.5, 0.325916
4555.5, 0.324593
4559.5, 0.322938
4563.52, 0.321085
4567.54, 0.319231
4571.56, 0.317577
4575.6, 0.315723
4579.64, 0.313738
4583.69, 0.311553
4587.75, 0.309435
4591.81, 0.307185
4595.88, 0.304802
4599.96, 0.302221
4604.04, 0.299375
4608.14, 0.296197
4612.24, 0.292822
4616.34, 0.289380
4620.46, 0.286004
4624.58, 0.282562
4628.71, 0.279319
4632.84, 0.276076
4636.99, 0.272766
4641.14, 0.269656
4645.3, 0.266611
4649.47, 0.263765
4653.64, 0.261249
4657.82, 0.259330
4662.01, 0.257874
4666.21, 0.256947
4670.41, 0.256418
4674.62, 0.256219
4678.84, 0.256021
4683.07, 0.255954
4687.3, 0.256153
4691.54, 0.256153
4695.79, 0.256285
4700.05, 0.256616
4704.31, 0.256947
4708.59, 0.257080
4712.87, 0.257278
4717.15, 0.257477
4721.45, 0.257609
4725.76, 0.257609
4730.07, 0.257609
4734.39, 0.257543
4738.72, 0.257477
4743.05, 0.257477
4747.39, 0.257477
4751.75, 0.257278
4756.1, 0.256881
4760.47, 0.256219
4764.85, 0.255359
4769.23, 0.254300
4773.62, 0.252976
4778.02, 0.251453
4782.43, 0.249799
4786.85, 0.247879
4791.27, 0.245894
4795.7, 0.243776
4800.14, 0.241657
4804.59, 0.239407
4809.05, 0.236958
4813.51, 0.234575
4817.99, 0.232259
4822.47, 0.229876
4826.96, 0.227493
4831.46, 0.225242
4835.96, 0.223191
4840.48, 0.221337
4845.0, 0.219484
4849.54, 0.217895
4854.08, 0.216307
4858.63, 0.214652
4863.18, 0.213064
4867.75, 0.211541
4872.33, 0.209887
4876.91, 0.208033
4881.5, 0.206246
4886.1, 0.204658
4890.71, 0.203135
4895.33, 0.201613
4899.96, 0.200223
4904.59, 0.199031
4909.24, 0.198039
4913.89, 0.197178
4918.55, 0.196384
4923.22, 0.195457
4927.9, 0.194464
4932.59, 0.193538
4937.29, 0.192479
4942.0, 0.191023
4946.71, 0.189235
4951.44, 0.187515
4956.17, 0.185463
4960.91, 0.182947
4965.67, 0.180366
4970.43, 0.177718
4975.2, 0.175137
4979.98, 0.172688
4984.76, 0.170371
4989.56, 0.168320
4994.37, 0.166466
4999.18, 0.164745
5004.01, 0.162892
5008.84, 0.160840
5013.69, 0.158855
5018.54, 0.157001
5023.4, 0.154949
5028.28, 0.152699
5033.16, 0.150316
5038.05, 0.147933
5042.95, 0.145352
5047.86, 0.142572
5052.78, 0.139726
5057.71, 0.136946
5062.65, 0.134034
5067.6, 0.131121
5072.56, 0.128209
5077.53, 0.125297
5082.5, 0.122318
5087.49, 0.119207
5092.49, 0.116162
5097.5, 0.113051
5102.51, 0.110073
5107.54, 0.107161
5112.58, 0.104381
5117.62, 0.101865
5122.68, 0.0997470
5127.75, 0.0978940
5132.82, 0.0962390
5137.91, 0.0947830
5143.01, 0.0935920
5148.12, 0.0925990
5153.23, 0.0916060
5158.36, 0.0908120
5163.5, 0.0904150
5168.65, 0.0900840
5173.81, 0.0898850
5178.98, 0.0898850
5184.15, 0.0898850
5189.34, 0.0900180
5194.54, 0.0902820
5199.75, 0.0906790
5204.98, 0.0910770
5210.21, 0.0916720
5215.45, 0.0920030
5220.7, 0.0923340
5225.96, 0.0929300
5231.23, 0.0935260
5236.52, 0.0941870
5241.81, 0.0948490
5247.12, 0.0955770
5252.44, 0.0963060
5257.76, 0.0971000
5263.1, 0.0978940
5268.45, 0.0986880
5273.81, 0.0994160
5279.18, 0.100012
5284.56, 0.100475
5289.95, 0.100939
5295.36, 0.101204
5300.77, 0.101402
5306.2, 0.101535
5311.63, 0.101535
5317.08, 0.101402
5322.54, 0.101204
5328.01, 0.101071
5333.49, 0.100873
5338.98, 0.100542
5344.49, 0.100343
5350.0, 0.100078
5355.53, 0.0992840
5361.07, 0.0984240
5366.62, 0.0976960
5372.18, 0.0970340
5377.75, 0.0961730
5383.34, 0.0951800
5388.93, 0.0941870
5394.54, 0.0931950
5400.16, 0.0922020
5405.79, 0.0913410
5411.44, 0.0904810
5417.09, 0.0898190
5422.76, 0.0890910
5428.43, 0.0876350
5434.12, 0.0863110
5439.83, 0.0851860
5445.54, 0.0837960
5451.26, 0.0821410
5457.0, 0.0804860
5462.75, 0.0791630
5468.52, 0.0773090
5474.29, 0.0757210
5480.08, 0.0745950
5485.88, 0.0738010
5491.69, 0.0738010
5497.51, 0.0744630
5503.35, 0.0758530
5509.2, 0.0775080
5515.06, 0.0796920
5520.93, 0.0822070
5526.82, 0.0847220
5532.71, 0.0871050
5538.63, 0.0893560
5544.55, 0.0915400
5550.49, 0.0936580
5556.44, 0.0952470
5562.4, 0.0964380
5568.37, 0.0974310
5574.36, 0.0986220
5580.36, 0.0993500
5586.37, 0.0990190
5592.4, 0.0986220
5598.44, 0.0985560
5604.49, 0.0982250
5610.56, 0.0975630
5616.63, 0.0969010
5622.73, 0.0959080
5628.83, 0.0949820
5634.95, 0.0945180
5641.08, 0.0943200
5647.23, 0.0931950
5653.39, 0.0919370
5659.56, 0.0909440
5665.74, 0.0901500
5671.94, 0.0899510
5678.15, 0.0897530
5684.38, 0.0895540
5690.62, 0.0899510
5696.87, 0.0901500
5703.14, 0.0908120
5709.42, 0.0920030
5715.72, 0.0925330
5722.03, 0.0929960
5728.35, 0.0934590
5734.69, 0.0940550
5741.03, 0.0947830
5747.4, 0.0953790
5753.78, 0.0953130
5760.17, 0.0960410
5766.58, 0.0968350
5773.0, 0.0957100
5779.44, 0.0949820
5785.88, 0.0945850
5792.35, 0.0944520
5798.83, 0.0946510
5805.32, 0.0947830
5811.83, 0.0954450
5818.35, 0.0971000
5824.89, 0.0977620
5831.45, 0.0975630
5838.01, 0.0976290
5844.59, 0.0980260
5851.19, 0.0989530
5857.8, 0.100078
5864.43, 0.101204
5871.07, 0.101865
5877.73, 0.104116
5884.4, 0.104844
5891.09, 0.104844
5897.79, 0.105506
5904.5, 0.104381
5911.23, 0.104050
5917.98, 0.104248
5924.75, 0.104381
5931.53, 0.105704
5938.32, 0.106433
5945.13, 0.104976
5951.96, 0.104248
5958.8, 0.104182
5965.65, 0.104976
5972.53, 0.104844
5979.42, 0.104381
5986.32, 0.104645
5993.24, 0.103984
6000.18, 0.102858
6007.13, 0.102594
6014.1, 0.102395
6021.08, 0.101336
6028.09, 0.100409
6035.1, 0.100012
6042.14, 0.101270
6049.19, 0.102726
6056.25, 0.100277
6063.34, 0.0987550
6070.44, 0.0992180
6077.55, 0.0983570
6084.69, 0.0968350
6091.84, 0.0961730
6099.0, 0.0957760
6106.19, 0.0960410
6113.39, 0.0966360
6120.61, 0.0954450
6127.84, 0.0944520
6135.09, 0.0945180
6142.36, 0.0948490
6149.65, 0.0949160
6156.95, 0.0954450
6164.27, 0.0955770
6171.61, 0.0955770
6178.97, 0.0967690
6186.34, 0.0977620
6193.73, 0.0972320
6201.14, 0.0970340
6208.57, 0.0972320
6216.01, 0.0974970
6223.47, 0.0974970
6230.95, 0.0973650
6238.45, 0.0971660
6245.97, 0.0971000
6253.5, 0.0968350
6261.06, 0.0965040
6268.63, 0.0961070
6276.21, 0.0957100
6283.82, 0.0953790
6291.45, 0.0949820
6299.1, 0.0945180
6306.76, 0.0942540
6314.44, 0.0939890
6322.14, 0.0937900
6329.86, 0.0938570
6337.6, 0.0947170
6345.35, 0.0951800
6353.13, 0.0939890
6360.92, 0.0936580
6368.74, 0.0940550
6376.57, 0.0935260
6384.43, 0.0928640
6392.3, 0.0923340
6400.19, 0.0921360
6408.1, 0.0932610
6416.03, 0.0931280
6423.98, 0.0906130
6431.95, 0.0890910
6439.94, 0.0878990
6447.95, 0.0870390
6455.98, 0.0863110
6464.03, 0.0857810
6472.1, 0.0859140
6480.19, 0.0861790
6488.31, 0.0868400
6496.44, 0.0866420
6504.59, 0.0849870
6512.76, 0.0845240
6520.95, 0.0847890
6529.16, 0.0841930
6537.4, 0.0837300
6545.65, 0.0836630
6553.92, 0.0835310
6562.22, 0.0833990
6570.54, 0.0835970
6578.88, 0.0826040
6587.23, 0.0816110
6595.61, 0.0807510
6604.02, 0.0796920
6612.44, 0.0789640
6620.89, 0.0783680
6629.35, 0.0786330
6637.84, 0.0787650
6646.35, 0.0769780
6654.88, 0.0756540
6663.44, 0.0754560
6672.01, 0.0753900
6680.61, 0.0752570
6689.23, 0.0745950
6697.88, 0.0741320
6706.54, 0.0741980
6715.23, 0.0738010
6723.94, 0.0728750
6732.67, 0.0718150
6741.42, 0.0710210
6750.2, 0.0703590
6759.0, 0.0696310
6767.82, 0.0691020
6776.67, 0.0687050
6785.54, 0.0682410
6794.44, 0.0674470
6803.35, 0.0662560
6812.29, 0.0655940
6821.26, 0.0655940
6830.24, 0.0655270
6839.25, 0.0652630
6848.29, 0.0655270
6857.35, 0.0664540
6866.43, 0.0666530
6875.54, 0.0657260
6884.67, 0.0651970
6893.82, 0.0649320
6903.0, 0.0648660
6912.2, 0.0646010
6921.43, 0.0641380
6930.69, 0.0636080
6939.96, 0.0630120
6949.27, 0.0625490
6958.59, 0.0622180
6967.95, 0.0610270
6977.33, 0.0601000
6986.73, 0.0597690
6996.16, 0.0592390
7005.61, 0.0585110
7015.09, 0.0577830
7024.6, 0.0568570
7034.13, 0.0560620
7043.69, 0.0556650
7053.27, 0.0547390
7062.88, 0.0535470
7072.52, 0.0526870
7082.18, 0.0520250
7091.87, 0.0513630
7101.58, 0.0506350
7111.32, 0.0499730
7121.09, 0.0493770
7130.88, 0.0486490
7140.71, 0.0481200
7150.56, 0.0473250
7160.43, 0.0465310
7170.33, 0.0460020
7180.27, 0.0452070
7190.23, 0.0443470
7200.21, 0.0438170
7210.23, 0.0431550
7220.27, 0.0422290
7230.34, 0.0415010
7240.44, 0.0407730
7250.56, 0.0399120
7260.72, 0.0390520
7270.9, 0.0383240
7281.12, 0.0375290
7291.36, 0.0368010
7301.63, 0.0360730
7311.93, 0.0352130
7322.25, 0.0344180
7332.61, 0.0338890
7343.0, 0.0334920
7353.41, 0.0328960
7363.86, 0.0323000
7374.33, 0.0318370
7384.83, 0.0312410
7395.37, 0.0306460
7405.93, 0.0301820
7416.53, 0.0297850
7427.15, 0.0294540
7437.81, 0.0290570
7448.5, 0.0286600
7459.22, 0.0283290
7469.96, 0.0278000
7480.74, 0.0271380
7491.55, 0.0266080
7502.39, 0.0262110
7513.27, 0.0257480
7524.17, 0.0251520
7535.11, 0.0246890
7546.08, 0.0240270
7557.08, 0.0234310
7568.11, 0.0229020
7579.17, 0.0223720
7590.27, 0.0217760
7601.4, 0.0212470
7612.56, 0.0207170
7623.76, 0.0201880
7634.98, 0.0195260
7646.24, 0.0190630
7657.54, 0.0187320
7668.87, 0.0183340
7680.23, 0.0180040
7691.62, 0.0177390
7703.05, 0.0173420
7714.51, 0.0168780
7726.01, 0.0164150
7737.54, 0.0160840
7749.11, 0.0156210
7760.71, 0.0150250
7772.35, 0.0144950
7784.02, 0.0139660
7795.72, 0.0135690
7807.46, 0.0131050
7819.23, 0.0127750
7831.04, 0.0123770
7842.89, 0.0119140
7854.77, 0.0114510
7866.69, 0.0111860
7878.65, 0.0109210
7890.64, 0.0105900
7902.67, 0.0103920
7914.74, 0.0101930
7926.84, 0.0101930
7938.98, 0.0100610
7951.16, 0.00986200
7963.37, 0.00979600
7975.62, 0.00973000
7987.91, 0.00953100
8000.24, 0.00953100
8012.6, 0.00953100
8025.01, 0.00953100
8037.45, 0.00939900
8049.93, 0.00946500
8062.45, 0.00966400
8075.01, 0.00973000
8087.61, 0.00973000
8100.24, 0.00986200
8112.91, 0.00999500
8125.63, 0.0101930
8138.39, 0.0104580
8151.18, 0.0106560
8164.02, 0.0109210
8176.9, 0.0109870
8189.81, 0.0109210
8202.77, 0.0111860
8215.77, 0.0113850
8228.82, 0.0115830
8241.9, 0.0117820
8255.02, 0.0119140
8268.19, 0.0119140
8281.39, 0.0120460
8294.65, 0.0121130
8307.94, 0.0123110
8321.28, 0.0127080
8334.66, 0.0132380
8348.08, 0.0137010
8361.54, 0.0144290
8375.05, 0.0150250
8388.6, 0.0158190
8402.2, 0.0167460
8415.84, 0.0177390
8429.52, 0.0187980
8443.25, 0.0201880
8457.02, 0.0218420
8470.84, 0.0233650
8484.7, 0.0250860
8498.61, 0.0272040
8512.57, 0.0292560
8526.57, 0.0312410
8540.62, 0.0334920
8554.71, 0.0359410
8568.85, 0.0383900
8583.04, 0.0408390
8597.27, 0.0434200
8611.55, 0.0461340
8625.88, 0.0493110
8640.26, 0.0526210
8654.68, 0.0559300
8669.16, 0.0593060
8683.68, 0.0622840
8698.25, 0.0649980
8712.87, 0.0673810
8727.53, 0.0691020
8742.25, 0.0700950
8757.02, 0.0704920
8771.83, 0.0701610
8786.7, 0.0691020
8801.62, 0.0671820
8816.59, 0.0645350
8831.61, 0.0613580
8846.68, 0.0579160
8861.8, 0.0539440
8876.97, 0.0495760
8892.2, 0.0451410
8907.48, 0.0405080
8922.81, 0.0359410
8938.2, 0.0317710
8953.63, 0.0281970
8969.13, 0.0252840
8984.67, 0.0236300
9000.27, 0.0238940
9015.92, 0.0260790
9031.63, 0.0295870
9047.39, 0.0333590
9063.21, 0.0375290
9079.08, 0.0420960
9095.01, 0.0470610
9111.0, 0.0520250
9127.04, 0.0563930
9143.13, 0.0597030
9159.28, 0.0624170
9175.49, 0.0646010
9191.76, 0.0663220
9208.09, 0.0676460
9224.47, 0.0684400
9240.92, 0.0687050
9257.42, 0.0683070
9273.98, 0.0677120
9290.6, 0.0671820
9307.28, 0.0664540
9324.02, 0.0653950
9340.82, 0.0640710
9357.68, 0.0627480
9374.6, 0.0614900
9391.58, 0.0603650
9408.62, 0.0593060
9425.73, 0.0581140
9442.9, 0.0569230
9460.13, 0.0558640
9477.42, 0.0547390
9494.78, 0.0534810
9512.2, 0.0520250
9529.69, 0.0507670
9547.24, 0.0499070
9564.86, 0.0487820
9582.54, 0.0475900
9600.28, 0.0467300
9618.1, 0.0456710
9635.97, 0.0444130
9653.92, 0.0431550
9671.93, 0.0418320
9690.01, 0.0407730
9708.16, 0.0393830
9726.37, 0.0375960
9744.65, 0.0358750
9763.0, 0.0342200
9781.43, 0.0330950
9799.92, 0.0326310
9818.48, 0.0322340
9837.1, 0.0321680
9855.8, 0.0324330
9874.58, 0.0328960
9893.42, 0.0333590
9912.34, 0.0338890
9931.33, 0.0346830
9950.39, 0.0353450
9969.52, 0.0358080
9988.74, 0.0359410
10008.0, 0.0360730
10027.4, 0.0364700
10046.8, 0.0366690
10066.3, 0.0365370
10085.9, 0.0365370
10105.6, 0.0368010
10125.3, 0.0369340
10145.1, 0.0368010
10165.0, 0.0367350
10185.0, 0.0364040
10205.0, 0.0358750
10225.2, 0.0352130
10245.4, 0.0340880
10265.7, 0.0326980
10286.0, 0.0312410
10306.5, 0.0293220
10327.0, 0.0274690
10347.6, 0.0254830
10368.3, 0.0234310
10389.1, 0.0216440
10409.9, 0.0196580
10430.9, 0.0176730
10451.9, 0.0159520
10473.0, 0.0145620
10494.2, 0.0135690
10515.5, 0.0129730
10536.9, 0.0129070
10558.4, 0.0134360
10579.9, 0.0143630
10601.5, 0.0152900
10623.3, 0.0164150
10645.1, 0.0171430
10667.0, 0.0175400
10689.0, 0.0176060
10711.1, 0.0174080
10733.2, 0.0172750
10755.5, 0.0174740
10777.9, 0.0179370
10800.3, 0.0185990
10822.9, 0.0191950
10845.5, 0.0199890
10868.2, 0.0208500
10891.1, 0.0217100
10914.0, 0.0228350
10937.0, 0.0240930
10960.2, 0.0251520
10983.4, 0.0262770
11006.7, 0.0270710
11030.1, 0.0279320
11053.6, 0.0287920
11077.3, 0.0297190
11101.0, 0.0308440
11124.8, 0.0320360
11148.7, 0.0332270
11172.7, 0.0340880
11196.9, 0.0348160
11221.1, 0.0359410
11245.4, 0.0370000
11269.9, 0.0375960
11294.4, 0.0380590
11319.1, 0.0383900
11343.9, 0.0387210
11368.8, 0.0391840
11393.7, 0.0394490
11418.8, 0.0396470
11444.0, 0.0401770
11469.4, 0.0409050
11494.8, 0.0413020
11520.3, 0.0416990
11546.0, 0.0421630
11571.8, 0.0425600
11597.7, 0.0425600
11623.7, 0.0424270
11649.8, 0.0424270
11676.0, 0.0423610
11702.4, 0.0424270
11728.9, 0.0422950
11755.5, 0.0418980
11782.2, 0.0415010
11809.0, 0.0408390
11836.0, 0.0402430
11863.0, 0.0400450
11890.3, 0.0396470
11917.6, 0.0388530
11945.0, 0.0377940
11972.6, 0.0370660
12000.4, 0.0364040
12028.2, 0.0352790
12056.2, 0.0343520
12084.3, 0.0334260
12112.5, 0.0320360
12140.9, 0.0305790
12169.4, 0.0291230
12198.0, 0.0278000
12226.8, 0.0263430
12255.7, 0.0246220
12284.7, 0.0227690
12313.9, 0.0205190
12343.2, 0.0182680
12372.7, 0.0162830
12402.3, 0.0144950
12432.0, 0.0130390
12461.9, 0.0121130
12491.9, 0.0115170
12522.1, 0.0117820
12552.4, 0.0127080
12582.9, 0.0133040
12613.5, 0.0134360
12644.3, 0.0132380
12675.2, 0.0133040
12706.3, 0.0135690
12737.5, 0.0139000
12768.9, 0.0145620
12800.4, 0.0153560
12832.1, 0.0157530
12863.9, 0.0157530
12895.9, 0.0155550
12928.1, 0.0148930
12960.4, 0.0140980
12992.9, 0.0135030
13025.5, 0.0129730
13058.3, 0.0125100
13091.3, 0.0119800
13124.4, 0.0115170
13157.8, 0.0110540
13191.2, 0.0106560
13224.9, 0.0105240
13258.7, 0.0104580
13292.7, 0.0107230
13326.9, 0.0109870
13361.2, 0.0113180
13395.7, 0.0116490
13430.4, 0.0117820
13465.3, 0.0121130
13500.4, 0.0121790
13535.7, 0.0120460
13571.1, 0.0119140
13606.7, 0.0117160
13642.5, 0.0113180
13678.5, 0.0106560
13714.7, 0.0101930
13751.1, 0.00986200
13787.6, 0.00920000
13824.4, 0.00834000
13861.4, 0.00767800
13898.5, 0.00714800
13935.9, 0.00681800
13973.5, 0.00642000
14011.2, 0.00622200
14049.2, 0.00589100
14087.4, 0.00595700
14125.8, 0.00661900
14164.3, 0.00695000
14203.2, 0.00761200
14242.2, 0.00834000
14281.4, 0.00853800
14320.9, 0.00900200
14360.5, 0.00973000
14400.4, 0.00992800
14440.5, 0.00999500
14480.9, 0.0103260
14521.4, 0.0107230
14562.2, 0.0109210
14603.3, 0.0107230
14644.5, 0.0109870
14686.0, 0.0112520
14727.7, 0.0115170
14769.7, 0.0115170
14811.9, 0.0117820
14854.3, 0.0119140
14897.0, 0.0119140
14939.9, 0.0119800
14983.1, 0.0116490
15026.5, 0.0119140
15070.2, 0.0123770
15114.2, 0.0123770
15158.3, 0.0125100
15202.8, 0.0128410
15247.5, 0.0130390
15292.5, 0.0137010
15337.7, 0.0140320
15383.2, 0.0140980
15429.0, 0.0142310
15475.1, 0.0144950
15521.4, 0.0147600
15568.0, 0.0148260
15614.9, 0.0148260
15662.1, 0.0149590
15709.6, 0.0152900
15757.3, 0.0153560
15805.4, 0.0162160
15853.7, 0.0175400
15902.3, 0.0189300
15951.2, 0.0203860
16000.5, 0.0218420
16050.0, 0.0238280
16099.8, 0.0262770
16150.0, 0.0283950
16200.5, 0.0301160
16251.3, 0.0323670
16302.4, 0.0341540
16353.8, 0.0348820
16405.5, 0.0353450
16457.6, 0.0354780
16510.0, 0.0352130
16562.8, 0.0352790
16615.9, 0.0358080
16669.3, 0.0367350
16723.1, 0.0376620
16777.2, 0.0384560
16831.7, 0.0402430
16886.5, 0.0413020
16941.7, 0.0412360
16997.2, 0.0416990
17053.1, 0.0424270
17109.4, 0.0424940
17166.1, 0.0426260
17223.1, 0.0430230
17280.5, 0.0432880
17338.3, 0.0436850
17396.5, 0.0438170
17455.1, 0.0437510
17514.0, 0.0438840
17573.4, 0.0434860
17633.2, 0.0432220
17693.4, 0.0432220
17754.0, 0.0434860
17815.0, 0.0433540
17876.4, 0.0432220
17938.3, 0.0428250
18000.5, 0.0422290
18063.3, 0.0422950
18126.4, 0.0423610
18190.0, 0.0418980
18254.1, 0.0420960
18318.6, 0.0424940
18383.5, 0.0425600
18449.0, 0.0425600
18514.9, 0.0437510
18581.2, 0.0434200
18648.0, 0.0431550
18715.4, 0.0428250
18783.2, 0.0419640
18851.5, 0.0416330
18920.3, 0.0408390
18989.6, 0.0409710
19059.4, 0.0403760
19129.7, 0.0383240
19200.6, 0.0366690
19272.0, 0.0351470
19343.9, 0.0341540
19416.3, 0.0330950
19489.3, 0.0305130
19562.8, 0.0285280
19637.0, 0.0258800
19711.6, 0.0249530
19786.8, 0.0256810
19862.6, 0.0240930
19939.0, 0.0227030
20016.0, 0.0218420
20093.6, 0.0209160
20171.8, 0.0197910
20250.6, 0.0199230
20330.0, 0.0206510
20410.0, 0.0225710
20490.7, 0.0250200
20572.0, 0.0267410
20654.0, 0.0279320
20736.6, 0.0301160
20819.9, 0.0323670
20903.8, 0.0331610
20988.5, 0.0355440
21073.8, 0.0389860
21159.8, 0.0415670
21246.5, 0.0420960
21334.0, 0.0429570
21422.1, 0.0448100
21511.0, 0.0444790
21600.7, 0.0430230
21691.0, 0.0424270
21782.1, 0.0418320
21874.0, 0.0409710
21966.7, 0.0399120
22060.2, 0.0375960
22154.5, 0.0358750
22249.6, 0.0373310
22345.5, 0.0368010
22442.2, 0.0357420
22539.8, 0.0354780
22638.2, 0.0342200
22737.5, 0.0336240
22837.7, 0.0346830
22938.7, 0.0383240
23040.7, 0.0408390
23143.5, 0.0413680
23247.3, 0.0414290
23352.1, 0.0417920
23457.7, 0.0425190
23564.4, 0.0425190
23672.0, 0.0418530
23780.5, 0.0410650
23890.1, 0.0419740
24000.7, 0.0425800
24112.3, 0.0422770
24225.0, 0.0436090
24338.7, 0.0475460
24453.5, 0.0461530
24569.4, 0.0447600
24686.4, 0.0462140
24804.5, 0.0465770
24923.8, 0.0460930
25044.2, 0.0462740
25165.8, 0.0463350
25288.6, 0.0453660
25412.5, 0.0443360
25537.7, 0.0431850
25664.1, 0.0425190
25791.8, 0.0413680
25920.8, 0.0397940
26051.1, 0.0379760
26182.6, 0.0360990
26315.5, 0.0339790
26449.8, 0.0330700
26585.4, 0.0318590
26722.5, 0.0304660
26860.9, 0.0298600
27000.8, 0.0301030
27142.1, 0.0298000
27285.0, 0.0291940
27429.4, 0.0290730
27575.3, 0.0284670
27722.7, 0.0274380
27871.8, 0.0261050
28022.4, 0.0232580
28174.7, 0.0222890
28328.7, 0.0233790
28484.4, 0.0257420
28641.7, 0.0298000
28800.9, 0.0326460
28961.8, 0.0333130
29124.5, 0.0338580
29289.0, 0.0348870
29455.4, 0.0360380
29623.8, 0.0382190
29794.0, 0.0403390
29966.3, 0.0414890
30140.5, 0.0422160
30316.7, 0.0421560
30495.1, 0.0421560
30675.5, 0.0424590
30858.1, 0.0428220
31042.8, 0.0427610
31229.8, 0.0430640
31419.1, 0.0439120
31610.7, 0.0445780
31804.6, 0.0444570
32000.9, 0.0432460
32199.7, 0.0420950
32400.9, 0.0413680
32604.8, 0.0408230
32811.1, 0.0391880
33020.1, 0.0373100
33231.8, 0.0373100
33446.2, 0.0368860
33663.4, 0.0354330
33883.4, 0.0339180
34106.3, 0.0328890
34332.1, 0.0311320
34561.0, 0.0284070
34792.9, 0.0267710
35028.0, 0.0265900
35266.3, 0.0265900
35507.8, 0.0280430
35752.7, 0.0301030
36001.0, 0.0331310
36252.8, 0.0352510
36508.1, 0.0384610
36767.0, 0.0434880
37029.7, 0.0473040
37296.1, 0.0490610
37566.3, 0.0508780
37840.5, 0.0523920
38118.8, 0.0534820
38401.2, 0.0549960
38687.8, 0.0577820
38978.6, 0.0594180
39273.9, 0.0591150
39573.7, 0.0568740
39878.1, 0.0547540
40187.3, 0.0527550
40501.2, 0.0514830
40820.0, 0.0513020
41144.0, 0.0517860
41473.2, 0.0533000
41807.6, 0.0564500
42147.5, 0.0571160
42493.0, 0.0564500
42844.2, 0.0571160
43201.2, 0.0592360
43564.3, 0.0604470
43933.5, 0.0604470
44309.0, 0.0616590
44691.0, 0.0627490
45079.6, 0.0629910
45475.0, 0.0636580
45877.5, 0.0657170
46287.1, 0.0669890
46704.2, 0.0665650
47128.7, 0.0632340
47561.1, 0.0580250
48001.5, 0.0551170
48450.1, 0.0549960
48907.2, 0.0499690
49373.0, 0.0425800
49847.7, 0.0379160
50331.5, 0.0335550
50825.0, 0.0339180
51328.2, 0.0370680
51841.5, 0.0395510
52365.1, 0.0418530
52899.4, 0.0450020
53444.8, 0.0472430
54001.5, 0.0496660
54570.1, 0.0517860
55150.6, 0.0548150
55743.6, 0.0559650
56349.5, 0.0559650
56968.7, 0.0579640
57601.7, 0.0589940
58248.9, 0.0592360
58910.9, 0.0591150
59588.1, 0.0599630
60281.0, 0.0614170
60990.2, 0.0628100
61716.3, 0.0635360
62459.8, 0.0633550
63221.6, 0.0628700
64002.1, 0.0639000
64802.1, 0.0653530
65622.1, 0.0652320
66463.4, 0.0645660
67326.6, 0.0648690
68212.4, 0.0665650
69121.9, 0.0686850
70056.0, 0.0673520
71015.7, 0.0648690
72002.0, 0.0647480
73016.3, 0.0652930
74059.4, 0.0577220
75132.7, 0.0474860
76237.6, 0.0480310
77375.5, 0.0528160
78547.9, 0.0534820
79756.3, 0.0511800
81002.5, 0.0486970
82288.5, 0.0436700
83615.7, 0.0439120
84986.5, 0.0497870
86402.9, 0.0525130
87867.4, 0.0548750
89382.4, 0.0591150
90950.5, 0.0641420
92574.6, 0.0696540
94257.2, 0.0694720
96002.7, 0.0777090
97814.1, 0.0819490
99695.1, 0.0712890
101650.0, 0.0725610
103683.0, 0.0759530
105799.0, 0.0821310
108003.0, 0.0856440
110301.0, 0.0835240
112699.0, 0.0873400
115204.0, 0.100423
117822.0, 0.102058
120562.0, 0.101695
123433.0, 0.100786
126443.0, 0.0992720
129604.0, 0.103693
132926.0, 0.108842
136424.0, 0.114051
140111.0, 0.125013
144003.0, 0.120713
148118.0, 0.122167
152474.0, 0.129677
157095.0, 0.133554
162004.0, 0.149725
167231.0, 0.182917
172805.0, 0.187460
178764.0, 0.187339
185148.0, 0.226284
192005.0, 0.256568
199390.0, 0.261596
207366.0, 0.255660
216006.0, 0.167230
