Database of Origin, USGS Spectral Database
Sample Description, See USGS database for additional info
Date Added,2016-08-10 05:00:55.765966

Data ID,USGS_kao15          
Sample ID, kaolinite_kga2.12230
Mineral Name, kaolinite
Material Class,Phyllosilicate

Wavelength
1369.66, 0.817126
1370.02, 0.816429
1370.38, 0.815848
1370.74, 0.814628
1371.11, 0.814047
1371.47, 0.813524
1371.83, 0.812536
1372.19, 0.811316
1372.56, 0.810793
1372.92, 0.809689
1373.29, 0.808120
1373.65, 0.806493
1374.01, 0.804924
1374.38, 0.803646
1374.74, 0.802426
1375.11, 0.801264
1375.47, 0.799346
1375.84, 0.797371
1376.2, 0.795860
1376.57, 0.793768
1376.93, 0.791677
1377.3, 0.790689
1377.67, 0.788655
1378.03, 0.785808
1378.4, 0.783135
1378.76, 0.780637
1379.13, 0.778603
1379.5, 0.775756
1379.87, 0.772734
1380.23, 0.768958
1380.6, 0.766924
1380.97, 0.766227
1381.34, 0.765123
1381.7, 0.763205
1382.07, 0.760416
1382.44, 0.757046
1382.81, 0.755594
1383.18, 0.754896
1383.55, 0.753095
1383.92, 0.751294
1384.29, 0.748853
1384.66, 0.746413
1385.03, 0.745077
1385.4, 0.743973
1385.77, 0.741997
1386.14, 0.739557
1386.51, 0.736651
1386.88, 0.734501
1387.25, 0.732177
1387.62, 0.729563
1387.99, 0.727355
1388.36, 0.725205
1388.74, 0.723171
1389.11, 0.720498
1389.48, 0.717419
1389.85, 0.714746
1390.23, 0.712364
1390.6, 0.709807
1390.97, 0.707715
1391.35, 0.705624
1391.72, 0.703183
1392.09, 0.700452
1392.47, 0.698883
1392.84, 0.697373
1393.21, 0.695629
1393.59, 0.694467
1393.96, 0.693712
1394.34, 0.692318
1394.71, 0.691737
1395.09, 0.691737
1395.46, 0.691795
1395.84, 0.691678
1396.22, 0.692027
1396.59, 0.693770
1396.97, 0.695107
1397.35, 0.695513
1397.72, 0.696036
1398.1, 0.696850
1398.48, 0.697315
1398.85, 0.697896
1399.23, 0.698128
1399.61, 0.698244
1399.99, 0.698360
1400.37, 0.698418
1400.74, 0.698593
1401.12, 0.699116
1401.5, 0.699232
1401.88, 0.698825
1402.26, 0.698012
1402.64, 0.697256
1403.02, 0.697198
1403.4, 0.697431
1403.78, 0.697140
1404.16, 0.696908
1404.54, 0.696385
1404.92, 0.696036
1405.3, 0.696850
1405.68, 0.697373
1406.06, 0.697547
1406.44, 0.697431
1406.83, 0.697779
1407.21, 0.697721
1407.59, 0.697779
1407.97, 0.698244
1408.35, 0.698128
1408.74, 0.696850
1409.12, 0.695746
1409.5, 0.693828
1409.89, 0.690865
1410.27, 0.687379
1410.65, 0.682265
1411.04, 0.675583
1411.42, 0.667914
1411.81, 0.658384
1412.19, 0.646880
1412.58, 0.632876
1412.96, 0.618060
1413.35, 0.602371
1413.73, 0.586218
1414.12, 0.571750
1414.5, 0.561756
1414.89, 0.559083
1415.28, 0.565824
1415.66, 0.580757
1416.05, 0.600570
1416.44, 0.621255
1416.82, 0.640604
1417.21, 0.657164
1417.6, 0.670761
1417.98, 0.682614
1418.37, 0.692143
1418.76, 0.699929
1419.15, 0.706669
1419.54, 0.712770
1419.93, 0.718000
1420.32, 0.721428
1420.71, 0.724391
1421.09, 0.727645
1421.48, 0.730318
1421.88, 0.732119
1422.27, 0.734153
1422.66, 0.735547
1423.05, 0.735896
1423.44, 0.736535
1423.83, 0.737349
1424.22, 0.737814
1424.61, 0.738104
1425.0, 0.739034
1425.39, 0.740544
1425.78, 0.742520
1426.18, 0.744205
1426.57, 0.745483
1426.96, 0.747110
1427.36, 0.748505
1427.75, 0.749376
1428.14, 0.750597
1428.54, 0.751991
1428.93, 0.752979
1429.32, 0.753444
1429.72, 0.754083
1430.11, 0.754954
1430.51, 0.755652
1430.9, 0.756581
1431.3, 0.756756
1431.69, 0.756756
1432.09, 0.757511
1432.48, 0.757685
1432.88, 0.758325
1433.28, 0.758615
1433.67, 0.758964
1434.07, 0.759254
1434.46, 0.759312
1434.86, 0.759312
1435.26, 0.759370
1435.66, 0.759254
1436.05, 0.759428
1436.45, 0.759428
1436.85, 0.759545
1437.25, 0.759603
1437.65, 0.759777
1438.05, 0.760010
1438.44, 0.760242
1438.84, 0.759951
1439.24, 0.759893
1439.64, 0.760068
1440.04, 0.760126
1440.44, 0.760184
1440.84, 0.759835
1441.24, 0.759893
1441.65, 0.760068
1442.05, 0.760300
1442.45, 0.759893
1442.85, 0.759603
1443.25, 0.759719
1443.65, 0.759835
1444.05, 0.759312
1444.46, 0.759370
1444.86, 0.759428
1445.26, 0.758906
1445.67, 0.758441
1446.07, 0.758557
1446.47, 0.758615
1446.88, 0.758557
1447.28, 0.758266
1447.68, 0.758034
1448.09, 0.758208
1448.49, 0.758034
1448.9, 0.757627
1449.3, 0.757221
1449.71, 0.757337
1450.11, 0.757337
1450.52, 0.757395
1450.93, 0.757453
1451.33, 0.757569
1451.74, 0.757221
1452.14, 0.757279
1452.55, 0.757511
1452.96, 0.757569
1453.36, 0.757162
1453.77, 0.757104
1454.18, 0.757337
1454.59, 0.757162
1455.0, 0.756930
1455.41, 0.756756
1455.81, 0.756465
1456.22, 0.756349
1456.63, 0.756291
1457.04, 0.755942
1457.45, 0.755768
1457.86, 0.755652
1458.27, 0.756058
1458.68, 0.755942
1459.09, 0.755652
1459.5, 0.755710
1459.91, 0.755652
1460.32, 0.755129
1460.74, 0.755303
1461.15, 0.755245
1461.56, 0.754954
1461.97, 0.754606
1462.39, 0.754490
1462.8, 0.754606
1463.21, 0.754141
1463.62, 0.754199
1464.04, 0.754199
1464.45, 0.753909
1464.86, 0.753734
1465.28, 0.753502
1465.69, 0.753153
1466.11, 0.753211
1466.52, 0.753153
1466.94, 0.752863
1467.35, 0.752223
1467.77, 0.752107
1468.18, 0.752282
1468.6, 0.752456
1469.02, 0.752398
1469.43, 0.751875
1469.85, 0.751933
1470.27, 0.751701
1470.68, 0.751642
1471.1, 0.751468
1471.52, 0.751526
1471.94, 0.751410
1472.35, 0.751236
1472.77, 0.750945
1473.19, 0.750771
1473.61, 0.750597
1474.03, 0.750655
1474.45, 0.750771
1474.87, 0.751061
1475.29, 0.750887
1475.71, 0.750538
1476.13, 0.750597
1476.55, 0.750538
1476.97, 0.750248
1477.39, 0.750306
1477.81, 0.750248
1478.23, 0.750248
1478.65, 0.750074
1479.07, 0.749899
1479.5, 0.749667
1479.92, 0.750132
1480.34, 0.749899
1480.76, 0.749841
1481.19, 0.749899
1481.61, 0.749783
1482.03, 0.749434
1482.46, 0.749725
1482.88, 0.749725
1483.31, 0.749434
1483.73, 0.748853
1484.16, 0.749028
1484.58, 0.749434
1485.01, 0.749609
1485.43, 0.749318
1485.86, 0.749318
1486.28, 0.749434
1486.71, 0.749202
1487.14, 0.749086
1487.56, 0.748911
1487.99, 0.749434
1488.42, 0.749493
1488.84, 0.748853
1489.27, 0.748795
1489.7, 0.749086
1490.13, 0.749202
1490.56, 0.748970
1490.98, 0.748621
1491.41, 0.748563
1491.84, 0.749028
1492.27, 0.749028
1492.7, 0.748737
1493.13, 0.748272
1493.56, 0.748098
1493.99, 0.747517
1494.42, 0.747168
1494.85, 0.747168
1495.29, 0.747285
1495.72, 0.746936
1496.15, 0.746994
1496.58, 0.747110
1497.01, 0.747285
1497.44, 0.747110
1497.88, 0.747052
1498.31, 0.747459
1498.74, 0.747575
1499.18, 0.747866
1499.61, 0.748156
1500.04, 0.748040
1500.48, 0.748272
1500.91, 0.748563
1501.35, 0.748795
1501.78, 0.749260
1502.22, 0.749434
1502.65, 0.749434
1503.09, 0.749493
1503.53, 0.749551
1503.96, 0.749899
1504.4, 0.749841
1504.83, 0.750248
1505.27, 0.750016
1505.71, 0.749899
1506.15, 0.750016
1506.58, 0.750190
1507.02, 0.750248
1507.46, 0.750016
1507.9, 0.750538
1508.34, 0.750655
1508.78, 0.750713
1509.21, 0.751120
1509.66, 0.751003
1510.09, 0.751061
1510.53, 0.751410
1510.97, 0.751584
1511.42, 0.751236
1511.86, 0.751294
1512.3, 0.751352
1512.74, 0.751294
1513.18, 0.751236
1513.62, 0.751642
1514.06, 0.751875
1514.51, 0.751584
1514.95, 0.751701
1515.39, 0.751759
1515.83, 0.751701
1516.28, 0.751468
1516.72, 0.751701
1517.16, 0.752165
1517.61, 0.752049
1518.05, 0.752165
1518.5, 0.752107
1518.94, 0.751817
1519.39, 0.751991
1519.83, 0.752165
1520.28, 0.752282
1520.73, 0.752049
1521.17, 0.751991
1521.62, 0.752398
1522.07, 0.752398
1522.51, 0.752165
1522.96, 0.752049
1523.41, 0.752282
1523.85, 0.752165
1524.3, 0.752456
1524.75, 0.752514
1525.2, 0.752514
1525.65, 0.752514
1526.1, 0.752456
1526.55, 0.752398
1527.0, 0.752456
1527.45, 0.752572
1527.9, 0.752746
1528.35, 0.752805
1528.8, 0.752746
1529.25, 0.752921
1529.7, 0.753327
1530.15, 0.753269
1530.6, 0.752863
1531.05, 0.752863
1531.51, 0.752863
1531.96, 0.753153
1532.41, 0.753269
1532.87, 0.753327
1533.32, 0.753676
1533.77, 0.753211
1534.23, 0.753386
1534.68, 0.753734
1535.14, 0.753560
1535.59, 0.753792
1536.05, 0.754025
1536.5, 0.754373
1536.96, 0.754780
1537.41, 0.754722
1537.87, 0.754548
1538.32, 0.754431
1538.78, 0.754664
1539.24, 0.754838
1539.7, 0.755013
1540.15, 0.755419
1540.61, 0.755768
1541.07, 0.755942
1541.53, 0.755652
1541.98, 0.755884
1542.44, 0.755942
1542.9, 0.755826
1543.36, 0.755884
1543.82, 0.756233
1544.28, 0.756523
1544.74, 0.756639
1545.2, 0.756349
1545.66, 0.756756
1546.12, 0.757162
1546.59, 0.757221
1547.05, 0.757221
1547.51, 0.757279
1547.97, 0.757279
1548.43, 0.757569
1548.9, 0.757685
1549.36, 0.757802
1549.82, 0.758150
1550.29, 0.758441
1550.75, 0.758557
1551.21, 0.758615
1551.68, 0.759022
1552.14, 0.758906
1552.61, 0.758789
1553.07, 0.759022
1553.54, 0.759370
1554.0, 0.759487
1554.47, 0.759777
1554.93, 0.759487
1555.4, 0.759312
1555.87, 0.759603
1556.34, 0.760010
1556.8, 0.760126
1557.27, 0.760126
1557.74, 0.760416
1558.21, 0.760649
1558.68, 0.760881
1559.14, 0.761114
1559.61, 0.761288
1560.08, 0.761462
1560.55, 0.761695
1561.02, 0.761578
1561.49, 0.761520
1561.96, 0.761869
1562.43, 0.762159
1562.9, 0.762276
1563.38, 0.761927
1563.85, 0.762334
1564.32, 0.762682
1564.79, 0.763089
1565.26, 0.762915
1565.74, 0.762973
1566.21, 0.763089
1566.68, 0.763321
1567.16, 0.762973
1567.63, 0.763031
1568.1, 0.763263
1568.58, 0.763380
1569.05, 0.763612
1569.53, 0.763903
1570.0, 0.764135
1570.48, 0.764193
1570.96, 0.764367
1571.43, 0.764484
1571.91, 0.764542
1572.39, 0.764716
1572.86, 0.765181
1573.34, 0.765239
1573.82, 0.765297
1574.3, 0.765530
1574.77, 0.765530
1575.25, 0.765704
1575.73, 0.765646
1576.21, 0.765471
1576.69, 0.765588
1577.17, 0.765994
1577.65, 0.766285
1578.13, 0.766633
1578.61, 0.766575
1579.09, 0.766808
1579.57, 0.766982
1580.05, 0.766924
1580.54, 0.767098
1581.02, 0.767331
1581.5, 0.767621
1581.98, 0.767854
1582.47, 0.767796
1582.95, 0.767679
1583.43, 0.767854
1583.92, 0.767796
1584.4, 0.767796
1584.88, 0.767854
1585.37, 0.768028
1585.85, 0.768260
1586.34, 0.768202
1586.82, 0.768493
1587.31, 0.768609
1587.8, 0.768783
1588.28, 0.768783
1588.77, 0.768783
1589.26, 0.768841
1589.74, 0.769248
1590.23, 0.769248
1590.72, 0.769132
1591.21, 0.769190
1591.7, 0.769364
1592.19, 0.769481
1592.67, 0.769539
1593.16, 0.769481
1593.65, 0.769829
1594.14, 0.770062
1594.63, 0.770236
1595.12, 0.770178
1595.61, 0.770120
1596.11, 0.770294
1596.6, 0.770701
1597.09, 0.770643
1597.58, 0.770585
1598.08, 0.771049
1598.57, 0.771340
1599.06, 0.771340
1599.55, 0.771224
1600.05, 0.771282
1600.54, 0.771630
1601.04, 0.771921
1601.53, 0.771805
1602.03, 0.772212
1602.52, 0.772560
1603.02, 0.772560
1603.51, 0.772502
1604.01, 0.772793
1604.5, 0.772909
1605.0, 0.772909
1605.5, 0.772909
1606.0, 0.773025
1606.49, 0.773025
1606.99, 0.773257
1607.49, 0.773780
1607.99, 0.774071
1608.49, 0.774071
1608.99, 0.773955
1609.49, 0.774071
1609.99, 0.774245
1610.49, 0.774710
1610.99, 0.774652
1611.49, 0.774594
1611.99, 0.774768
1612.49, 0.775059
1612.99, 0.775407
1613.49, 0.775523
1614.0, 0.775582
1614.5, 0.775756
1615.0, 0.775988
1615.51, 0.776337
1616.01, 0.776337
1616.51, 0.776453
1617.02, 0.776511
1617.52, 0.776744
1618.03, 0.776744
1618.53, 0.776918
1619.04, 0.777034
1619.54, 0.777208
1620.05, 0.777208
1620.55, 0.777441
1621.06, 0.777673
1621.57, 0.777906
1622.08, 0.778138
1622.58, 0.778196
1623.09, 0.778545
1623.6, 0.778429
1624.11, 0.778254
1624.62, 0.778371
1625.13, 0.779010
1625.64, 0.779010
1626.15, 0.778835
1626.66, 0.778777
1627.17, 0.778894
1627.68, 0.779417
1628.19, 0.779823
1628.7, 0.779939
1629.21, 0.780056
1629.72, 0.780230
1630.24, 0.780520
1630.75, 0.780753
1631.26, 0.781101
1631.78, 0.780869
1632.29, 0.780811
1632.8, 0.780869
1633.32, 0.780985
1633.83, 0.781276
1634.35, 0.781218
1634.86, 0.781276
1635.38, 0.781450
1635.9, 0.781508
1636.41, 0.781683
1636.93, 0.781915
1637.45, 0.781915
1637.96, 0.781973
1638.48, 0.781799
1639.0, 0.782031
1639.52, 0.782147
1640.04, 0.782206
1640.56, 0.782438
1641.08, 0.783077
1641.59, 0.783193
1642.11, 0.783077
1642.63, 0.783426
1643.16, 0.783658
1643.68, 0.783600
1644.2, 0.783368
1644.72, 0.783600
1645.24, 0.783774
1645.76, 0.783832
1646.29, 0.783891
1646.81, 0.783949
1647.33, 0.784123
1647.86, 0.784239
1648.38, 0.784297
1648.9, 0.783949
1649.43, 0.784123
1649.95, 0.784355
1650.48, 0.784472
1651.0, 0.784472
1651.53, 0.784355
1652.06, 0.784414
1652.58, 0.784704
1653.11, 0.784762
1653.64, 0.784588
1654.17, 0.784704
1654.69, 0.784762
1655.22, 0.784820
1655.75, 0.784994
1656.28, 0.785169
1656.81, 0.785227
1657.34, 0.785169
1657.87, 0.785343
1658.4, 0.785343
1658.93, 0.785401
1659.46, 0.785576
1659.99, 0.785692
1660.52, 0.785576
1661.05, 0.785576
1661.59, 0.785750
1662.12, 0.785750
1662.65, 0.785866
1663.19, 0.786099
1663.72, 0.786331
1664.26, 0.786447
1664.79, 0.786505
1665.32, 0.786273
1665.86, 0.786389
1666.39, 0.786563
1666.93, 0.786505
1667.47, 0.786563
1668.0, 0.786738
1668.54, 0.787086
1669.08, 0.787086
1669.61, 0.787319
1670.15, 0.787261
1670.69, 0.787319
1671.23, 0.787551
1671.77, 0.787842
1672.31, 0.787725
1672.85, 0.787609
1673.39, 0.787725
1673.93, 0.788132
1674.47, 0.788248
1675.01, 0.788307
1675.55, 0.788307
1676.09, 0.788248
1676.64, 0.788248
1677.18, 0.788248
1677.72, 0.788365
1678.26, 0.788655
1678.81, 0.788597
1679.35, 0.788655
1679.89, 0.789004
1680.44, 0.789004
1680.98, 0.788888
1681.53, 0.789120
1682.07, 0.789120
1682.62, 0.789178
1683.17, 0.789062
1683.71, 0.789062
1684.26, 0.789527
1684.81, 0.789701
1685.36, 0.789875
1685.9, 0.789992
1686.45, 0.790224
1687.0, 0.790050
1687.55, 0.790166
1688.1, 0.790282
1688.65, 0.790456
1689.2, 0.790573
1689.75, 0.790689
1690.3, 0.790863
1690.85, 0.791037
1691.41, 0.791037
1691.96, 0.791212
1692.51, 0.791502
1693.06, 0.791270
1693.61, 0.791212
1694.17, 0.791328
1694.72, 0.791328
1695.28, 0.791328
1695.83, 0.791502
1696.39, 0.791502
1696.94, 0.791735
1697.5, 0.792025
1698.05, 0.792199
1698.61, 0.792141
1699.17, 0.792258
1699.72, 0.792258
1700.28, 0.792490
1700.84, 0.792606
1701.4, 0.792548
1701.95, 0.792432
1702.51, 0.792490
1703.07, 0.792432
1703.63, 0.792141
1704.19, 0.792548
1704.75, 0.792897
1705.31, 0.792781
1705.88, 0.792548
1706.44, 0.792432
1707.0, 0.792606
1707.56, 0.792781
1708.12, 0.792955
1708.69, 0.793013
1709.25, 0.792955
1709.81, 0.792955
1710.38, 0.793129
1710.94, 0.793245
1711.51, 0.793245
1712.07, 0.793071
1712.64, 0.793013
1713.2, 0.793245
1713.77, 0.793245
1714.34, 0.793187
1714.9, 0.793420
1715.47, 0.793536
1716.04, 0.793478
1716.61, 0.793362
1717.18, 0.793420
1717.74, 0.793362
1718.31, 0.793420
1718.88, 0.793594
1719.45, 0.793594
1720.02, 0.793536
1720.59, 0.793245
1721.17, 0.793245
1721.74, 0.793420
1722.31, 0.793362
1722.88, 0.793362
1723.45, 0.793478
1724.03, 0.793478
1724.6, 0.793245
1725.18, 0.793304
1725.75, 0.793304
1726.33, 0.793245
1726.9, 0.793187
1727.48, 0.793129
1728.05, 0.792897
1728.63, 0.793013
1729.2, 0.793129
1729.78, 0.793245
1730.36, 0.793304
1730.94, 0.793362
1731.51, 0.793245
1732.09, 0.793129
1732.67, 0.793071
1733.25, 0.793129
1733.83, 0.793245
1734.41, 0.793362
1734.99, 0.793536
1735.57, 0.793420
1736.15, 0.793245
1736.73, 0.793304
1737.32, 0.793594
1737.9, 0.793652
1738.48, 0.793594
1739.07, 0.793362
1739.65, 0.793362
1740.23, 0.793478
1740.82, 0.793478
1741.4, 0.793536
1741.99, 0.793536
1742.57, 0.793536
1743.16, 0.793885
1743.74, 0.794001
1744.33, 0.793826
1744.92, 0.793826
1745.51, 0.793478
1746.09, 0.793420
1746.68, 0.793710
1747.27, 0.793826
1747.86, 0.793826
1748.45, 0.794001
1749.04, 0.794059
1749.63, 0.794233
1750.22, 0.794117
1750.81, 0.794175
1751.4, 0.794291
1751.99, 0.794001
1752.59, 0.793943
1753.18, 0.794001
1753.77, 0.794059
1754.37, 0.794059
1754.96, 0.794001
1755.56, 0.793826
1756.15, 0.793710
1756.74, 0.794001
1757.34, 0.794117
1757.94, 0.794059
1758.53, 0.794117
1759.13, 0.793826
1759.73, 0.793652
1760.32, 0.793826
1760.92, 0.793943
1761.52, 0.794001
1762.12, 0.794059
1762.72, 0.793885
1763.32, 0.793710
1763.92, 0.793885
1764.52, 0.794291
1765.12, 0.794291
1765.72, 0.794233
1766.32, 0.794059
1766.92, 0.793885
1767.53, 0.793826
1768.13, 0.793885
1768.73, 0.794117
1769.34, 0.794001
1769.94, 0.793826
1770.55, 0.793768
1771.15, 0.793652
1771.76, 0.793594
1772.36, 0.793420
1772.97, 0.793420
1773.57, 0.793594
1774.18, 0.793304
1774.79, 0.793187
1775.4, 0.793245
1776.0, 0.793187
1776.61, 0.793304
1777.22, 0.793187
1777.83, 0.793245
1778.44, 0.793187
1779.05, 0.792664
1779.66, 0.792548
1780.27, 0.792316
1780.88, 0.792141
1781.5, 0.792025
1782.11, 0.791909
1782.72, 0.791793
1783.33, 0.791618
1783.95, 0.791328
1784.56, 0.791386
1785.18, 0.791270
1785.79, 0.790805
1786.41, 0.790398
1787.02, 0.790224
1787.64, 0.790108
1788.26, 0.789933
1788.87, 0.789875
1789.49, 0.789933
1790.11, 0.789701
1790.73, 0.789294
1791.35, 0.789294
1791.96, 0.789352
1792.58, 0.789062
1793.21, 0.788771
1793.83, 0.788655
1794.45, 0.788597
1795.07, 0.788539
1795.69, 0.788597
1796.31, 0.788539
1796.93, 0.788307
1797.56, 0.788016
1798.18, 0.787958
1798.8, 0.788016
1799.43, 0.788307
1800.05, 0.788132
1800.68, 0.788248
1801.3, 0.788074
1801.93, 0.787842
1802.56, 0.787958
1803.18, 0.788190
1803.81, 0.788132
1804.44, 0.788016
1805.07, 0.787958
1805.7, 0.787900
1806.33, 0.787725
1806.95, 0.787609
1807.58, 0.787667
1808.22, 0.787493
1808.85, 0.787377
1809.48, 0.787493
1810.11, 0.787435
1810.74, 0.787203
1811.38, 0.787028
1812.01, 0.787028
1812.64, 0.786738
1813.28, 0.786563
1813.91, 0.786273
1814.55, 0.786157
1815.18, 0.785750
1815.82, 0.785401
1816.45, 0.785401
1817.09, 0.785401
1817.73, 0.785227
1818.36, 0.785517
1819.0, 0.785634
1819.64, 0.785285
1820.28, 0.784936
1820.92, 0.785227
1821.56, 0.785111
1822.2, 0.785227
1822.84, 0.785634
1823.48, 0.785982
1824.12, 0.785982
1824.76, 0.786040
1825.41, 0.785692
1826.05, 0.785227
1826.69, 0.785866
1827.34, 0.786563
1827.98, 0.786505
1828.63, 0.786563
1829.27, 0.786680
1829.92, 0.786796
1830.56, 0.786680
1831.21, 0.786796
1831.86, 0.786912
1832.5, 0.787261
1833.15, 0.787319
1833.8, 0.787435
1834.45, 0.787144
1835.1, 0.786912
1835.75, 0.786447
1836.4, 0.786447
1837.05, 0.786215
1837.7, 0.785866
1838.35, 0.786273
1839.01, 0.785982
1839.66, 0.784994
1840.31, 0.785169
1840.96, 0.784530
1841.62, 0.783251
1842.27, 0.783251
1842.93, 0.783774
1843.58, 0.784123
1844.24, 0.784355
1844.9, 0.784588
1845.55, 0.784704
1846.21, 0.784588
1846.87, 0.784704
1847.53, 0.785750
1848.18, 0.786738
1848.84, 0.787842
1849.5, 0.788539
1850.16, 0.789178
1850.82, 0.789585
1851.48, 0.790050
1852.14, 0.789992
1852.81, 0.789817
1853.47, 0.789701
1854.13, 0.790282
1854.8, 0.791096
1855.46, 0.790979
1856.12, 0.790573
1856.79, 0.790921
1857.45, 0.791677
1858.12, 0.791909
1858.79, 0.791560
1859.45, 0.790805
1860.12, 0.790979
1860.79, 0.791618
1861.46, 0.791735
1862.12, 0.791560
1862.79, 0.791618
1863.46, 0.791502
1864.13, 0.791328
1864.8, 0.791328
1865.48, 0.791502
1866.15, 0.791212
1866.82, 0.790514
1867.49, 0.789585
1868.16, 0.789759
1868.84, 0.789933
1869.51, 0.789701
1870.19, 0.788888
1870.86, 0.788307
1871.54, 0.788946
1872.21, 0.788423
1872.89, 0.787551
1873.56, 0.787609
1874.24, 0.787842
1874.92, 0.787435
1875.6, 0.787028
1876.28, 0.786447
1876.96, 0.786040
1877.64, 0.786215
1878.32, 0.785808
1879.0, 0.785169
1879.68, 0.784530
1880.36, 0.784007
1881.04, 0.783658
1881.73, 0.783716
1882.41, 0.783077
1883.09, 0.782438
1883.78, 0.781799
1884.46, 0.781857
1885.15, 0.781799
1885.83, 0.781218
1886.52, 0.780811
1887.21, 0.780869
1887.89, 0.780637
1888.58, 0.780404
1889.27, 0.779939
1889.96, 0.779533
1890.65, 0.779533
1891.34, 0.779242
1892.03, 0.778952
1892.72, 0.778835
1893.41, 0.778429
1894.1, 0.778080
1894.79, 0.777615
1895.49, 0.777325
1896.18, 0.776976
1896.87, 0.776395
1897.57, 0.775640
1898.26, 0.775233
1898.96, 0.774187
1899.65, 0.773548
1900.35, 0.773722
1901.05, 0.773606
1901.74, 0.773141
1902.44, 0.772328
1903.14, 0.771979
1903.84, 0.771863
1904.54, 0.770991
1905.24, 0.770410
1905.94, 0.770178
1906.64, 0.770003
1907.34, 0.770062
1908.04, 0.769887
1908.75, 0.769481
1909.45, 0.769364
1910.15, 0.769016
1910.86, 0.768609
1911.56, 0.768318
1912.27, 0.767970
1912.97, 0.767389
1913.68, 0.767389
1914.39, 0.767970
1915.09, 0.768202
1915.8, 0.767912
1916.51, 0.767737
1917.22, 0.767796
1917.93, 0.768086
1918.64, 0.767970
1919.35, 0.767447
1920.06, 0.767098
1920.77, 0.767273
1921.48, 0.767679
1922.19, 0.767970
1922.91, 0.767912
1923.62, 0.767621
1924.33, 0.767679
1925.05, 0.767970
1925.76, 0.768028
1926.48, 0.767737
1927.19, 0.767563
1927.91, 0.767331
1928.63, 0.767389
1929.35, 0.767679
1930.07, 0.767505
1930.78, 0.767563
1931.5, 0.767505
1932.22, 0.767389
1932.94, 0.767214
1933.66, 0.766924
1934.39, 0.766866
1935.11, 0.766982
1935.83, 0.766982
1936.55, 0.766982
1937.28, 0.766866
1938.0, 0.766633
1938.73, 0.766227
1939.45, 0.766343
1940.18, 0.766575
1940.9, 0.766517
1941.63, 0.766517
1942.36, 0.766517
1943.09, 0.766227
1943.81, 0.766401
1944.54, 0.766459
1945.27, 0.766401
1946.0, 0.766285
1946.73, 0.766401
1947.47, 0.766750
1948.2, 0.766924
1948.93, 0.767040
1949.66, 0.766924
1950.4, 0.766924
1951.13, 0.766982
1951.86, 0.766924
1952.6, 0.766924
1953.34, 0.766924
1954.07, 0.766750
1954.81, 0.766808
1955.55, 0.766808
1956.29, 0.766866
1957.02, 0.766750
1957.76, 0.766692
1958.5, 0.766750
1959.24, 0.766750
1959.98, 0.766692
1960.72, 0.766633
1961.47, 0.766750
1962.21, 0.766633
1962.95, 0.766459
1963.7, 0.766459
1964.44, 0.766575
1965.18, 0.766459
1965.93, 0.766285
1966.67, 0.766227
1967.42, 0.766110
1968.17, 0.766110
1968.92, 0.766052
1969.66, 0.765820
1970.41, 0.765820
1971.16, 0.765936
1971.91, 0.765994
1972.66, 0.765994
1973.41, 0.765994
1974.16, 0.765878
1974.92, 0.765762
1975.67, 0.765646
1976.42, 0.765530
1977.18, 0.765471
1977.93, 0.765646
1978.69, 0.765588
1979.44, 0.765471
1980.2, 0.765239
1980.95, 0.765123
1981.71, 0.765123
1982.47, 0.765181
1983.23, 0.765007
1983.99, 0.764774
1984.74, 0.764716
1985.51, 0.764774
1986.27, 0.764600
1987.03, 0.764484
1987.79, 0.764309
1988.55, 0.764193
1989.32, 0.764077
1990.08, 0.764019
1990.84, 0.763961
1991.61, 0.763728
1992.37, 0.763321
1993.14, 0.763263
1993.9, 0.762973
1994.67, 0.762740
1995.44, 0.762624
1996.21, 0.762566
1996.98, 0.762334
1997.75, 0.762392
1998.52, 0.762101
1999.29, 0.761695
2000.06, 0.761578
2000.83, 0.761520
2001.6, 0.761520
2002.38, 0.761114
2003.15, 0.760881
2003.93, 0.760823
2004.7, 0.760765
2005.48, 0.760707
2006.25, 0.760707
2007.03, 0.760474
2007.81, 0.760474
2008.58, 0.760707
2009.36, 0.760416
2010.14, 0.760300
2010.92, 0.760126
2011.7, 0.760010
2012.48, 0.759835
2013.26, 0.759661
2014.05, 0.759545
2014.83, 0.759428
2015.61, 0.759254
2016.4, 0.759022
2017.18, 0.759138
2017.97, 0.759080
2018.75, 0.758789
2019.54, 0.758557
2020.32, 0.758266
2021.11, 0.758092
2021.9, 0.757860
2022.69, 0.757743
2023.48, 0.757569
2024.27, 0.757395
2025.06, 0.757046
2025.85, 0.756814
2026.64, 0.756756
2027.44, 0.756523
2028.23, 0.756117
2029.02, 0.755942
2029.82, 0.755768
2030.61, 0.755535
2031.41, 0.755303
2032.2, 0.755187
2033.0, 0.754722
2033.8, 0.754490
2034.6, 0.754490
2035.4, 0.754431
2036.2, 0.754315
2037.0, 0.754083
2037.8, 0.753734
2038.6, 0.753502
2039.4, 0.753211
2040.2, 0.752921
2041.01, 0.752630
2041.81, 0.752398
2042.61, 0.752223
2043.42, 0.751875
2044.22, 0.751584
2045.03, 0.751294
2045.84, 0.751236
2046.65, 0.751061
2047.46, 0.750713
2048.26, 0.750306
2049.07, 0.749841
2049.88, 0.749260
2050.69, 0.748970
2051.51, 0.748679
2052.32, 0.748679
2053.13, 0.748214
2053.94, 0.747808
2054.76, 0.747575
2055.57, 0.747110
2056.39, 0.746762
2057.2, 0.746413
2058.02, 0.746064
2058.84, 0.745716
2059.66, 0.745367
2060.48, 0.744728
2061.29, 0.744089
2062.11, 0.743682
2062.94, 0.743508
2063.76, 0.743101
2064.58, 0.742520
2065.4, 0.741765
2066.22, 0.741300
2067.05, 0.740661
2067.87, 0.739847
2068.7, 0.739266
2069.52, 0.738685
2070.35, 0.738046
2071.18, 0.737291
2072.0, 0.736593
2072.83, 0.735838
2073.66, 0.735199
2074.49, 0.734618
2075.32, 0.734037
2076.15, 0.733514
2076.98, 0.732875
2077.82, 0.732526
2078.65, 0.732119
2079.48, 0.731596
2080.32, 0.730957
2081.15, 0.730376
2081.99, 0.729505
2082.83, 0.728517
2083.66, 0.727645
2084.5, 0.727064
2085.34, 0.726076
2086.18, 0.725321
2087.02, 0.724682
2087.86, 0.723810
2088.7, 0.723055
2089.54, 0.722590
2090.39, 0.722358
2091.23, 0.721893
2092.07, 0.721312
2092.92, 0.720963
2093.76, 0.720614
2094.61, 0.720382
2095.45, 0.719801
2096.3, 0.719452
2097.15, 0.719046
2098.0, 0.718639
2098.85, 0.718290
2099.7, 0.717884
2100.55, 0.717477
2101.4, 0.717070
2102.25, 0.716721
2103.1, 0.716257
2103.96, 0.715153
2104.81, 0.713933
2105.67, 0.712887
2106.52, 0.711666
2107.38, 0.709981
2108.24, 0.707773
2109.09, 0.705333
2109.95, 0.703009
2110.81, 0.701149
2111.67, 0.699813
2112.53, 0.698825
2113.39, 0.698477
2114.25, 0.698418
2115.12, 0.698535
2115.98, 0.699040
2116.84, 0.698850
2117.71, 0.698661
2118.58, 0.698850
2119.44, 0.699418
2120.31, 0.699292
2121.18, 0.698661
2122.04, 0.697778
2122.91, 0.697210
2123.78, 0.696074
2124.65, 0.694560
2125.52, 0.693425
2126.4, 0.692857
2127.27, 0.691532
2128.14, 0.690522
2129.02, 0.689450
2129.89, 0.688693
2130.77, 0.686232
2131.64, 0.684213
2132.52, 0.682762
2133.4, 0.681690
2134.27, 0.679797
2135.15, 0.677526
2136.03, 0.674497
2136.91, 0.671469
2137.79, 0.669072
2138.68, 0.666674
2139.56, 0.663457
2140.44, 0.659356
2141.33, 0.655570
2142.21, 0.652037
2143.1, 0.648126
2143.99, 0.643962
2144.87, 0.639293
2145.76, 0.634877
2146.65, 0.629703
2147.54, 0.623899
2148.43, 0.618158
2149.32, 0.612606
2150.21, 0.606802
2151.1, 0.601061
2151.99, 0.595193
2152.89, 0.589704
2153.78, 0.585036
2154.68, 0.580430
2155.57, 0.575635
2156.47, 0.572039
2157.37, 0.568064
2158.27, 0.564405
2159.16, 0.561566
2160.06, 0.557970
2160.96, 0.555699
2161.86, 0.553995
2162.77, 0.552481
2163.67, 0.552039
2164.57, 0.551976
2165.48, 0.551787
2166.38, 0.551661
2167.29, 0.551598
2168.2, 0.551724
2169.1, 0.551408
2170.01, 0.550967
2170.92, 0.551472
2171.83, 0.551850
2172.74, 0.551850
2173.65, 0.551913
2174.56, 0.552229
2175.47, 0.552292
2176.39, 0.552166
2177.3, 0.552102
2178.22, 0.552355
2179.13, 0.552355
2180.05, 0.552355
2180.96, 0.551913
2181.88, 0.551345
2182.8, 0.551030
2183.72, 0.550967
2184.64, 0.550841
2185.56, 0.550210
2186.48, 0.548885
2187.41, 0.547308
2188.33, 0.545289
2189.25, 0.542765
2190.18, 0.540809
2191.1, 0.538917
2192.03, 0.536519
2192.96, 0.534563
2193.89, 0.533238
2194.82, 0.531977
2195.74, 0.530210
2196.68, 0.528444
2197.61, 0.526740
2198.54, 0.524343
2199.47, 0.520620
2200.4, 0.515321
2201.34, 0.509012
2202.28, 0.501126
2203.21, 0.491157
2204.15, 0.479170
2205.08, 0.465606
2206.02, 0.451347
2206.96, 0.438856
2207.9, 0.431411
2208.84, 0.430843
2209.78, 0.439045
2210.73, 0.453934
2211.67, 0.472924
2212.61, 0.493365
2213.56, 0.512860
2214.5, 0.530210
2215.45, 0.545920
2216.4, 0.559232
2217.35, 0.569768
2218.3, 0.578727
2219.24, 0.586928
2220.2, 0.593805
2221.15, 0.599799
2222.1, 0.605287
2223.05, 0.609704
2224.0, 0.613174
2224.96, 0.616013
2225.91, 0.619104
2226.87, 0.621628
2227.83, 0.622637
2228.79, 0.623899
2229.74, 0.625666
2230.7, 0.626486
2231.66, 0.626738
2232.63, 0.627621
2233.59, 0.627811
2234.55, 0.627369
2235.51, 0.626675
2236.48, 0.625539
2237.44, 0.624215
2238.41, 0.623268
2239.38, 0.622827
2240.34, 0.623142
2241.31, 0.623647
2242.28, 0.624530
2243.25, 0.625666
2244.22, 0.626423
2245.19, 0.626990
2246.17, 0.627495
2247.14, 0.627811
2248.12, 0.628379
2249.09, 0.628820
2250.07, 0.628694
2251.04, 0.628252
2252.02, 0.628189
2253.0, 0.628063
2253.98, 0.627621
2254.96, 0.627054
2255.94, 0.626233
2256.92, 0.625287
2257.91, 0.625035
2258.89, 0.624972
2259.88, 0.624215
2260.86, 0.623205
2261.85, 0.622637
2262.83, 0.622637
2263.82, 0.622511
2264.81, 0.621502
2265.8, 0.620555
2266.79, 0.619861
2267.78, 0.619420
2268.78, 0.619041
2269.77, 0.617716
2270.76, 0.616202
2271.76, 0.615256
2272.75, 0.614309
2273.75, 0.613300
2274.75, 0.611723
2275.75, 0.610272
2276.75, 0.609199
2277.75, 0.607685
2278.75, 0.605981
2279.75, 0.604783
2280.75, 0.603458
2281.76, 0.602070
2282.76, 0.600934
2283.77, 0.599799
2284.77, 0.598221
2285.78, 0.597212
2286.79, 0.595509
2287.8, 0.594310
2288.81, 0.593427
2289.82, 0.592291
2290.83, 0.590903
2291.84, 0.589578
2292.86, 0.588442
2293.87, 0.587370
2294.89, 0.586360
2295.91, 0.585414
2296.92, 0.584215
2297.94, 0.583206
2298.96, 0.581692
2299.98, 0.580556
2301.0, 0.579294
2302.02, 0.577654
2303.04, 0.576014
2304.07, 0.574436
2305.09, 0.572354
2306.12, 0.570651
2307.15, 0.568948
2308.17, 0.567496
2309.2, 0.565793
2310.23, 0.563837
2311.26, 0.562702
2312.29, 0.561755
2313.32, 0.560241
2314.35, 0.559673
2315.39, 0.559358
2316.42, 0.558538
2317.46, 0.558222
2318.5, 0.557970
2319.53, 0.557591
2320.57, 0.557276
2321.61, 0.556771
2322.65, 0.556203
2323.69, 0.554942
2324.73, 0.554437
2325.78, 0.554500
2326.82, 0.554437
2327.86, 0.553932
2328.91, 0.554247
2329.96, 0.554626
2331.01, 0.555320
2332.05, 0.555699
2333.1, 0.556014
2334.15, 0.556393
2335.21, 0.556456
2336.26, 0.556266
2337.31, 0.556266
2338.36, 0.555951
2339.42, 0.555194
2340.48, 0.554058
2341.53, 0.552481
2342.59, 0.550651
2343.65, 0.549263
2344.71, 0.547434
2345.77, 0.545478
2346.83, 0.543396
2347.9, 0.540999
2348.96, 0.538412
2350.02, 0.536078
2351.09, 0.534563
2352.16, 0.533238
2353.23, 0.531661
2354.29, 0.529768
2355.36, 0.528128
2356.43, 0.527245
2357.51, 0.526551
2358.58, 0.526551
2359.65, 0.526803
2360.73, 0.527056
2361.8, 0.527371
2362.88, 0.528002
2363.96, 0.528633
2365.03, 0.528885
2366.11, 0.529011
2367.19, 0.528885
2368.27, 0.527813
2369.36, 0.526740
2370.44, 0.525163
2371.53, 0.523396
2372.61, 0.521125
2373.7, 0.518412
2374.78, 0.515573
2375.87, 0.513113
2376.96, 0.510589
2378.05, 0.507939
2379.14, 0.505731
2380.24, 0.503775
2381.33, 0.502009
2382.42, 0.500495
2383.52, 0.499296
2384.61, 0.498602
2385.71, 0.498602
2386.81, 0.499296
2387.91, 0.500305
2389.01, 0.501504
2390.11, 0.502955
2391.22, 0.504280
2392.32, 0.505290
2393.42, 0.506362
2394.53, 0.507687
2395.64, 0.509390
2396.74, 0.510841
2397.85, 0.512671
2398.96, 0.514248
2400.07, 0.515636
2401.18, 0.516772
2402.3, 0.517340
2403.41, 0.517908
2404.52, 0.518412
2405.64, 0.518097
2406.76, 0.517844
2407.88, 0.517466
2408.99, 0.516898
2410.11, 0.516898
2411.23, 0.516835
2412.36, 0.516141
2413.48, 0.515384
2414.6, 0.514501
2415.73, 0.513996
2416.85, 0.513176
2417.98, 0.512229
2419.11, 0.511094
2420.24, 0.509706
2421.37, 0.508381
2422.5, 0.507308
2423.64, 0.505920
2424.77, 0.504532
2425.9, 0.503271
2427.04, 0.501756
2428.18, 0.500053
2429.31, 0.497971
2430.45, 0.495511
2431.59, 0.493239
2432.73, 0.490653
2433.88, 0.488003
2435.02, 0.485479
2436.16, 0.483145
2437.31, 0.480432
2438.45, 0.478224
2439.6, 0.476205
2440.75, 0.474375
2441.9, 0.472924
2443.05, 0.472167
2444.2, 0.470968
2445.35, 0.469896
2446.51, 0.468760
2447.67, 0.467877
2448.82, 0.467057
2449.98, 0.466615
2451.14, 0.465543
2452.3, 0.464596
2453.46, 0.463902
2454.62, 0.463019
2455.78, 0.461757
2456.94, 0.461000
2458.11, 0.460369
2459.28, 0.459928
2460.44, 0.459044
2461.61, 0.458287
2462.78, 0.458035
2463.95, 0.457530
2465.12, 0.456647
2466.3, 0.455890
2467.47, 0.455259
2468.65, 0.454565
2469.82, 0.453745
2471.0, 0.452862
2472.18, 0.451663
2473.36, 0.451095
2474.54, 0.449959
2475.72, 0.448950
2476.9, 0.447562
2478.08, 0.446048
2479.27, 0.444471
2480.46, 0.442830
2481.64, 0.440685
2482.83, 0.438729
2484.02, 0.436584
2485.21, 0.434376
2486.4, 0.432610
2487.6, 0.431663
2488.79, 0.431032
2489.99, 0.430780
2491.18, 0.430654
2492.38, 0.430717
2493.58, 0.430528
2494.78, 0.430023
2495.98, 0.429644
2497.18, 0.429329
2498.39, 0.428761
2499.59, 0.428193
2500.8, 0.427310
2502.01, 0.426048
2503.21, 0.425228
2504.42, 0.424786
2505.63, 0.423525
2506.84, 0.422452
2508.06, 0.421190
2509.27, 0.420181
2510.49, 0.419045
2511.7, 0.418225
2512.92, 0.417405
2514.14, 0.416332
2515.36, 0.415197
2516.58, 0.414376
2517.8, 0.413556
2519.03, 0.412547
2520.25, 0.411601
2521.48, 0.410907
2522.7, 0.409708
2523.93, 0.408888
2525.16, 0.407941
2526.39, 0.407121
2527.62, 0.405922
2528.86, 0.404913
2530.09, 0.403840
2531.33, 0.402894
2532.56, 0.402200
2533.8, 0.401948
2535.04, 0.401064
2536.28, 0.400371
2537.52, 0.399929
2538.76, 0.398730
2540.01, 0.397153
2541.25, 0.395702
2542.5, 0.394125
2543.75, 0.393557
2544.99, 0.392673
2546.24, 0.391475
2547.49, 0.390528
2548.75, 0.390402
2550.0, 0.389834
2551.26, 0.388636
2552.51, 0.387752
2553.77, 0.388257
2555.03, 0.388131
2556.29, 0.386995
2557.55, 0.385670
2558.81, 0.384219
2560.08, 0.381759
2561.34, 0.379109
2562.61, 0.377279
2563.88, 0.376207
2565.14, 0.375892
2566.41, 0.375008
2567.68, 0.372737
2568.96, 0.369772
2570.23, 0.368699
2571.51, 0.367816
2572.78, 0.364598
2574.06, 0.364220
2575.34, 0.363463
2576.62, 0.361885
2577.9, 0.362138
2579.18, 0.361759
2580.47, 0.359614
2581.75, 0.358668
2583.04, 0.356018
2584.32, 0.355513
2585.61, 0.355703
2586.9, 0.353999
2588.2, 0.353684
2589.49, 0.353747
2590.78, 0.353116
2592.08, 0.351160
2593.37, 0.346491
2594.67, 0.343715
2595.97, 0.346681
2597.27, 0.348195
2598.57, 0.347816
2599.88, 0.346428
2601.18, 0.344851
2602.49, 0.343337
2603.79, 0.341066
2605.1, 0.339236
2606.41, 0.339741
2607.72, 0.339804
2609.03, 0.338731
2610.35, 0.338037
2611.66, 0.337280
2612.98, 0.335829
2614.3, 0.334883
2615.62, 0.331791
2616.94, 0.329646
2618.26, 0.329962
2619.58, 0.327564
2620.91, 0.326933
2622.23, 0.327060
2623.56, 0.325482
2624.89, 0.322454
2626.22, 0.318795
2627.55, 0.317912
2628.88, 0.314631
2630.21, 0.310593
2631.55, 0.310215
2632.89, 0.307880
2634.22, 0.305041
2635.56, 0.302959
2636.9, 0.300120
2638.25, 0.297029
2639.59, 0.294000
2640.93, 0.290594
2642.28, 0.287313
2643.63, 0.284158
2644.98, 0.280247
2646.33, 0.277155
2647.68, 0.274506
2649.03, 0.271162
2650.39, 0.267124
2651.74, 0.262203
2653.1, 0.258670
2654.46, 0.255200
2655.82, 0.251099
2657.18, 0.246620
2658.54, 0.241068
2659.9, 0.236020
2661.27, 0.231036
2662.64, 0.225358
2664.01, 0.218040
2665.38, 0.210658
2666.74, 0.204791
2668.12, 0.199617
2669.49, 0.191290
2670.87, 0.184034
2672.24, 0.178798
2673.62, 0.171101
2675.0, 0.162647
2676.38, 0.153877
2677.76, 0.145675
2679.15, 0.137537
2680.54, 0.129966
2681.92, 0.121196
2683.31, 0.111796
2684.7, 0.102648
2686.09, 0.0930580
2687.48, 0.0830270
2688.88, 0.0730580
2690.27, 0.0630900
2691.67, 0.0538160
2693.07, 0.0448570
2694.47, 0.0369710
2695.87, 0.0310400
2697.27, 0.0265610
2698.67, 0.0222710
2700.08, 0.0182330
2701.49, 0.0150150
2702.9, 0.0128700
2704.31, 0.0114190
2705.72, 0.0107250
2707.13, 0.0107880
2708.54, 0.0111670
2709.96, 0.0120500
2711.38, 0.0138170
2712.8, 0.0155200
2714.22, 0.0171610
2715.64, 0.0186750
2717.06, 0.0196210
2718.49, 0.0198730
2719.91, 0.0194320
2721.34, 0.0181700
2722.77, 0.0167190
2724.2, 0.0157090
2725.63, 0.0153310
2727.07, 0.0153940
2728.5, 0.0160250
2729.94, 0.0165300
2731.38, 0.0162140
2732.82, 0.0153940
2734.26, 0.0147630
2735.7, 0.0143850
2737.15, 0.0143850
2738.59, 0.0149520
2740.04, 0.0164030
2741.49, 0.0180440
2742.94, 0.0198730
2744.39, 0.0217030
2745.84, 0.0234060
2747.3, 0.0249210
2748.76, 0.0258040
2750.21, 0.0259300
2751.67, 0.0247310
2753.14, 0.0223340
2754.6, 0.0189900
2756.06, 0.0152680
2757.53, 0.0117980
2759.0, 0.00959000
2760.46, 0.00940000
2761.94, 0.0119240
2763.41, 0.0175390
2764.88, 0.0254880
2766.36, 0.0337530
2767.83, 0.0415130
2769.31, 0.0489580
2770.79, 0.0558350
2772.27, 0.0616390
2773.76, 0.0652980
2775.24, 0.0668130
2776.73, 0.0668760
2778.22, 0.0671910
2779.71, 0.0700930
2781.2, 0.0752670
2782.69, 0.0809450
2784.18, 0.0855500
2785.68, 0.0891460
2787.18, 0.0923640
2788.68, 0.0957080
2790.18, 0.0986100
2791.68, 0.101386
2793.19, 0.104225
2794.69, 0.106875
2796.2, 0.109398
2797.71, 0.111733
2799.22, 0.113878
2800.73, 0.115707
2802.24, 0.117095
2803.76, 0.119241
2805.28, 0.121386
2806.8, 0.123089
2808.32, 0.124666
2809.84, 0.126244
2811.36, 0.127568
2812.89, 0.128641
2814.42, 0.129587
2815.94, 0.130723
2817.48, 0.131606
2819.01, 0.132426
2820.54, 0.133499
2822.08, 0.134698
2823.61, 0.135707
2825.15, 0.136653
2826.69, 0.137537
2828.23, 0.138735
2829.78, 0.139808
2831.32, 0.140880
2832.87, 0.142016
2834.42, 0.142962
2835.97, 0.143783
2837.52, 0.144666
2839.08, 0.145486
2840.63, 0.146306
2842.19, 0.147126
2843.75, 0.147883
2845.31, 0.148577
2846.87, 0.149208
2848.44, 0.149839
2850.0, 0.150723
2851.57, 0.151669
2853.14, 0.152489
2854.71, 0.153246
2856.28, 0.154129
2857.86, 0.154823
2859.43, 0.155896
2861.01, 0.156968
2862.59, 0.157915
2864.17, 0.158420
2865.76, 0.159114
2867.34, 0.160060
2868.93, 0.160817
2870.52, 0.161259
2872.11, 0.161700
2873.7, 0.162457
2875.29, 0.163277
2876.89, 0.163845
2878.49, 0.164350
2880.08, 0.164918
2881.69, 0.165296
2883.29, 0.165675
2884.89, 0.166432
2886.5, 0.167000
2888.11, 0.167631
2889.72, 0.168009
2891.33, 0.168514
2892.94, 0.168893
2894.56, 0.169208
2896.17, 0.169271
2897.79, 0.169587
2899.42, 0.169334
2901.04, 0.168577
2902.66, 0.167189
2904.29, 0.164792
2905.92, 0.161511
2907.55, 0.157662
2909.18, 0.154129
2910.81, 0.152047
2912.45, 0.152237
2914.08, 0.155265
2915.72, 0.159934
2917.36, 0.165170
2919.01, 0.170091
2920.65, 0.174634
2922.3, 0.178671
2923.94, 0.182141
2925.59, 0.184981
2927.25, 0.187378
2928.9, 0.189460
2930.56, 0.191353
2932.21, 0.192867
2933.87, 0.194381
2935.53, 0.195769
2937.2, 0.197094
2938.86, 0.198293
2940.53, 0.199365
2942.2, 0.200185
2943.87, 0.201005
2945.54, 0.201826
2947.22, 0.202583
2948.89, 0.203150
2950.57, 0.203844
2952.25, 0.204602
2953.93, 0.205296
2955.62, 0.206116
2957.3, 0.206747
2958.99, 0.207188
2960.68, 0.208008
2962.37, 0.208766
2964.07, 0.209333
2965.76, 0.209901
2967.46, 0.210469
2969.16, 0.211037
2970.86, 0.211478
2972.56, 0.211794
2974.27, 0.212235
2975.98, 0.212677
2977.69, 0.213245
2979.4, 0.213876
2981.11, 0.214570
2982.83, 0.215138
2984.54, 0.215705
2986.26, 0.216526
2987.98, 0.217535
2989.71, 0.218418
2991.43, 0.219175
2993.16, 0.219932
2994.89, 0.220690
2996.62, 0.221510
2998.35, 0.222456
3000.09, 0.223276
3001.83, 0.224033
3003.57, 0.224854
3005.31, 0.225674
3007.05, 0.226494
3008.79, 0.227314
3010.54, 0.227945
3012.29, 0.228576
3014.04, 0.229270
3015.8, 0.230153
3017.55, 0.230847
3019.31, 0.231289
3021.07, 0.231793
3022.83, 0.232551
3024.59, 0.233181
3026.36, 0.233875
3028.13, 0.234506
3029.9, 0.235011
3031.67, 0.235705
3033.44, 0.236399
3035.22, 0.236967
3037.0, 0.237598
3038.78, 0.238166
3040.56, 0.239049
3042.34, 0.239743
3044.13, 0.240374
3045.92, 0.241068
3047.71, 0.241762
3049.5, 0.242456
3051.3, 0.243087
3053.09, 0.243717
3054.89, 0.244411
3056.69, 0.245105
3058.5, 0.245673
3060.3, 0.246304
3062.11, 0.246935
3063.92, 0.247755
3065.73, 0.248260
3067.55, 0.248639
3069.36, 0.249143
3071.18, 0.249711
3073.0, 0.250342
3074.82, 0.251036
3076.65, 0.251730
3078.48, 0.252172
3080.31, 0.252613
3082.14, 0.253307
3083.97, 0.254064
3085.8, 0.254632
3087.64, 0.255011
3089.48, 0.255452
3091.33, 0.255831
3093.17, 0.256146
3095.02, 0.256588
3096.87, 0.257030
3098.72, 0.257660
3100.57, 0.258228
3102.43, 0.258796
3104.28, 0.259301
3106.14, 0.259742
3108.01, 0.260310
3109.87, 0.260878
3111.74, 0.261446
3113.61, 0.261887
3115.48, 0.262329
3117.35, 0.262834
3119.23, 0.263528
3121.1, 0.264285
3122.98, 0.264790
3124.87, 0.265231
3126.75, 0.265736
3128.64, 0.266367
3130.53, 0.266998
3132.42, 0.267818
3134.31, 0.268323
3136.21, 0.268827
3138.11, 0.269458
3140.01, 0.270026
3141.91, 0.270594
3143.82, 0.271036
3145.73, 0.271730
3147.64, 0.272550
3149.55, 0.273118
3151.46, 0.273559
3153.38, 0.274127
3155.3, 0.274821
3157.22, 0.275389
3159.14, 0.275957
3161.07, 0.276398
3163.0, 0.276966
3164.93, 0.277534
3166.86, 0.278039
3168.8, 0.278354
3170.74, 0.278922
3172.68, 0.279427
3174.62, 0.280057
3176.56, 0.280562
3178.51, 0.281067
3180.46, 0.281572
3182.42, 0.281950
3184.37, 0.282392
3186.33, 0.282897
3188.29, 0.283464
3190.25, 0.284032
3192.21, 0.284663
3194.18, 0.285294
3196.15, 0.285862
3198.12, 0.286430
3200.09, 0.286997
3202.07, 0.287754
3204.05, 0.288448
3206.03, 0.289016
3208.02, 0.289521
3210.0, 0.290215
3211.99, 0.290909
3213.98, 0.291414
3215.98, 0.291982
3217.97, 0.292739
3219.97, 0.293306
3221.97, 0.293811
3223.98, 0.294316
3225.98, 0.294884
3227.99, 0.295451
3230.0, 0.295956
3232.02, 0.296461
3234.03, 0.297218
3236.05, 0.297723
3238.07, 0.298227
3240.1, 0.298858
3242.12, 0.299489
3244.15, 0.300057
3246.18, 0.300562
3248.22, 0.301130
3250.25, 0.301634
3252.29, 0.302076
3254.33, 0.302707
3256.38, 0.303338
3258.43, 0.303779
3260.47, 0.304221
3262.53, 0.304663
3264.58, 0.305230
3266.64, 0.305861
3268.7, 0.306240
3270.76, 0.306745
3272.82, 0.307376
3274.89, 0.307943
3276.96, 0.308511
3279.04, 0.309142
3281.11, 0.309773
3283.19, 0.310278
3285.27, 0.310972
3287.35, 0.311539
3289.44, 0.312107
3291.53, 0.312738
3293.62, 0.313306
3295.71, 0.314063
3297.81, 0.314757
3299.91, 0.315262
3302.01, 0.315830
3304.11, 0.316461
3306.22, 0.317091
3308.33, 0.317785
3310.44, 0.318290
3312.56, 0.318795
3314.68, 0.319363
3316.8, 0.320057
3318.92, 0.320561
3321.05, 0.321003
3323.18, 0.321571
3325.31, 0.322391
3327.44, 0.323022
3329.58, 0.323400
3331.72, 0.323779
3333.86, 0.324284
3336.01, 0.324725
3338.16, 0.325293
3340.31, 0.325735
3342.46, 0.326176
3344.61, 0.326618
3346.77, 0.327060
3348.94, 0.327375
3351.1, 0.327691
3353.27, 0.327817
3355.44, 0.328006
3357.61, 0.328132
3359.79, 0.328195
3361.97, 0.327943
3364.15, 0.327817
3366.33, 0.327754
3368.52, 0.327438
3370.71, 0.326997
3372.9, 0.326744
3375.1, 0.326555
3377.3, 0.326618
3379.5, 0.326807
3381.71, 0.327312
3383.91, 0.327754
3386.12, 0.328006
3388.34, 0.327943
3390.55, 0.327754
3392.77, 0.327186
3394.99, 0.326176
3397.22, 0.324915
3399.45, 0.323337
3401.68, 0.321255
3403.91, 0.318669
3406.15, 0.315830
3408.39, 0.313117
3410.63, 0.310530
3412.87, 0.308448
3415.12, 0.307439
3417.37, 0.307817
3419.63, 0.309773
3421.88, 0.313117
3424.14, 0.317344
3426.41, 0.321697
3428.67, 0.325735
3430.94, 0.329331
3433.21, 0.332296
3435.49, 0.334820
3437.77, 0.337028
3440.05, 0.338984
3442.33, 0.340813
3444.62, 0.342201
3446.91, 0.343526
3449.2, 0.344914
3451.5, 0.346239
3453.8, 0.347438
3456.1, 0.348573
3458.41, 0.349520
3460.72, 0.350466
3463.03, 0.351349
3465.34, 0.351980
3467.66, 0.352296
3469.98, 0.352548
3472.31, 0.352864
3474.63, 0.353305
3476.96, 0.353558
3479.3, 0.353873
3481.64, 0.354188
3483.97, 0.354062
3486.32, 0.353747
3488.66, 0.352927
3491.01, 0.351413
3493.36, 0.349394
3495.72, 0.347059
3498.08, 0.345040
3500.44, 0.344031
3502.81, 0.344283
3505.18, 0.345671
3507.55, 0.347753
3509.92, 0.350214
3512.3, 0.352737
3514.68, 0.355198
3517.06, 0.357785
3519.45, 0.360119
3521.84, 0.362264
3524.24, 0.364346
3526.64, 0.366428
3529.04, 0.368447
3531.44, 0.370276
3533.85, 0.371791
3536.26, 0.373116
3538.67, 0.374125
3541.09, 0.375071
3543.51, 0.376144
3545.93, 0.377216
3548.36, 0.378100
3550.79, 0.378731
3553.22, 0.379046
3555.66, 0.379109
3558.1, 0.379172
3560.54, 0.378983
3562.99, 0.378541
3565.44, 0.378100
3567.9, 0.377910
3570.35, 0.377847
3572.81, 0.378037
3575.28, 0.378731
3577.75, 0.379803
3580.22, 0.380876
3582.69, 0.382074
3585.17, 0.383399
3587.65, 0.384724
3590.14, 0.385860
3592.62, 0.386869
3595.11, 0.387752
3597.61, 0.388636
3600.11, 0.389519
3602.61, 0.390276
3605.11, 0.390844
3607.62, 0.391475
3610.14, 0.392106
3612.65, 0.392737
3615.17, 0.393304
3617.69, 0.393746
3620.22, 0.394377
3622.75, 0.394945
3625.28, 0.395386
3627.82, 0.395954
3630.36, 0.396396
3632.9, 0.396774
3635.45, 0.397027
3638.0, 0.397405
3640.56, 0.397721
3643.12, 0.397910
3645.68, 0.398289
3648.24, 0.398604
3650.81, 0.398667
3653.39, 0.398730
3655.96, 0.398604
3658.54, 0.398289
3661.13, 0.398162
3663.71, 0.398036
3666.3, 0.397658
3668.9, 0.397090
3671.5, 0.396396
3674.1, 0.395513
3676.7, 0.394314
3679.31, 0.392863
3681.93, 0.391159
3684.54, 0.389267
3687.17, 0.387563
3689.79, 0.386617
3692.42, 0.385986
3695.05, 0.385860
3697.69, 0.386617
3700.32, 0.388131
3702.97, 0.390150
3705.61, 0.392358
3708.27, 0.394692
3710.92, 0.397216
3713.58, 0.399740
3716.24, 0.401948
3718.91, 0.403904
3721.58, 0.405481
3724.25, 0.406743
3726.93, 0.407752
3729.61, 0.408446
3732.29, 0.409140
3734.98, 0.409519
3737.67, 0.409266
3740.37, 0.408446
3743.07, 0.409077
3745.78, 0.411601
3748.49, 0.413872
3751.2, 0.415197
3753.91, 0.416017
3756.63, 0.416837
3759.36, 0.417405
3762.09, 0.417847
3764.82, 0.418351
3767.55, 0.418793
3770.29, 0.419234
3773.04, 0.419676
3775.78, 0.419992
3778.54, 0.420433
3781.29, 0.420812
3784.05, 0.421190
3786.82, 0.421569
3789.59, 0.421947
3792.36, 0.422200
3795.13, 0.422389
3797.92, 0.422641
3800.7, 0.423020
3803.49, 0.423462
3806.28, 0.423777
3809.08, 0.423966
3811.88, 0.424345
3814.68, 0.424597
3817.49, 0.424850
3820.31, 0.425039
3823.12, 0.425291
3825.94, 0.425480
3828.77, 0.425733
3831.6, 0.425859
3834.43, 0.426048
3837.27, 0.426174
3840.11, 0.426364
3842.96, 0.426616
3845.81, 0.426742
3848.67, 0.426742
3851.53, 0.426742
3854.39, 0.426868
3857.26, 0.427058
3860.13, 0.427247
3863.01, 0.427373
3865.89, 0.427373
3868.77, 0.427373
3871.66, 0.427562
3874.55, 0.427562
3877.45, 0.427562
3880.35, 0.427562
3883.26, 0.427625
3886.17, 0.427689
3889.09, 0.427689
3892.01, 0.427625
3894.93, 0.427689
3897.86, 0.427625
3900.79, 0.427562
3903.73, 0.427625
3906.67, 0.427499
3909.62, 0.427373
3912.57, 0.427373
3915.52, 0.427247
3918.48, 0.427184
3921.45, 0.426995
3924.42, 0.426805
3927.39, 0.426679
3930.37, 0.426616
3933.35, 0.426553
3936.34, 0.426301
3939.33, 0.426174
3942.32, 0.426048
3945.32, 0.425985
3948.33, 0.425859
3951.34, 0.425670
3954.35, 0.425417
3957.37, 0.425291
3960.39, 0.425165
3963.42, 0.424976
3966.45, 0.424660
3969.49, 0.424471
3972.53, 0.424282
3975.58, 0.424092
3978.63, 0.423840
3981.68, 0.423714
3984.75, 0.423525
3987.81, 0.423335
3990.88, 0.423146
3993.95, 0.423020
3997.03, 0.422768
4000.12, 0.422578
4003.21, 0.422326
4006.3, 0.422200
4009.4, 0.421947
4012.5, 0.421758
4015.61, 0.421569
4018.72, 0.421443
4021.84, 0.421190
4024.96, 0.420812
4028.09, 0.420559
4031.22, 0.420244
4034.36, 0.419992
4037.5, 0.419739
4040.65, 0.419361
4043.8, 0.419171
4046.96, 0.418919
4050.12, 0.418540
4053.29, 0.418162
4056.46, 0.417910
4059.64, 0.417594
4062.82, 0.417279
4066.0, 0.417026
4069.19, 0.416837
4072.39, 0.416648
4075.59, 0.416332
4078.8, 0.415828
4082.01, 0.415449
4085.23, 0.415134
4088.45, 0.414944
4091.68, 0.414692
4094.91, 0.414313
4098.15, 0.413998
4101.39, 0.413746
4104.63, 0.413178
4107.89, 0.412862
4111.14, 0.412547
4114.41, 0.412295
4117.67, 0.411979
4120.95, 0.411790
4124.23, 0.411537
4127.51, 0.411159
4130.8, 0.410907
4134.09, 0.410591
4137.39, 0.410213
4140.7, 0.409834
4144.01, 0.409519
4147.32, 0.409140
4150.64, 0.408825
4153.97, 0.408509
4157.3, 0.408194
4160.64, 0.407941
4163.98, 0.407563
4167.33, 0.407310
4170.68, 0.407121
4174.04, 0.406806
4177.4, 0.406427
4180.77, 0.406049
4184.14, 0.405796
4187.52, 0.405481
4190.91, 0.405228
4194.3, 0.404850
4197.69, 0.404219
4201.1, 0.403336
4204.5, 0.402263
4207.92, 0.400938
4211.34, 0.399550
4214.76, 0.398225
4218.19, 0.396901
4221.62, 0.395576
4225.06, 0.394377
4228.51, 0.393367
4231.96, 0.392421
4235.42, 0.391727
4238.88, 0.391286
4242.35, 0.391033
4245.83, 0.391033
4249.31, 0.390970
4252.79, 0.390844
4256.28, 0.389834
4259.78, 0.386554
4263.29, 0.383021
4266.79, 0.381128
4270.31, 0.381254
4273.83, 0.382768
4277.35, 0.384661
4280.89, 0.386175
4284.42, 0.387185
4287.97, 0.387816
4291.52, 0.388257
4295.07, 0.388636
4298.63, 0.388951
4302.2, 0.389140
4305.78, 0.389330
4309.35, 0.389393
4312.94, 0.389645
4316.53, 0.389771
4320.13, 0.389708
4323.73, 0.389393
4327.34, 0.389330
4330.96, 0.389267
4334.58, 0.388951
4338.21, 0.388573
4341.84, 0.388194
4345.48, 0.387752
4349.12, 0.387311
4352.77, 0.386806
4356.43, 0.386428
4360.1, 0.385986
4363.76, 0.385544
4367.44, 0.385040
4371.12, 0.384661
4374.81, 0.384346
4378.51, 0.383904
4382.21, 0.383336
4385.92, 0.382768
4389.63, 0.382327
4393.35, 0.381822
4397.08, 0.381317
4400.81, 0.380749
4404.55, 0.380182
4408.29, 0.379677
4412.04, 0.379109
4415.8, 0.378667
4419.57, 0.378100
4423.34, 0.377532
4427.12, 0.377153
4430.9, 0.376775
4434.69, 0.376396
4438.49, 0.375892
4442.29, 0.375261
4446.1, 0.374693
4449.92, 0.374062
4453.74, 0.373242
4457.57, 0.372422
4461.41, 0.371538
4465.25, 0.370466
4469.1, 0.369393
4472.95, 0.368131
4476.82, 0.366870
4480.69, 0.365671
4484.56, 0.364661
4488.44, 0.363652
4492.33, 0.362832
4496.23, 0.362201
4500.13, 0.361507
4504.04, 0.360687
4507.96, 0.360182
4511.88, 0.359677
4515.81, 0.359173
4519.75, 0.358731
4523.69, 0.358352
4527.65, 0.357974
4531.6, 0.357532
4535.57, 0.357091
4539.54, 0.356523
4543.52, 0.355829
4547.5, 0.354946
4551.5, 0.353936
4555.5, 0.352927
4559.5, 0.351791
4563.52, 0.350466
4567.54, 0.349078
4571.56, 0.347690
4575.6, 0.346365
4579.64, 0.344977
4583.69, 0.343589
4587.75, 0.342075
4591.81, 0.340372
4595.88, 0.338668
4599.96, 0.336776
4604.04, 0.334757
4608.14, 0.332485
4612.24, 0.330403
4616.34, 0.328132
4620.46, 0.325672
4624.58, 0.323274
4628.71, 0.320940
4632.84, 0.318542
4636.99, 0.316271
4641.14, 0.314000
4645.3, 0.311855
4649.47, 0.309836
4653.64, 0.308006
4657.82, 0.306240
4662.01, 0.304536
4666.21, 0.303212
4670.41, 0.302202
4674.62, 0.301319
4678.84, 0.300625
4683.07, 0.300120
4687.3, 0.299679
4691.54, 0.299300
4695.79, 0.298985
4700.05, 0.298606
4704.31, 0.298291
4708.59, 0.298164
4712.87, 0.298038
4717.15, 0.297849
4721.45, 0.297533
4725.76, 0.297281
4730.07, 0.297029
4734.39, 0.296587
4738.72, 0.296145
4743.05, 0.295767
4747.39, 0.295325
4751.75, 0.294757
4756.1, 0.294316
4760.47, 0.293685
4764.85, 0.292928
4769.23, 0.292045
4773.62, 0.291035
4778.02, 0.289836
4782.43, 0.288575
4786.85, 0.287313
4791.27, 0.285862
4795.7, 0.284474
4800.14, 0.283086
4804.59, 0.281445
4809.05, 0.279679
4813.51, 0.278039
4817.99, 0.276461
4822.47, 0.274695
4826.96, 0.272991
4831.46, 0.271162
4835.96, 0.269332
4840.48, 0.267629
4845.0, 0.266178
4849.54, 0.264600
4854.08, 0.263023
4858.63, 0.261509
4863.18, 0.259995
4867.75, 0.258291
4872.33, 0.256714
4876.91, 0.255011
4881.5, 0.253370
4886.1, 0.251793
4890.71, 0.250279
4895.33, 0.248828
4899.96, 0.247503
4904.59, 0.246304
4909.24, 0.245232
4913.89, 0.244159
4918.55, 0.243024
4923.22, 0.241951
4927.9, 0.240942
4932.59, 0.239869
4937.29, 0.238733
4942.0, 0.237345
4946.71, 0.235831
4951.44, 0.234317
4956.17, 0.232614
4960.91, 0.230784
4965.67, 0.228891
4970.43, 0.226872
4975.2, 0.224854
4979.98, 0.222708
4984.76, 0.220437
4989.56, 0.218292
4994.37, 0.216147
4999.18, 0.214065
5004.01, 0.212109
5008.84, 0.210027
5013.69, 0.207693
5018.54, 0.205106
5023.4, 0.202646
5028.28, 0.200122
5033.16, 0.197472
5038.05, 0.194760
5042.95, 0.191984
5047.86, 0.188955
5052.78, 0.185801
5057.71, 0.182583
5062.65, 0.179429
5067.6, 0.176148
5072.56, 0.172993
5077.53, 0.169839
5082.5, 0.166558
5087.49, 0.163530
5092.49, 0.160691
5097.5, 0.157852
5102.51, 0.155013
5107.54, 0.152237
5112.58, 0.149587
5117.62, 0.147126
5122.68, 0.144792
5127.75, 0.142647
5132.82, 0.140565
5137.91, 0.138672
5143.01, 0.137032
5148.12, 0.135581
5153.23, 0.134382
5158.36, 0.133247
5163.5, 0.132237
5168.65, 0.131417
5173.81, 0.130723
5178.98, 0.130218
5184.15, 0.129777
5189.34, 0.129587
5194.54, 0.129650
5199.75, 0.129587
5204.98, 0.129840
5210.21, 0.130092
5215.45, 0.130534
5220.7, 0.131165
5225.96, 0.131732
5231.23, 0.132174
5236.52, 0.132805
5241.81, 0.133499
5247.12, 0.134256
5252.44, 0.135013
5257.76, 0.135833
5263.1, 0.136716
5268.45, 0.137410
5273.81, 0.137915
5279.18, 0.138483
5284.56, 0.138798
5289.95, 0.138735
5295.36, 0.138925
5300.77, 0.138925
5306.2, 0.138672
5311.63, 0.138294
5317.08, 0.137726
5322.54, 0.137032
5328.01, 0.136212
5333.49, 0.135265
5338.98, 0.134193
5344.49, 0.132742
5350.0, 0.131165
5355.53, 0.130029
5361.07, 0.128767
5366.62, 0.127253
5372.18, 0.125676
5377.75, 0.123972
5383.34, 0.122206
5388.93, 0.120439
5394.54, 0.118673
5400.16, 0.116906
5405.79, 0.115203
5411.44, 0.113373
5417.09, 0.111417
5422.76, 0.109651
5428.43, 0.108641
5434.12, 0.107316
5439.83, 0.105676
5445.54, 0.103846
5451.26, 0.102017
5457.0, 0.0999980
5462.75, 0.0978530
5468.52, 0.0963390
5474.29, 0.0950140
5480.08, 0.0940680
5485.88, 0.0940040
5491.69, 0.0941940
5497.51, 0.0950770
5503.35, 0.0964650
5509.2, 0.0984210
5515.06, 0.100503
5520.93, 0.102963
5526.82, 0.105676
5532.71, 0.108452
5538.63, 0.111102
5544.55, 0.113436
5550.49, 0.115455
5556.44, 0.117600
5562.4, 0.119556
5568.37, 0.120881
5574.36, 0.121512
5580.36, 0.122332
5586.37, 0.123594
5592.4, 0.124225
5598.44, 0.124288
5604.49, 0.124162
5610.56, 0.123909
5616.63, 0.123468
5622.73, 0.123152
5628.83, 0.122458
5634.95, 0.121070
5641.08, 0.119619
5647.23, 0.119114
5653.39, 0.118547
5659.56, 0.117916
5665.74, 0.117222
5671.94, 0.115960
5678.15, 0.115140
5684.38, 0.114761
5690.62, 0.114130
5696.87, 0.113878
5703.14, 0.113310
5709.42, 0.112553
5715.72, 0.112301
5722.03, 0.112237
5728.35, 0.112111
5734.69, 0.111796
5741.03, 0.111291
5747.4, 0.110660
5753.78, 0.110471
5760.17, 0.109335
5766.58, 0.108200
5773.0, 0.108515
5779.44, 0.108515
5785.88, 0.108137
5792.35, 0.107695
5798.83, 0.107380
5805.32, 0.107127
5811.83, 0.106686
5818.35, 0.105802
5824.89, 0.105802
5831.45, 0.106496
5838.01, 0.107253
5844.59, 0.107695
5851.19, 0.107695
5857.8, 0.107569
5864.43, 0.107821
5871.07, 0.108137
5877.73, 0.107190
5884.4, 0.107758
5891.09, 0.108452
5897.79, 0.108515
5904.5, 0.109525
5911.23, 0.109588
5917.98, 0.109272
5924.75, 0.108831
5931.53, 0.107632
5938.32, 0.106938
5945.13, 0.107821
5951.96, 0.107758
5958.8, 0.107316
5965.65, 0.106307
5972.53, 0.105992
5979.42, 0.105739
5986.32, 0.104730
5993.24, 0.104351
6000.18, 0.104477
6007.13, 0.103657
6014.1, 0.102648
6021.08, 0.102206
6028.09, 0.101575
6035.1, 0.100503
6042.14, 0.0985470
6049.19, 0.0974740
6056.25, 0.0988620
6063.34, 0.0989250
6070.44, 0.0981680
6077.55, 0.0981680
6084.69, 0.0984210
6091.84, 0.0980420
6099.0, 0.0973480
6106.19, 0.0961490
6113.39, 0.0952030
6120.61, 0.0957080
6127.84, 0.0960860
6135.09, 0.0958340
6142.36, 0.0957710
6149.65, 0.0959600
6156.95, 0.0960860
6164.27, 0.0968430
6171.61, 0.0977270
6178.97, 0.0976010
6186.34, 0.0977900
6193.73, 0.0988620
6201.14, 0.0994300
6208.57, 0.0994930
6216.01, 0.0994300
6223.47, 0.0992410
6230.95, 0.0989890
6238.45, 0.0986100
6245.97, 0.0981680
6253.5, 0.0974740
6261.06, 0.0966540
6268.63, 0.0957710
6276.21, 0.0948880
6283.82, 0.0938780
6291.45, 0.0929950
6299.1, 0.0922380
6306.76, 0.0914810
6314.44, 0.0909130
6322.14, 0.0904710
6329.86, 0.0899670
6337.6, 0.0890200
6345.35, 0.0885160
6353.13, 0.0890830
6360.92, 0.0888940
6368.74, 0.0882000
6376.57, 0.0881370
6384.43, 0.0879480
6392.3, 0.0875060
6400.19, 0.0867490
6408.1, 0.0847930
6416.03, 0.0836580
6423.98, 0.0840990
6431.95, 0.0840360
6439.94, 0.0838470
6447.95, 0.0834680
6455.98, 0.0830270
6464.03, 0.0824590
6472.1, 0.0816390
6480.19, 0.0808820
6488.31, 0.0800610
6496.44, 0.0803140
6504.59, 0.0811340
6512.76, 0.0810080
6520.95, 0.0806290
6529.16, 0.0807550
6537.4, 0.0804400
6545.65, 0.0798090
6553.92, 0.0791780
6562.22, 0.0784840
6570.54, 0.0773490
6578.88, 0.0768440
6587.23, 0.0761500
6595.61, 0.0754560
6604.02, 0.0748250
6612.44, 0.0737520
6620.89, 0.0724280
6629.35, 0.0705350
6637.84, 0.0690210
6646.35, 0.0692730
6654.88, 0.0692730
6663.44, 0.0685790
6672.01, 0.0679480
6680.61, 0.0674430
6689.23, 0.0673170
6697.88, 0.0670020
6706.54, 0.0661190
6715.23, 0.0656140
6723.94, 0.0651720
6732.67, 0.0648570
6741.42, 0.0641630
6750.2, 0.0633430
6759.0, 0.0624590
6767.82, 0.0613240
6776.67, 0.0600620
6785.54, 0.0588630
6794.44, 0.0580430
6803.35, 0.0577910
6812.29, 0.0573490
6821.26, 0.0569700
6830.24, 0.0569070
6839.25, 0.0569070
6848.29, 0.0564030
6857.35, 0.0557090
6866.43, 0.0555190
6875.54, 0.0560240
6884.67, 0.0560240
6893.82, 0.0557720
6903.0, 0.0553300
6912.2, 0.0548880
6921.43, 0.0544470
6930.69, 0.0538790
6939.96, 0.0532480
6949.27, 0.0524280
6958.59, 0.0513550
6967.95, 0.0508510
6977.33, 0.0504090
6986.73, 0.0497780
6996.16, 0.0490840
7005.61, 0.0484530
7015.09, 0.0476330
7024.6, 0.0468130
7034.13, 0.0459930
7043.69, 0.0449200
7053.27, 0.0443520
7062.88, 0.0440370
7072.52, 0.0435320
7082.18, 0.0429640
7091.87, 0.0423340
7101.58, 0.0418920
7111.32, 0.0413240
7121.09, 0.0408190
7130.88, 0.0402520
7140.71, 0.0395580
7150.56, 0.0388640
7160.43, 0.0382330
7170.33, 0.0376020
7180.27, 0.0371600
7190.23, 0.0365920
7200.21, 0.0359610
7210.23, 0.0354570
7220.27, 0.0350150
7230.34, 0.0343840
7240.44, 0.0337530
7250.56, 0.0331850
7260.72, 0.0325550
7270.9, 0.0319240
7281.12, 0.0313560
7291.36, 0.0307250
7301.63, 0.0300310
7311.93, 0.0294000
7322.25, 0.0287060
7332.61, 0.0281380
7343.0, 0.0277600
7353.41, 0.0273810
7363.86, 0.0269400
7374.33, 0.0263720
7384.83, 0.0259300
7395.37, 0.0254880
7405.93, 0.0249840
7416.53, 0.0244790
7427.15, 0.0242270
7437.81, 0.0238480
7448.5, 0.0234060
7459.22, 0.0229650
7469.96, 0.0225860
7480.74, 0.0220180
7491.55, 0.0216400
7502.39, 0.0212610
7513.27, 0.0208200
7524.17, 0.0202520
7535.11, 0.0198100
7546.08, 0.0193690
7557.08, 0.0189900
7568.11, 0.0184850
7579.17, 0.0179810
7590.27, 0.0174760
7601.4, 0.0170970
7612.56, 0.0165930
7623.76, 0.0161510
7634.98, 0.0157730
7646.24, 0.0153940
7657.54, 0.0149520
7668.87, 0.0145740
7680.23, 0.0141950
7691.62, 0.0138170
7703.05, 0.0134380
7714.51, 0.0129970
7726.01, 0.0125550
7737.54, 0.0123030
7749.11, 0.0120500
7760.71, 0.0116090
7772.35, 0.0111670
7784.02, 0.0107880
7795.72, 0.0105360
7807.46, 0.0101580
7819.23, 0.00965300
7831.04, 0.00927400
7842.89, 0.00889600
7854.77, 0.00851700
7866.69, 0.00820200
7878.65, 0.00794900
7890.64, 0.00750800
7902.67, 0.00712900
7914.74, 0.00700300
7926.84, 0.00681400
7938.98, 0.00649800
7951.16, 0.00618300
7963.37, 0.00586700
7975.62, 0.00567800
7987.91, 0.00542600
8000.24, 0.00511000
8012.6, 0.00498400
8025.01, 0.00485800
8037.45, 0.00466900
8049.93, 0.00435300
8062.45, 0.00422700
8075.01, 0.00410100
8087.61, 0.00397500
8100.24, 0.00391200
8112.91, 0.00372200
8125.63, 0.00365900
8138.39, 0.00347000
8151.18, 0.00340700
8164.02, 0.00340700
8176.9, 0.00328100
8189.81, 0.00315500
8202.77, 0.00315500
8215.77, 0.00309100
8228.82, 0.00315500
8241.9, 0.00321800
8255.02, 0.00328100
8268.19, 0.00334400
8281.39, 0.00340700
8294.65, 0.00340700
8307.94, 0.00353300
8321.28, 0.00359600
8334.66, 0.00384900
8348.08, 0.00397500
8361.54, 0.00410100
8375.05, 0.00435300
8388.6, 0.00466900
8402.2, 0.00485800
8415.84, 0.00511000
8429.52, 0.00548900
8443.25, 0.00586700
8457.02, 0.00630900
8470.84, 0.00675100
8484.7, 0.00719200
8498.61, 0.00776000
8512.57, 0.00832800
8526.57, 0.00883300
8540.62, 0.00946400
8554.71, 0.00996800
8568.85, 0.0105360
8583.04, 0.0112930
8597.27, 0.0121760
8611.55, 0.0129970
8625.88, 0.0135640
8640.26, 0.0144480
8654.68, 0.0153310
8669.16, 0.0162140
8683.68, 0.0172870
8698.25, 0.0184220
8712.87, 0.0195580
8727.53, 0.0207570
8742.25, 0.0220820
8757.02, 0.0232170
8771.83, 0.0241640
8786.7, 0.0249840
8801.62, 0.0253620
8816.59, 0.0253620
8831.61, 0.0252990
8846.68, 0.0249840
8861.8, 0.0242900
8876.97, 0.0232800
8892.2, 0.0218290
8907.48, 0.0196840
8922.81, 0.0170970
8938.2, 0.0145110
8953.63, 0.0121130
8969.13, 0.0102840
8984.67, 0.00870600
9000.27, 0.00776000
9015.92, 0.00763400
9031.63, 0.00801200
9047.39, 0.00858000
9063.21, 0.00940000
9079.08, 0.0100940
9095.01, 0.0109780
9111.0, 0.0119870
9127.04, 0.0131230
9143.13, 0.0143210
9159.28, 0.0156460
9175.49, 0.0174130
9191.76, 0.0190530
9208.09, 0.0205040
9224.47, 0.0222080
9240.92, 0.0235960
9257.42, 0.0250470
9273.98, 0.0261820
9290.6, 0.0269400
9307.28, 0.0271920
9324.02, 0.0273180
9340.82, 0.0274440
9357.68, 0.0276970
9374.6, 0.0279490
9391.58, 0.0282010
9408.62, 0.0282640
9425.73, 0.0282640
9442.9, 0.0280750
9460.13, 0.0279490
9477.42, 0.0273810
9494.78, 0.0268130
9512.2, 0.0263720
9529.69, 0.0256780
9547.24, 0.0247940
9564.86, 0.0241000
9582.54, 0.0236590
9600.28, 0.0230910
9618.1, 0.0222710
9635.97, 0.0215140
9653.92, 0.0208200
9671.93, 0.0198100
9690.01, 0.0188010
9708.16, 0.0181700
9726.37, 0.0170340
9744.65, 0.0156460
9763.0, 0.0144480
9781.43, 0.0135640
9799.92, 0.0126810
9818.48, 0.0123660
9837.1, 0.0126810
9855.8, 0.0136270
9874.58, 0.0144480
9893.42, 0.0152680
9912.34, 0.0161510
9931.33, 0.0167820
9950.39, 0.0171610
9969.52, 0.0175390
9988.74, 0.0178550
10008.0, 0.0184220
10027.4, 0.0194320
10046.8, 0.0206310
10066.3, 0.0215770
10085.9, 0.0223970
10105.6, 0.0230280
10125.3, 0.0234700
10145.1, 0.0239110
10165.0, 0.0244160
10185.0, 0.0245420
10205.0, 0.0241000
10225.2, 0.0235330
10245.4, 0.0226490
10265.7, 0.0212610
10286.0, 0.0196840
10306.5, 0.0179180
10327.0, 0.0160880
10347.6, 0.0146370
10368.3, 0.0135640
10389.1, 0.0120500
10409.9, 0.0106620
10430.9, 0.00965300
10451.9, 0.00864300
10473.0, 0.00750800
10494.2, 0.00681400
10515.5, 0.00637200
10536.9, 0.00612000
10558.4, 0.00593000
10579.9, 0.00605700
10601.5, 0.00643500
10623.3, 0.00681400
10645.1, 0.00706600
10667.0, 0.00750800
10689.0, 0.00769700
10711.1, 0.00776000
10733.2, 0.00769700
10755.5, 0.00757100
10777.9, 0.00776000
10800.3, 0.00782300
10822.9, 0.00813900
10845.5, 0.00870600
10868.2, 0.00908500
10891.1, 0.00959000
10914.0, 0.0104100
10937.0, 0.0111040
10960.2, 0.0118610
10983.4, 0.0128070
11006.7, 0.0138800
11030.1, 0.0148260
11053.6, 0.0159620
11077.3, 0.0171610
11101.0, 0.0182960
11124.8, 0.0194320
11148.7, 0.0206310
11172.7, 0.0218920
11196.9, 0.0230910
11221.1, 0.0241000
11245.4, 0.0249840
11269.9, 0.0256780
11294.4, 0.0261820
11319.1, 0.0266240
11343.9, 0.0266870
11368.8, 0.0266870
11393.7, 0.0268130
11418.8, 0.0274440
11444.0, 0.0283910
11469.4, 0.0296520
11494.8, 0.0307250
11520.3, 0.0314820
11546.0, 0.0318610
11571.8, 0.0322390
11597.7, 0.0326180
11623.7, 0.0325550
11649.8, 0.0323650
11676.0, 0.0323650
11702.4, 0.0322390
11728.9, 0.0317340
11755.5, 0.0311030
11782.2, 0.0307250
11809.0, 0.0303460
11836.0, 0.0296520
11863.0, 0.0288950
11890.3, 0.0281380
11917.6, 0.0272550
11945.0, 0.0263090
11972.6, 0.0250470
12000.4, 0.0238480
12028.2, 0.0229650
12056.2, 0.0221450
12084.3, 0.0213240
12112.5, 0.0204410
12140.9, 0.0196840
12169.4, 0.0188010
12198.0, 0.0176020
12226.8, 0.0161510
12255.7, 0.0148890
12284.7, 0.0138170
12313.9, 0.0126180
12343.2, 0.0113560
12372.7, 0.00984200
12402.3, 0.00851700
12432.0, 0.00782300
12461.9, 0.00687700
12491.9, 0.00624600
12522.1, 0.00630900
12552.4, 0.00643500
12582.9, 0.00656100
12613.5, 0.00662400
12644.3, 0.00700300
12675.2, 0.00706600
12706.3, 0.00725500
12737.5, 0.00776000
12768.9, 0.00794900
12800.4, 0.00801200
12832.1, 0.00826500
12863.9, 0.00858000
12895.9, 0.00864300
12928.1, 0.00832800
12960.4, 0.00801200
12992.9, 0.00788600
13025.5, 0.00757100
13058.3, 0.00719200
13091.3, 0.00694000
13124.4, 0.00649800
13157.8, 0.00618300
13191.2, 0.00586700
13224.9, 0.00548900
13258.7, 0.00542600
13292.7, 0.00586700
13326.9, 0.00593000
13361.2, 0.00586700
13395.7, 0.00593000
13430.4, 0.00599400
13465.3, 0.00580400
13500.4, 0.00643500
13535.7, 0.00643500
13571.1, 0.00624600
13606.7, 0.00612000
13642.5, 0.00567800
13678.5, 0.00555200
13714.7, 0.00567800
13751.1, 0.00542600
13787.6, 0.00498400
13824.4, 0.00460600
13861.4, 0.00429000
13898.5, 0.00391200
13935.9, 0.00384900
13973.5, 0.00384900
14011.2, 0.00391200
14049.2, 0.00384900
14087.4, 0.00378500
14125.8, 0.00384900
14164.3, 0.00384900
14203.2, 0.00384900
14242.2, 0.00416400
14281.4, 0.00372200
14320.9, 0.00359600
14360.5, 0.00384900
14400.4, 0.00454200
14440.5, 0.00473200
14480.9, 0.00454200
14521.4, 0.00479500
14562.2, 0.00523600
14603.3, 0.00542600
14644.5, 0.00517300
14686.0, 0.00511000
14727.7, 0.00530000
14769.7, 0.00485800
14811.9, 0.00498400
14854.3, 0.00542600
14897.0, 0.00536300
14939.9, 0.00523600
14983.1, 0.00530000
15026.5, 0.00530000
15070.2, 0.00523600
15114.2, 0.00542600
15158.3, 0.00586700
15202.8, 0.00593000
15247.5, 0.00618300
15292.5, 0.00649800
15337.7, 0.00656100
15383.2, 0.00618300
15429.0, 0.00599400
15475.1, 0.00624600
15521.4, 0.00643500
15568.0, 0.00612000
15614.9, 0.00599400
15662.1, 0.00618300
15709.6, 0.00656100
15757.3, 0.00668800
15805.4, 0.00712900
15853.7, 0.00788600
15902.3, 0.00826500
15951.2, 0.00813900
16000.5, 0.00845400
16050.0, 0.00914800
16099.8, 0.00977900
16150.0, 0.0102210
16200.5, 0.0111040
16251.3, 0.0122400
16302.4, 0.0128700
16353.8, 0.0129970
16405.5, 0.0134380
16457.6, 0.0138800
16510.0, 0.0145110
16562.8, 0.0148260
16615.9, 0.0151420
16669.3, 0.0158360
16723.1, 0.0164670
16777.2, 0.0162140
16831.7, 0.0167190
16886.5, 0.0179810
16941.7, 0.0190530
16997.2, 0.0195580
17053.1, 0.0198100
17109.4, 0.0202520
17166.1, 0.0210720
17223.1, 0.0220180
17280.5, 0.0222080
17338.3, 0.0225860
17396.5, 0.0237850
17455.1, 0.0239110
17514.0, 0.0241000
17573.4, 0.0237850
17633.2, 0.0237850
17693.4, 0.0238480
17754.0, 0.0235330
17815.0, 0.0232170
17876.4, 0.0234060
17938.3, 0.0234060
18000.5, 0.0229650
18063.3, 0.0227120
18126.4, 0.0232170
18190.0, 0.0232170
18254.1, 0.0222710
18318.6, 0.0220820
18383.5, 0.0229020
18449.0, 0.0224600
18514.9, 0.0220180
18581.2, 0.0223970
18648.0, 0.0216400
18715.4, 0.0206940
18783.2, 0.0210090
18851.5, 0.0210090
18920.3, 0.0213240
18989.6, 0.0208830
19059.4, 0.0203150
19129.7, 0.0198730
19200.6, 0.0198730
19272.0, 0.0197470
19343.9, 0.0191790
19416.3, 0.0189270
19489.3, 0.0188010
19562.8, 0.0172870
19637.0, 0.0160880
19711.6, 0.0159620
19786.8, 0.0150790
19862.6, 0.0128700
19939.0, 0.0123660
20016.0, 0.0124920
20093.6, 0.0117350
20171.8, 0.0105360
20250.6, 0.00996800
20330.0, 0.0100940
20410.0, 0.0109150
20490.7, 0.0117350
20572.0, 0.0131230
20654.0, 0.0143210
20736.6, 0.0160990
20819.9, 0.0177880
20903.8, 0.0191790
20988.5, 0.0198750
21073.8, 0.0208690
21159.8, 0.0227570
21246.5, 0.0243470
21334.0, 0.0247440
21422.1, 0.0245460
21511.0, 0.0242480
21600.7, 0.0244460
21691.0, 0.0244460
21782.1, 0.0242480
21874.0, 0.0247440
21966.7, 0.0248440
22060.2, 0.0250430
22154.5, 0.0246450
22249.6, 0.0237510
22345.5, 0.0220610
22442.2, 0.0192790
22539.8, 0.0174900
22638.2, 0.0152040
22737.5, 0.0138130
22837.7, 0.0145090
22938.7, 0.0150060
23040.7, 0.0168940
23143.5, 0.0201730
23247.3, 0.0210680
23352.1, 0.0218630
23457.7, 0.0221610
23564.4, 0.0231540
23672.0, 0.0236510
23780.5, 0.0241480
23890.1, 0.0237510
24000.7, 0.0230550
24112.3, 0.0230550
24225.0, 0.0239490
24338.7, 0.0243470
24453.5, 0.0258380
24569.4, 0.0276260
24686.4, 0.0293160
24804.5, 0.0313030
24923.8, 0.0341850
25044.2, 0.0372660
25165.8, 0.0378620
25288.6, 0.0373650
25412.5, 0.0370670
25537.7, 0.0368680
25664.1, 0.0349800
25791.8, 0.0319990
25920.8, 0.0305080
26051.1, 0.0291170
26182.6, 0.0270300
26315.5, 0.0251420
26449.8, 0.0239490
26585.4, 0.0227570
26722.5, 0.0212660
26860.9, 0.0194780
27000.8, 0.0185830
27142.1, 0.0187820
27285.0, 0.0181860
27429.4, 0.0176890
27575.3, 0.0173910
27722.7, 0.0174900
27871.8, 0.0161980
28022.4, 0.0147080
28174.7, 0.0149060
28328.7, 0.0151050
28484.4, 0.0152040
28641.7, 0.0164960
28800.9, 0.0186830
28961.8, 0.0202730
29124.5, 0.0205710
29289.0, 0.0206700
29455.4, 0.0220610
29623.8, 0.0239490
29794.0, 0.0243470
29966.3, 0.0260360
30140.5, 0.0282230
30316.7, 0.0293160
30495.1, 0.0301110
30675.5, 0.0300110
30858.1, 0.0302100
31042.8, 0.0309060
31229.8, 0.0318990
31419.1, 0.0333900
31610.7, 0.0349800
31804.6, 0.0356760
32000.9, 0.0365700
32199.7, 0.0366690
32400.9, 0.0357750
32604.8, 0.0342840
32811.1, 0.0332910
33020.1, 0.0320980
33231.8, 0.0314030
33446.2, 0.0307070
33663.4, 0.0290180
33883.4, 0.0265330
34106.3, 0.0245460
34332.1, 0.0229560
34561.0, 0.0198750
34792.9, 0.0178880
35028.0, 0.0173910
35266.3, 0.0169930
35507.8, 0.0165960
35752.7, 0.0172910
36001.0, 0.0192790
36252.8, 0.0216640
36508.1, 0.0238500
36767.0, 0.0264340
37029.7, 0.0283220
37296.1, 0.0317010
37566.3, 0.0374640
37840.5, 0.0432280
38118.8, 0.0485940
38401.2, 0.0536630
38687.8, 0.0566440
38978.6, 0.0583330
39273.9, 0.0584330
39573.7, 0.0593270
39878.1, 0.0585320
40187.3, 0.0554510
40501.2, 0.0534640
40820.0, 0.0523710
41144.0, 0.0518740
41473.2, 0.0524700
41807.6, 0.0552530
42147.5, 0.0578360
42493.0, 0.0585320
42844.2, 0.0598240
43201.2, 0.0624080
43564.3, 0.0638980
43933.5, 0.0636000
44309.0, 0.0657860
44691.0, 0.0680720
45079.6, 0.0713510
45475.0, 0.0755250
45877.5, 0.0779100
46287.1, 0.0796990
46704.2, 0.0793010
47128.7, 0.0764200
47561.1, 0.0723450
48001.5, 0.0665810
48450.1, 0.0586310
48907.2, 0.0495880
49373.0, 0.0409430
49847.7, 0.0346820
50331.5, 0.0299120
50825.0, 0.0292160
51328.2, 0.0303090
51841.5, 0.0316010
52365.1, 0.0363710
52899.4, 0.0411410
53444.8, 0.0438240
54001.5, 0.0494890
54570.1, 0.0529670
55150.6, 0.0545570
55743.6, 0.0582340
56349.5, 0.0595260
56968.7, 0.0625070
57601.7, 0.0661840
58248.9, 0.0655880
58910.9, 0.0651900
59588.1, 0.0661840
60281.0, 0.0668800
60990.2, 0.0675750
61716.3, 0.0701590
62459.8, 0.0747300
63221.6, 0.0770160
64002.1, 0.0777110
64802.1, 0.0775130
65622.1, 0.0794010
66463.4, 0.0798980
67326.6, 0.0825810
68212.4, 0.0860590
69121.9, 0.0872510
70056.0, 0.0882450
71015.7, 0.0824810
72002.0, 0.0825810
73016.3, 0.0854630
74059.4, 0.0767180
75132.7, 0.0688670
76237.6, 0.0664820
77375.5, 0.0663830
78547.9, 0.0654880
79756.3, 0.0634010
81002.5, 0.0605200
82288.5, 0.0608180
83615.7, 0.0585320
84986.5, 0.0589300
86402.9, 0.0643950
87867.4, 0.0763200
89382.4, 0.0797980
90950.5, 0.0863570
92574.6, 0.0952010
94257.2, 0.0901330
96002.7, 0.0945060
97814.1, 0.0969900
99695.1, 0.0956980
101650.0, 0.0955990
103683.0, 0.0963940
105799.0, 0.0936110
108003.0, 0.0886430
110301.0, 0.0878480
112699.0, 0.0884440
115204.0, 0.0974870
117822.0, 0.104245
120562.0, 0.105238
123433.0, 0.100866
126443.0, 0.107524
129604.0, 0.105238
132926.0, 0.0980830
136424.0, 0.0990770
140111.0, 0.108120
144003.0, 0.107027
148118.0, 0.0922200
152474.0, 0.0863570
157095.0, 0.0964930
162004.0, 0.121238
167231.0, 0.139225
172805.0, 0.146181
178764.0, 0.140417
185148.0, 0.111499
192005.0, 0.0712520
199390.0, 0.00198800
207366.0, 0.168242
216006.0, 0.433375
