Database of Origin, USGS Spectral Database
Sample Description, See USGS database for additional info
Date Added,2016-08-03 21:26:29.500734

Data ID,USGS_coo07          
Sample ID, cookeite_car1.6241
Mineral Name, cookeite
Material Class,Phyllosilicate

Wavelength
1379.5, 0.607245
1379.87, 0.607185
1380.23, 0.607483
1380.6, 0.606708
1380.97, 0.605037
1381.34, 0.604261
1381.7, 0.603545
1382.07, 0.603604
1382.44, 0.603366
1382.81, 0.603007
1383.18, 0.602053
1383.55, 0.601157
1383.92, 0.600441
1384.29, 0.599665
1384.66, 0.599427
1385.03, 0.598472
1385.4, 0.597159
1385.77, 0.596980
1386.14, 0.595965
1386.51, 0.595010
1386.88, 0.594115
1387.25, 0.593220
1387.62, 0.592623
1387.99, 0.592086
1388.36, 0.591250
1388.74, 0.590475
1389.11, 0.589221
1389.48, 0.588386
1389.85, 0.587610
1390.23, 0.586655
1390.6, 0.585879
1390.97, 0.584924
1391.35, 0.583910
1391.72, 0.583373
1392.09, 0.582895
1392.47, 0.582597
1392.84, 0.581940
1393.21, 0.581344
1393.59, 0.580150
1393.96, 0.579493
1394.34, 0.579135
1394.71, 0.578897
1395.09, 0.578001
1395.46, 0.576987
1395.84, 0.576450
1396.22, 0.576032
1396.59, 0.575256
1396.97, 0.574958
1397.35, 0.574242
1397.72, 0.573346
1398.1, 0.572451
1398.48, 0.571437
1398.85, 0.570840
1399.23, 0.570183
1399.61, 0.569885
1399.99, 0.569288
1400.37, 0.569049
1400.74, 0.568572
1401.12, 0.567498
1401.5, 0.566424
1401.88, 0.565349
1402.26, 0.565349
1402.64, 0.565170
1403.02, 0.564454
1403.4, 0.564335
1403.78, 0.564275
1404.16, 0.563738
1404.54, 0.563738
1404.92, 0.564156
1405.3, 0.563798
1405.68, 0.563678
1406.06, 0.564036
1406.44, 0.564215
1406.83, 0.564574
1407.21, 0.565051
1407.59, 0.564991
1407.97, 0.565349
1408.35, 0.565767
1408.74, 0.565886
1409.12, 0.566603
1409.5, 0.567259
1409.89, 0.567677
1410.27, 0.568095
1410.65, 0.568035
1411.04, 0.568035
1411.42, 0.567617
1411.81, 0.567677
1412.19, 0.567856
1412.58, 0.568095
1412.96, 0.567916
1413.35, 0.567498
1413.73, 0.567498
1414.12, 0.567438
1414.5, 0.567498
1414.89, 0.567378
1415.28, 0.567498
1415.66, 0.568393
1416.05, 0.569646
1416.44, 0.570124
1416.82, 0.570303
1417.21, 0.571317
1417.6, 0.571795
1417.98, 0.571914
1418.37, 0.572153
1418.76, 0.572392
1419.15, 0.572332
1419.54, 0.571974
1419.93, 0.571795
1420.32, 0.571795
1420.71, 0.571496
1421.09, 0.571556
1421.48, 0.571914
1421.88, 0.571735
1422.27, 0.571198
1422.66, 0.571079
1423.05, 0.570780
1423.44, 0.570661
1423.83, 0.570482
1424.22, 0.570303
1424.61, 0.569766
1425.0, 0.569527
1425.39, 0.569825
1425.78, 0.569825
1426.18, 0.569408
1426.57, 0.569706
1426.96, 0.569229
1427.36, 0.568751
1427.75, 0.568393
1428.14, 0.568095
1428.54, 0.568095
1428.93, 0.568274
1429.32, 0.567796
1429.72, 0.567438
1430.11, 0.567140
1430.51, 0.567140
1430.9, 0.567259
1431.3, 0.567080
1431.69, 0.566841
1432.09, 0.566722
1432.48, 0.566662
1432.88, 0.566722
1433.28, 0.566722
1433.67, 0.566364
1434.07, 0.566185
1434.46, 0.566125
1434.86, 0.566304
1435.26, 0.565946
1435.66, 0.565707
1436.05, 0.565767
1436.45, 0.565767
1436.85, 0.565588
1437.25, 0.565588
1437.65, 0.565409
1438.05, 0.565230
1438.44, 0.565230
1438.84, 0.564932
1439.24, 0.564693
1439.64, 0.564753
1440.04, 0.564932
1440.44, 0.564991
1440.84, 0.564872
1441.24, 0.564872
1441.65, 0.564574
1442.05, 0.564454
1442.45, 0.564394
1442.85, 0.564335
1443.25, 0.564335
1443.65, 0.564036
1444.05, 0.563619
1444.46, 0.563678
1444.86, 0.564036
1445.26, 0.563917
1445.67, 0.563320
1446.07, 0.563201
1446.47, 0.563440
1446.88, 0.563380
1447.28, 0.563380
1447.68, 0.563022
1448.09, 0.562843
1448.49, 0.562664
1448.9, 0.562544
1449.3, 0.562544
1449.71, 0.562425
1450.11, 0.562127
1450.52, 0.562007
1450.93, 0.562127
1451.33, 0.562246
1451.74, 0.562246
1452.14, 0.561948
1452.55, 0.561828
1452.96, 0.561769
1453.36, 0.561351
1453.77, 0.561291
1454.18, 0.561291
1454.59, 0.561052
1455.0, 0.560933
1455.41, 0.560993
1455.81, 0.560873
1456.22, 0.560157
1456.63, 0.560038
1457.04, 0.560694
1457.45, 0.560694
1457.86, 0.560097
1458.27, 0.559978
1458.68, 0.559978
1459.09, 0.559918
1459.5, 0.559799
1459.91, 0.559859
1460.32, 0.559381
1460.74, 0.559083
1461.15, 0.559083
1461.56, 0.559083
1461.97, 0.558665
1462.39, 0.558307
1462.8, 0.558128
1463.21, 0.558068
1463.62, 0.558247
1464.04, 0.558188
1464.45, 0.558009
1464.86, 0.558068
1465.28, 0.557770
1465.69, 0.557710
1466.11, 0.557710
1466.52, 0.557830
1466.94, 0.557710
1467.35, 0.557531
1467.77, 0.557293
1468.18, 0.556875
1468.6, 0.557173
1469.02, 0.557352
1469.43, 0.556875
1469.85, 0.556517
1470.27, 0.556457
1470.68, 0.556517
1471.1, 0.556517
1471.52, 0.556397
1471.94, 0.556278
1472.35, 0.556338
1472.77, 0.556397
1473.19, 0.556397
1473.61, 0.556218
1474.03, 0.556159
1474.45, 0.556218
1474.87, 0.556159
1475.29, 0.556218
1475.71, 0.556159
1476.13, 0.555860
1476.55, 0.555681
1476.97, 0.555800
1477.39, 0.556159
1477.81, 0.556278
1478.23, 0.556039
1478.65, 0.556039
1479.07, 0.555800
1479.5, 0.555980
1479.92, 0.555980
1480.34, 0.555741
1480.76, 0.556218
1481.19, 0.556397
1481.61, 0.555860
1482.03, 0.555741
1482.46, 0.555800
1482.88, 0.555860
1483.31, 0.556218
1483.73, 0.556457
1484.16, 0.556278
1484.58, 0.556218
1485.01, 0.556218
1485.43, 0.555980
1485.86, 0.555920
1486.28, 0.556278
1486.71, 0.556397
1487.14, 0.556338
1487.56, 0.556338
1487.99, 0.556278
1488.42, 0.556278
1488.84, 0.556278
1489.27, 0.556457
1489.7, 0.556457
1490.13, 0.556397
1490.56, 0.556218
1490.98, 0.556517
1491.41, 0.556994
1491.84, 0.556934
1492.27, 0.556338
1492.7, 0.556397
1493.13, 0.556576
1493.56, 0.556875
1493.99, 0.557054
1494.42, 0.556934
1494.85, 0.556934
1495.29, 0.557054
1495.72, 0.557054
1496.15, 0.557114
1496.58, 0.557293
1497.01, 0.557472
1497.44, 0.557591
1497.88, 0.557352
1498.31, 0.557710
1498.74, 0.557889
1499.18, 0.557830
1499.61, 0.557889
1500.04, 0.557710
1500.48, 0.557710
1500.91, 0.558188
1501.35, 0.558367
1501.78, 0.558426
1502.22, 0.558426
1502.65, 0.558486
1503.09, 0.558426
1503.53, 0.558486
1503.96, 0.558665
1504.4, 0.558605
1504.83, 0.558785
1505.27, 0.558844
1505.71, 0.558665
1506.15, 0.558605
1506.58, 0.558426
1507.02, 0.558486
1507.46, 0.558904
1507.9, 0.559083
1508.34, 0.559143
1508.78, 0.559023
1509.21, 0.558904
1509.66, 0.558904
1510.09, 0.559143
1510.53, 0.559739
1510.97, 0.560038
1511.42, 0.559978
1511.86, 0.559680
1512.3, 0.559620
1512.74, 0.559918
1513.18, 0.560097
1513.62, 0.560336
1514.06, 0.560217
1514.51, 0.560277
1514.95, 0.560336
1515.39, 0.560277
1515.83, 0.560277
1516.28, 0.560277
1516.72, 0.560635
1517.16, 0.560456
1517.61, 0.560396
1518.05, 0.560575
1518.5, 0.560635
1518.94, 0.560635
1519.39, 0.560814
1519.83, 0.561052
1520.28, 0.560993
1520.73, 0.560993
1521.17, 0.561291
1521.62, 0.561410
1522.07, 0.561112
1522.51, 0.560933
1522.96, 0.560873
1523.41, 0.560933
1523.85, 0.561231
1524.3, 0.561470
1524.75, 0.561410
1525.2, 0.561351
1525.65, 0.561231
1526.1, 0.561291
1526.55, 0.561649
1527.0, 0.562007
1527.45, 0.561828
1527.9, 0.561649
1528.35, 0.561769
1528.8, 0.561769
1529.25, 0.561709
1529.7, 0.562007
1530.15, 0.562067
1530.6, 0.561948
1531.05, 0.562127
1531.51, 0.562306
1531.96, 0.562007
1532.41, 0.562067
1532.87, 0.562425
1533.32, 0.562485
1533.77, 0.562246
1534.23, 0.562425
1534.68, 0.562664
1535.14, 0.562723
1535.59, 0.562783
1536.05, 0.563141
1536.5, 0.562902
1536.96, 0.562962
1537.41, 0.563022
1537.87, 0.563141
1538.32, 0.563380
1538.78, 0.563440
1539.24, 0.563141
1539.7, 0.563440
1540.15, 0.563619
1540.61, 0.563320
1541.07, 0.562962
1541.53, 0.562902
1541.98, 0.563380
1542.44, 0.563559
1542.9, 0.563678
1543.36, 0.563917
1543.82, 0.564156
1544.28, 0.564275
1544.74, 0.564514
1545.2, 0.564454
1545.66, 0.564394
1546.12, 0.564275
1546.59, 0.563977
1547.05, 0.563977
1547.51, 0.564156
1547.97, 0.564454
1548.43, 0.564633
1548.9, 0.564932
1549.36, 0.564991
1549.82, 0.564991
1550.29, 0.564812
1550.75, 0.565111
1551.21, 0.565290
1551.68, 0.565349
1552.14, 0.565409
1552.61, 0.565409
1553.07, 0.565767
1553.54, 0.566185
1554.0, 0.566006
1554.47, 0.565827
1554.93, 0.565946
1555.4, 0.566006
1555.87, 0.566065
1556.34, 0.566424
1556.8, 0.566304
1557.27, 0.566245
1557.74, 0.566424
1558.21, 0.566543
1558.68, 0.566603
1559.14, 0.567080
1559.61, 0.567259
1560.08, 0.567140
1560.55, 0.567080
1561.02, 0.566961
1561.49, 0.566901
1561.96, 0.567080
1562.43, 0.567498
1562.9, 0.567677
1563.38, 0.567558
1563.85, 0.567498
1564.32, 0.567856
1564.79, 0.567796
1565.26, 0.567916
1565.74, 0.568035
1566.21, 0.568154
1566.68, 0.568333
1567.16, 0.568453
1567.63, 0.568572
1568.1, 0.568572
1568.58, 0.568512
1569.05, 0.568453
1569.53, 0.568572
1570.0, 0.569049
1570.48, 0.569109
1570.96, 0.568990
1571.43, 0.569288
1571.91, 0.569229
1572.39, 0.569169
1572.86, 0.569408
1573.34, 0.569408
1573.82, 0.569467
1574.3, 0.569706
1574.77, 0.569825
1575.25, 0.569706
1575.73, 0.569766
1576.21, 0.570183
1576.69, 0.570183
1577.17, 0.570362
1577.65, 0.570482
1578.13, 0.570422
1578.61, 0.570661
1579.09, 0.570959
1579.57, 0.570780
1580.05, 0.570661
1580.54, 0.570840
1581.02, 0.571079
1581.5, 0.571079
1581.98, 0.571138
1582.47, 0.571138
1582.95, 0.571317
1583.43, 0.571258
1583.92, 0.571675
1584.4, 0.571675
1584.88, 0.571556
1585.37, 0.571914
1585.85, 0.571854
1586.34, 0.572093
1586.82, 0.572093
1587.31, 0.572213
1587.8, 0.572213
1588.28, 0.572153
1588.77, 0.572451
1589.26, 0.572451
1589.74, 0.572451
1590.23, 0.572630
1590.72, 0.572690
1591.21, 0.572630
1591.7, 0.573048
1592.19, 0.573167
1592.67, 0.573048
1593.16, 0.573108
1593.65, 0.573227
1594.14, 0.573466
1594.63, 0.573466
1595.12, 0.573645
1595.61, 0.573943
1596.11, 0.574242
1596.6, 0.574480
1597.09, 0.574182
1597.58, 0.574242
1598.08, 0.574659
1598.57, 0.574958
1599.06, 0.575017
1599.55, 0.575316
1600.05, 0.575376
1600.54, 0.575316
1601.04, 0.575495
1601.53, 0.575674
1602.03, 0.575913
1602.52, 0.576271
1603.02, 0.576450
1603.51, 0.576509
1604.01, 0.576330
1604.5, 0.576509
1605.0, 0.576629
1605.5, 0.576629
1606.0, 0.576748
1606.49, 0.576808
1606.99, 0.576868
1607.49, 0.577166
1607.99, 0.577345
1608.49, 0.577584
1608.99, 0.577763
1609.49, 0.577703
1609.99, 0.577763
1610.49, 0.578001
1610.99, 0.578180
1611.49, 0.578240
1611.99, 0.578300
1612.49, 0.578539
1612.99, 0.578777
1613.49, 0.578956
1614.0, 0.579016
1614.5, 0.579255
1615.0, 0.579553
1615.51, 0.579852
1616.01, 0.579911
1616.51, 0.580090
1617.02, 0.580508
1617.52, 0.580627
1618.03, 0.580508
1618.53, 0.580329
1619.04, 0.580568
1619.54, 0.580926
1620.05, 0.581164
1620.55, 0.581224
1621.06, 0.581164
1621.57, 0.581523
1622.08, 0.581821
1622.58, 0.582239
1623.09, 0.582298
1623.6, 0.582537
1624.11, 0.582657
1624.62, 0.582537
1625.13, 0.582537
1625.64, 0.582716
1626.15, 0.583134
1626.66, 0.583671
1627.17, 0.583671
1627.68, 0.583790
1628.19, 0.583850
1628.7, 0.583969
1629.21, 0.584089
1629.72, 0.584566
1630.24, 0.584626
1630.75, 0.584745
1631.26, 0.584805
1631.78, 0.584924
1632.29, 0.585044
1632.8, 0.585282
1633.32, 0.585461
1633.83, 0.585461
1634.35, 0.585521
1634.86, 0.585760
1635.38, 0.586058
1635.9, 0.586178
1636.41, 0.586297
1636.93, 0.586357
1637.45, 0.586595
1637.96, 0.586953
1638.48, 0.586953
1639.0, 0.587252
1639.52, 0.587192
1640.04, 0.587133
1640.56, 0.587371
1641.08, 0.587670
1641.59, 0.587968
1642.11, 0.588207
1642.63, 0.588207
1643.16, 0.588445
1643.68, 0.588505
1644.2, 0.588505
1644.72, 0.588445
1645.24, 0.588565
1645.76, 0.588625
1646.29, 0.589042
1646.81, 0.589221
1647.33, 0.589520
1647.86, 0.589758
1648.38, 0.589818
1648.9, 0.589699
1649.43, 0.590057
1649.95, 0.590117
1650.48, 0.589937
1651.0, 0.589937
1651.53, 0.590057
1652.06, 0.590176
1652.58, 0.590296
1653.11, 0.590654
1653.64, 0.590833
1654.17, 0.590833
1654.69, 0.590892
1655.22, 0.590833
1655.75, 0.591012
1656.28, 0.591310
1656.81, 0.591370
1657.34, 0.591429
1657.87, 0.591668
1658.4, 0.591728
1658.93, 0.591907
1659.46, 0.591967
1659.99, 0.592325
1660.52, 0.592444
1661.05, 0.592384
1661.59, 0.592325
1662.12, 0.592623
1662.65, 0.592742
1663.19, 0.592742
1663.72, 0.592862
1664.26, 0.593041
1664.79, 0.592862
1665.32, 0.592981
1665.86, 0.593280
1666.39, 0.593339
1666.93, 0.593578
1667.47, 0.593578
1668.0, 0.593876
1668.54, 0.594234
1669.08, 0.594294
1669.61, 0.594294
1670.15, 0.594473
1670.69, 0.594593
1671.23, 0.594712
1671.77, 0.594652
1672.31, 0.594593
1672.85, 0.595010
1673.39, 0.595309
1673.93, 0.595488
1674.47, 0.595428
1675.01, 0.595368
1675.55, 0.595309
1676.09, 0.595488
1676.64, 0.595607
1677.18, 0.595905
1677.72, 0.596085
1678.26, 0.596085
1678.81, 0.596264
1679.35, 0.596383
1679.89, 0.596502
1680.44, 0.596622
1680.98, 0.596622
1681.53, 0.596801
1682.07, 0.596980
1682.62, 0.597039
1683.17, 0.596980
1683.71, 0.596980
1684.26, 0.597338
1684.81, 0.597577
1685.36, 0.597636
1685.9, 0.597577
1686.45, 0.597338
1687.0, 0.597636
1687.55, 0.597935
1688.1, 0.598233
1688.65, 0.598412
1689.2, 0.598352
1689.75, 0.598293
1690.3, 0.598710
1690.85, 0.598890
1691.41, 0.598949
1691.96, 0.598949
1692.51, 0.599009
1693.06, 0.599069
1693.61, 0.599307
1694.17, 0.599546
1694.72, 0.599307
1695.28, 0.599367
1695.83, 0.599785
1696.39, 0.599964
1696.94, 0.600143
1697.5, 0.600203
1698.05, 0.600203
1698.61, 0.600262
1699.17, 0.600381
1699.72, 0.600203
1700.28, 0.600203
1700.84, 0.600381
1701.4, 0.600501
1701.95, 0.600501
1702.51, 0.600799
1703.07, 0.600799
1703.63, 0.601038
1704.19, 0.601217
1704.75, 0.601277
1705.31, 0.601396
1705.88, 0.601575
1706.44, 0.601515
1707.0, 0.601694
1707.56, 0.601933
1708.12, 0.601874
1708.69, 0.601814
1709.25, 0.601874
1709.81, 0.602112
1710.38, 0.602232
1710.94, 0.602291
1711.51, 0.602232
1712.07, 0.602649
1712.64, 0.602769
1713.2, 0.602590
1713.77, 0.602769
1714.34, 0.603186
1714.9, 0.603485
1715.47, 0.603485
1716.04, 0.603425
1716.61, 0.603127
1717.18, 0.603186
1717.74, 0.603425
1718.31, 0.603604
1718.88, 0.603724
1719.45, 0.603843
1720.02, 0.603724
1720.59, 0.603843
1721.17, 0.603962
1721.74, 0.604082
1722.31, 0.604141
1722.88, 0.604141
1723.45, 0.604380
1724.03, 0.604499
1724.6, 0.604440
1725.18, 0.604499
1725.75, 0.604559
1726.33, 0.604798
1726.9, 0.604858
1727.48, 0.604798
1728.05, 0.604858
1728.63, 0.604977
1729.2, 0.605037
1729.78, 0.605156
1730.36, 0.605335
1730.94, 0.605574
1731.51, 0.605633
1732.09, 0.605693
1732.67, 0.605932
1733.25, 0.605872
1733.83, 0.605872
1734.41, 0.606051
1734.99, 0.606170
1735.57, 0.606290
1736.15, 0.606350
1736.73, 0.606469
1737.32, 0.606588
1737.9, 0.606708
1738.48, 0.607066
1739.07, 0.607185
1739.65, 0.607125
1740.23, 0.607245
1740.82, 0.607364
1741.4, 0.607483
1741.99, 0.607543
1742.57, 0.607483
1743.16, 0.607424
1743.74, 0.607603
1744.33, 0.607662
1744.92, 0.607901
1745.51, 0.607901
1746.09, 0.607662
1746.68, 0.607603
1747.27, 0.607841
1747.86, 0.607961
1748.45, 0.608080
1749.04, 0.608200
1749.63, 0.608379
1750.22, 0.608259
1750.81, 0.608200
1751.4, 0.608498
1751.99, 0.608677
1752.59, 0.608677
1753.18, 0.608438
1753.77, 0.608617
1754.37, 0.608737
1754.96, 0.608856
1755.56, 0.608856
1756.15, 0.608856
1756.74, 0.608856
1757.34, 0.609154
1757.94, 0.609334
1758.53, 0.609274
1759.13, 0.609572
1759.73, 0.609632
1760.32, 0.609692
1760.92, 0.609632
1761.52, 0.609572
1762.12, 0.609692
1762.72, 0.609811
1763.32, 0.609871
1763.92, 0.609990
1764.52, 0.610109
1765.12, 0.610169
1765.72, 0.610229
1766.32, 0.610348
1766.92, 0.610408
1767.53, 0.610467
1768.13, 0.610766
1768.73, 0.610885
1769.34, 0.610706
1769.94, 0.610826
1770.55, 0.611005
1771.15, 0.611124
1771.76, 0.611005
1772.36, 0.611243
1772.97, 0.611422
1773.57, 0.611363
1774.18, 0.611542
1774.79, 0.611721
1775.4, 0.611780
1776.0, 0.611780
1776.61, 0.611780
1777.22, 0.611840
1777.83, 0.611900
1778.44, 0.612079
1779.05, 0.612198
1779.66, 0.612258
1780.27, 0.612258
1780.88, 0.612377
1781.5, 0.612437
1782.11, 0.612497
1782.72, 0.612437
1783.33, 0.612556
1783.95, 0.612795
1784.56, 0.612974
1785.18, 0.612855
1785.79, 0.612914
1786.41, 0.612914
1787.02, 0.613034
1787.64, 0.613272
1788.26, 0.613153
1788.87, 0.613034
1789.49, 0.613272
1790.11, 0.613213
1790.73, 0.613213
1791.35, 0.613093
1791.96, 0.613213
1792.58, 0.613392
1793.21, 0.613690
1793.83, 0.613690
1794.45, 0.613392
1795.07, 0.613332
1795.69, 0.613451
1796.31, 0.613332
1796.93, 0.613332
1797.56, 0.613451
1798.18, 0.613690
1798.8, 0.613511
1799.43, 0.613451
1800.05, 0.613392
1800.68, 0.613750
1801.3, 0.613989
1801.93, 0.613869
1802.56, 0.613690
1803.18, 0.613750
1803.81, 0.613630
1804.44, 0.613630
1805.07, 0.613690
1805.7, 0.613810
1806.33, 0.613750
1806.95, 0.613690
1807.58, 0.613511
1808.22, 0.613511
1808.85, 0.613571
1809.48, 0.613630
1810.11, 0.613750
1810.74, 0.613869
1811.38, 0.613511
1812.01, 0.613690
1812.64, 0.613869
1813.28, 0.613869
1813.91, 0.613630
1814.55, 0.613451
1815.18, 0.613750
1815.82, 0.613989
1816.45, 0.613929
1817.09, 0.613690
1817.73, 0.613511
1818.36, 0.613690
1819.0, 0.613392
1819.64, 0.613511
1820.28, 0.614168
1820.92, 0.614168
1821.56, 0.614048
1822.2, 0.613989
1822.84, 0.613929
1823.48, 0.613571
1824.12, 0.613272
1824.76, 0.613630
1825.41, 0.614108
1826.05, 0.614645
1826.69, 0.614287
1827.34, 0.613750
1827.98, 0.613810
1828.63, 0.614168
1829.27, 0.614168
1829.92, 0.614048
1830.56, 0.614347
1831.21, 0.614466
1831.86, 0.614048
1832.5, 0.613929
1833.15, 0.613929
1833.8, 0.613810
1834.45, 0.614347
1835.1, 0.614824
1835.75, 0.615063
1836.4, 0.615063
1837.05, 0.614943
1837.7, 0.615003
1838.35, 0.614526
1839.01, 0.614824
1839.66, 0.615540
1840.31, 0.615182
1840.96, 0.615003
1841.62, 0.615898
1842.27, 0.615660
1842.93, 0.615063
1843.58, 0.615003
1844.24, 0.615063
1844.9, 0.615122
1845.55, 0.615122
1846.21, 0.615660
1846.87, 0.616794
1847.53, 0.616913
1848.18, 0.616794
1848.84, 0.616435
1849.5, 0.616256
1850.16, 0.616197
1850.82, 0.616256
1851.48, 0.616197
1852.14, 0.616435
1852.81, 0.617152
1853.47, 0.618166
1854.13, 0.618286
1854.8, 0.617510
1855.46, 0.617450
1856.12, 0.617987
1856.79, 0.618286
1857.45, 0.617868
1858.12, 0.617569
1858.79, 0.617927
1859.45, 0.619181
1860.12, 0.619300
1860.79, 0.618644
1861.46, 0.618286
1862.12, 0.618226
1862.79, 0.618524
1863.46, 0.618763
1864.13, 0.618882
1864.8, 0.618763
1865.48, 0.618644
1866.15, 0.618524
1866.82, 0.619300
1867.49, 0.620374
1868.16, 0.620255
1868.84, 0.619718
1869.51, 0.619837
1870.19, 0.620553
1870.86, 0.621329
1871.54, 0.620553
1872.21, 0.620494
1872.89, 0.621210
1873.56, 0.620732
1874.24, 0.620016
1874.92, 0.620016
1875.6, 0.620136
1876.28, 0.620434
1876.96, 0.620434
1877.64, 0.619957
1878.32, 0.619599
1879.0, 0.619539
1879.68, 0.619539
1880.36, 0.619658
1881.04, 0.619658
1881.73, 0.619658
1882.41, 0.619658
1883.09, 0.619778
1883.78, 0.620255
1884.46, 0.620076
1885.15, 0.619599
1885.83, 0.619658
1886.52, 0.619778
1887.21, 0.619718
1887.89, 0.619479
1888.58, 0.619539
1889.27, 0.619837
1889.96, 0.620315
1890.65, 0.620016
1891.34, 0.619778
1892.03, 0.619897
1892.72, 0.619897
1893.41, 0.619658
1894.1, 0.619658
1894.79, 0.619420
1895.49, 0.619181
1896.18, 0.618942
1896.87, 0.619300
1897.57, 0.619599
1898.26, 0.619658
1898.96, 0.620255
1899.65, 0.620732
1900.35, 0.620076
1901.05, 0.619240
1901.74, 0.619002
1902.44, 0.619718
1903.14, 0.619897
1903.84, 0.619121
1904.54, 0.619539
1905.24, 0.620374
1905.94, 0.620076
1906.64, 0.619837
1907.34, 0.619300
1908.04, 0.618823
1908.75, 0.618823
1909.45, 0.618703
1910.15, 0.618763
1910.86, 0.619002
1911.56, 0.619121
1912.27, 0.618882
1912.97, 0.619360
1913.68, 0.619718
1914.39, 0.619181
1915.09, 0.618763
1915.8, 0.618823
1916.51, 0.618882
1917.22, 0.618763
1917.93, 0.618584
1918.64, 0.618763
1919.35, 0.619360
1920.06, 0.620016
1920.77, 0.619837
1921.48, 0.618942
1922.19, 0.618644
1922.91, 0.618644
1923.62, 0.618882
1924.33, 0.618763
1925.05, 0.618465
1925.76, 0.618524
1926.48, 0.618763
1927.19, 0.618882
1927.91, 0.618823
1928.63, 0.619121
1929.35, 0.618882
1930.07, 0.618465
1930.78, 0.618345
1931.5, 0.618345
1932.22, 0.618524
1932.94, 0.618584
1933.66, 0.618763
1934.39, 0.618584
1935.11, 0.618465
1935.83, 0.618584
1936.55, 0.618524
1937.28, 0.618465
1938.0, 0.618524
1938.73, 0.618465
1939.45, 0.618524
1940.18, 0.618465
1940.9, 0.618405
1941.63, 0.618465
1942.36, 0.618644
1943.09, 0.618644
1943.81, 0.618703
1944.54, 0.618644
1945.27, 0.618524
1946.0, 0.618286
1946.73, 0.618166
1947.47, 0.618166
1948.2, 0.618226
1948.93, 0.618047
1949.66, 0.618047
1950.4, 0.618166
1951.13, 0.618106
1951.86, 0.618166
1952.6, 0.618226
1953.34, 0.618047
1954.07, 0.617808
1954.81, 0.617808
1955.55, 0.617689
1956.29, 0.617689
1957.02, 0.617569
1957.76, 0.617569
1958.5, 0.617390
1959.24, 0.617152
1959.98, 0.616973
1960.72, 0.616794
1961.47, 0.616734
1962.21, 0.616973
1962.95, 0.616973
1963.7, 0.616734
1964.44, 0.616615
1965.18, 0.616555
1965.93, 0.616435
1966.67, 0.616316
1967.42, 0.616137
1968.17, 0.615958
1968.92, 0.615898
1969.66, 0.615719
1970.41, 0.615660
1971.16, 0.615660
1971.91, 0.615660
1972.66, 0.615481
1973.41, 0.615421
1974.16, 0.615301
1974.92, 0.615361
1975.67, 0.615301
1976.42, 0.615182
1977.18, 0.615122
1977.93, 0.615003
1978.69, 0.615003
1979.44, 0.615063
1980.2, 0.614884
1980.95, 0.614764
1981.71, 0.614347
1982.47, 0.614227
1983.23, 0.614347
1983.99, 0.614108
1984.74, 0.614108
1985.51, 0.614227
1986.27, 0.614048
1987.03, 0.613929
1987.79, 0.613929
1988.55, 0.613810
1989.32, 0.613511
1990.08, 0.613272
1990.84, 0.613332
1991.61, 0.613213
1992.37, 0.613034
1993.14, 0.613093
1993.9, 0.613034
1994.67, 0.613034
1995.44, 0.612795
1996.21, 0.612556
1996.98, 0.612437
1997.75, 0.612377
1998.52, 0.612377
1999.29, 0.612318
2000.06, 0.612138
2000.83, 0.611959
2001.6, 0.611900
2002.38, 0.611900
2003.15, 0.611721
2003.93, 0.611840
2004.7, 0.611840
2005.48, 0.611840
2006.25, 0.611661
2007.03, 0.611482
2007.81, 0.611363
2008.58, 0.611661
2009.36, 0.611601
2010.14, 0.611363
2010.92, 0.611064
2011.7, 0.610826
2012.48, 0.610826
2013.26, 0.611005
2014.05, 0.610885
2014.83, 0.610885
2015.61, 0.610766
2016.4, 0.610646
2017.18, 0.610706
2017.97, 0.610587
2018.75, 0.610408
2019.54, 0.610587
2020.32, 0.610766
2021.11, 0.610706
2021.9, 0.610527
2022.69, 0.610527
2023.48, 0.610467
2024.27, 0.610229
2025.06, 0.610408
2025.85, 0.610706
2026.64, 0.610527
2027.44, 0.610467
2028.23, 0.610467
2029.02, 0.610587
2029.82, 0.610766
2030.61, 0.610766
2031.41, 0.610646
2032.2, 0.610646
2033.0, 0.610945
2033.8, 0.611064
2034.6, 0.611005
2035.4, 0.611005
2036.2, 0.611124
2037.0, 0.611303
2037.8, 0.611184
2038.6, 0.611124
2039.4, 0.611064
2040.2, 0.611243
2041.01, 0.611482
2041.81, 0.611601
2042.61, 0.611661
2043.42, 0.611959
2044.22, 0.611900
2045.03, 0.611900
2045.84, 0.611959
2046.65, 0.612079
2047.46, 0.612198
2048.26, 0.612318
2049.07, 0.612377
2049.88, 0.612437
2050.69, 0.612377
2051.51, 0.612556
2052.32, 0.612676
2053.13, 0.612795
2053.94, 0.612914
2054.76, 0.613093
2055.57, 0.613093
2056.39, 0.613153
2057.2, 0.613213
2058.02, 0.613332
2058.84, 0.613451
2059.66, 0.613451
2060.48, 0.613332
2061.29, 0.613332
2062.11, 0.613213
2062.94, 0.613332
2063.76, 0.613571
2064.58, 0.613630
2065.4, 0.613571
2066.22, 0.613630
2067.05, 0.613869
2067.87, 0.613869
2068.7, 0.613750
2069.52, 0.613810
2070.35, 0.613810
2071.18, 0.613810
2072.0, 0.613571
2072.83, 0.613571
2073.66, 0.613630
2074.49, 0.613810
2075.32, 0.613810
2076.15, 0.613324
2076.98, 0.613385
2077.82, 0.613385
2078.65, 0.613264
2079.48, 0.613446
2080.32, 0.613567
2081.15, 0.613446
2081.99, 0.613385
2082.83, 0.612900
2083.66, 0.612778
2084.5, 0.612475
2085.34, 0.612536
2086.18, 0.612778
2087.02, 0.612900
2087.86, 0.612475
2088.7, 0.612536
2089.54, 0.612536
2090.39, 0.612475
2091.23, 0.612293
2092.07, 0.612354
2092.92, 0.612657
2093.76, 0.612778
2094.61, 0.612596
2095.45, 0.612718
2096.3, 0.612718
2097.15, 0.612839
2098.0, 0.612657
2098.85, 0.612293
2099.7, 0.612111
2100.55, 0.612475
2101.4, 0.612596
2102.25, 0.611626
2103.1, 0.611383
2103.96, 0.611868
2104.81, 0.611383
2105.67, 0.611262
2106.52, 0.611747
2107.38, 0.611383
2108.24, 0.610655
2109.09, 0.610898
2109.95, 0.611444
2110.81, 0.611141
2111.67, 0.610959
2112.53, 0.610898
2113.39, 0.610655
2114.25, 0.610352
2115.12, 0.610109
2115.98, 0.610352
2116.84, 0.610534
2117.71, 0.610231
2118.58, 0.609806
2119.44, 0.609685
2120.31, 0.609685
2121.18, 0.609806
2122.04, 0.609381
2122.91, 0.609139
2123.78, 0.609078
2124.65, 0.609321
2125.52, 0.609078
2126.4, 0.609017
2127.27, 0.608290
2128.14, 0.608290
2129.02, 0.608229
2129.89, 0.608108
2130.77, 0.607986
2131.64, 0.606955
2132.52, 0.606652
2133.4, 0.606712
2134.27, 0.606712
2135.15, 0.606106
2136.03, 0.605317
2136.91, 0.605621
2137.79, 0.604953
2138.68, 0.604529
2139.56, 0.604043
2140.44, 0.604043
2141.33, 0.603558
2142.21, 0.602709
2143.1, 0.602284
2143.99, 0.601981
2144.87, 0.601617
2145.76, 0.601071
2146.65, 0.600161
2147.54, 0.599069
2148.43, 0.598220
2149.32, 0.597250
2150.21, 0.596582
2151.1, 0.595672
2151.99, 0.593853
2152.89, 0.592154
2153.78, 0.590880
2154.68, 0.589485
2155.57, 0.588454
2156.47, 0.586877
2157.37, 0.584996
2158.27, 0.582691
2159.16, 0.580447
2160.06, 0.578203
2160.96, 0.576322
2161.86, 0.574260
2162.77, 0.571833
2163.67, 0.570438
2164.57, 0.568497
2165.48, 0.565949
2166.38, 0.563705
2167.29, 0.562310
2168.2, 0.560430
2169.1, 0.558488
2170.01, 0.556851
2170.92, 0.555092
2171.83, 0.553939
2172.74, 0.552665
2173.65, 0.551270
2174.56, 0.549935
2175.47, 0.548480
2176.39, 0.547509
2177.3, 0.546902
2178.22, 0.546599
2179.13, 0.546235
2180.05, 0.545507
2180.96, 0.544415
2181.88, 0.544355
2182.8, 0.544597
2183.72, 0.544537
2184.64, 0.544719
2185.56, 0.544840
2186.48, 0.545204
2187.41, 0.545689
2188.33, 0.545871
2189.25, 0.546175
2190.18, 0.546963
2191.1, 0.548055
2192.03, 0.548419
2192.96, 0.548662
2193.89, 0.549086
2194.82, 0.549511
2195.74, 0.550239
2196.68, 0.550967
2197.61, 0.551391
2198.54, 0.551695
2199.47, 0.551270
2200.4, 0.551452
2201.34, 0.552362
2202.28, 0.552544
2203.21, 0.552301
2204.15, 0.551998
2205.08, 0.551149
2206.02, 0.550299
2206.96, 0.549450
2207.9, 0.548722
2208.84, 0.547691
2209.78, 0.547327
2210.73, 0.546963
2211.67, 0.546781
2212.61, 0.546660
2213.56, 0.546721
2214.5, 0.545932
2215.45, 0.546053
2216.4, 0.546539
2217.35, 0.547388
2218.3, 0.548055
2219.24, 0.549390
2220.2, 0.550603
2221.15, 0.551816
2222.1, 0.553454
2223.05, 0.554849
2224.0, 0.555577
2224.96, 0.556547
2225.91, 0.557518
2226.87, 0.558428
2227.83, 0.559398
2228.79, 0.559884
2229.74, 0.560369
2230.7, 0.560551
2231.66, 0.560733
2232.63, 0.561157
2233.59, 0.561279
2234.55, 0.561521
2235.51, 0.562067
2236.48, 0.562310
2237.44, 0.562007
2238.41, 0.561946
2239.38, 0.562007
2240.34, 0.562492
2241.31, 0.562431
2242.28, 0.562310
2243.25, 0.562067
2244.22, 0.562371
2245.19, 0.562007
2246.17, 0.561885
2247.14, 0.562128
2248.12, 0.561703
2249.09, 0.561339
2250.07, 0.562249
2251.04, 0.562856
2252.02, 0.562856
2253.0, 0.562977
2253.98, 0.563402
2254.96, 0.563705
2255.94, 0.563280
2256.92, 0.563523
2257.91, 0.563644
2258.89, 0.563523
2259.88, 0.563948
2260.86, 0.564130
2261.85, 0.564069
2262.83, 0.564676
2263.82, 0.565525
2264.81, 0.565586
2265.8, 0.565646
2266.79, 0.565646
2267.78, 0.566071
2268.78, 0.566374
2269.77, 0.566374
2270.76, 0.566131
2271.76, 0.566495
2272.75, 0.567163
2273.75, 0.567527
2274.75, 0.567709
2275.75, 0.567466
2276.75, 0.567405
2277.75, 0.567587
2278.75, 0.567345
2279.75, 0.566981
2280.75, 0.567163
2281.76, 0.567345
2282.76, 0.567284
2283.77, 0.567163
2284.77, 0.566556
2285.78, 0.566617
2286.79, 0.566556
2287.8, 0.566253
2288.81, 0.565889
2289.82, 0.566010
2290.83, 0.565949
2291.84, 0.565525
2292.86, 0.564918
2293.87, 0.564615
2294.89, 0.564130
2295.91, 0.563523
2296.92, 0.562674
2297.94, 0.562007
2298.96, 0.561279
2299.98, 0.560369
2301.0, 0.559762
2302.02, 0.559034
2303.04, 0.558306
2304.07, 0.557457
2305.09, 0.556729
2306.12, 0.556487
2307.15, 0.555759
2308.17, 0.554909
2309.2, 0.554182
2310.23, 0.553878
2311.26, 0.553150
2312.29, 0.552483
2313.32, 0.551573
2314.35, 0.551027
2315.39, 0.550603
2316.42, 0.550117
2317.46, 0.549693
2318.5, 0.549329
2319.53, 0.548662
2320.57, 0.548176
2321.61, 0.547448
2322.65, 0.546902
2323.69, 0.546175
2324.73, 0.544961
2325.78, 0.544112
2326.82, 0.543748
2327.86, 0.543081
2328.91, 0.542292
2329.96, 0.541443
2331.01, 0.540837
2332.05, 0.540048
2333.1, 0.539138
2334.15, 0.537682
2335.21, 0.536590
2336.26, 0.535559
2337.31, 0.534528
2338.36, 0.533315
2339.42, 0.532405
2340.48, 0.531070
2341.53, 0.529736
2342.59, 0.528583
2343.65, 0.527128
2344.71, 0.525672
2345.77, 0.524337
2346.83, 0.522942
2347.9, 0.521426
2348.96, 0.519849
2350.02, 0.518514
2351.09, 0.517240
2352.16, 0.516088
2353.23, 0.514996
2354.29, 0.514086
2355.36, 0.512691
2356.43, 0.511114
2357.51, 0.510204
2358.58, 0.509658
2359.65, 0.509233
2360.73, 0.508748
2361.8, 0.508323
2362.88, 0.508627
2363.96, 0.508687
2365.03, 0.508384
2366.11, 0.508748
2367.19, 0.509415
2368.27, 0.509476
2369.36, 0.509537
2370.44, 0.510264
2371.53, 0.511720
2372.61, 0.512327
2373.7, 0.512933
2374.78, 0.513904
2375.87, 0.514693
2376.96, 0.515602
2378.05, 0.516694
2379.14, 0.517604
2380.24, 0.518089
2381.33, 0.518817
2382.42, 0.519424
2383.52, 0.519970
2384.61, 0.520698
2385.71, 0.521304
2386.81, 0.522032
2387.91, 0.523063
2389.01, 0.523488
2390.11, 0.523913
2391.22, 0.524823
2392.32, 0.525369
2393.42, 0.525854
2394.53, 0.526278
2395.64, 0.526521
2396.74, 0.526339
2397.85, 0.526521
2398.96, 0.527006
2400.07, 0.527128
2401.18, 0.527188
2402.3, 0.527552
2403.41, 0.527734
2404.52, 0.527977
2405.64, 0.527916
2406.76, 0.527856
2407.88, 0.527977
2408.99, 0.528159
2410.11, 0.528341
2411.23, 0.528644
2412.36, 0.528401
2413.48, 0.528523
2414.6, 0.528341
2415.73, 0.528341
2416.85, 0.528280
2417.98, 0.528583
2419.11, 0.528583
2420.24, 0.528462
2421.37, 0.528098
2422.5, 0.527916
2423.64, 0.527188
2424.77, 0.526703
2425.9, 0.526460
2427.04, 0.526460
2428.18, 0.526157
2429.31, 0.525854
2430.45, 0.525369
2431.59, 0.525005
2432.73, 0.524519
2433.88, 0.524277
2435.02, 0.523670
2436.16, 0.523185
2437.31, 0.522882
2438.45, 0.522639
2439.6, 0.522578
2440.75, 0.522639
2441.9, 0.522396
2443.05, 0.522336
2444.2, 0.522154
2445.35, 0.522154
2446.51, 0.522032
2447.67, 0.522154
2448.82, 0.522214
2449.98, 0.522032
2451.14, 0.522154
2452.3, 0.522882
2453.46, 0.523063
2454.62, 0.523003
2455.78, 0.523124
2456.94, 0.523427
2458.11, 0.523488
2459.28, 0.523367
2460.44, 0.523609
2461.61, 0.523609
2462.78, 0.523488
2463.95, 0.523731
2465.12, 0.523488
2466.3, 0.523852
2467.47, 0.524155
2468.65, 0.524095
2469.82, 0.523791
2471.0, 0.523913
2472.18, 0.523791
2473.36, 0.523427
2474.54, 0.523185
2475.72, 0.523063
2476.9, 0.522578
2478.08, 0.522275
2479.27, 0.521668
2480.46, 0.521486
2481.64, 0.520940
2482.83, 0.520152
2484.02, 0.519788
2485.21, 0.519303
2486.4, 0.518757
2487.6, 0.518453
2488.79, 0.518150
2489.99, 0.518271
2491.18, 0.518211
2492.38, 0.517907
2493.58, 0.517422
2494.78, 0.517362
2495.98, 0.517362
2497.18, 0.517119
2498.39, 0.516998
2499.59, 0.516816
2500.8, 0.517119
2502.01, 0.517543
2503.21, 0.517543
2504.42, 0.517301
2505.63, 0.516937
2506.84, 0.516937
2508.06, 0.516876
2509.27, 0.516694
2510.49, 0.516634
2511.7, 0.517179
2512.92, 0.517362
2514.14, 0.517301
2515.36, 0.516998
2516.58, 0.516816
2517.8, 0.516937
2519.03, 0.517058
2520.25, 0.516937
2521.48, 0.516998
2522.7, 0.516876
2523.93, 0.516937
2525.16, 0.516937
2526.39, 0.516876
2527.62, 0.516876
2528.86, 0.516512
2530.09, 0.516391
2531.33, 0.516270
2532.56, 0.515966
2533.8, 0.515784
2535.04, 0.515360
2536.28, 0.514935
2537.52, 0.514389
2538.76, 0.513965
2540.01, 0.513419
2541.25, 0.512873
2542.5, 0.512691
2543.75, 0.512691
2544.99, 0.511660
2546.24, 0.510810
2547.49, 0.510810
2548.75, 0.510628
2550.0, 0.510022
2551.26, 0.509961
2552.51, 0.509476
2553.77, 0.508869
2555.03, 0.507838
2556.29, 0.507049
2557.55, 0.506564
2558.81, 0.506140
2560.08, 0.506200
2561.34, 0.506928
2562.61, 0.506807
2563.88, 0.506140
2565.14, 0.505412
2566.41, 0.504259
2567.68, 0.503289
2568.96, 0.503349
2570.23, 0.503289
2571.51, 0.501894
2572.78, 0.501651
2574.06, 0.501894
2575.34, 0.500438
2576.62, 0.499770
2577.9, 0.498982
2579.18, 0.497829
2580.47, 0.497344
2581.75, 0.496980
2583.04, 0.496434
2584.32, 0.496373
2585.61, 0.494614
2586.9, 0.493765
2588.2, 0.493280
2589.49, 0.492127
2590.78, 0.490672
2592.08, 0.489337
2593.37, 0.489276
2594.67, 0.491278
2595.97, 0.490186
2597.27, 0.486850
2598.57, 0.484363
2599.88, 0.483210
2601.18, 0.482543
2602.49, 0.481997
2603.79, 0.481209
2605.1, 0.481391
2606.41, 0.481087
2607.72, 0.479510
2609.03, 0.478479
2610.35, 0.477630
2611.66, 0.476599
2612.98, 0.475992
2614.3, 0.475446
2615.62, 0.475385
2616.94, 0.476174
2618.26, 0.475021
2619.58, 0.474415
2620.91, 0.474961
2622.23, 0.473384
2623.56, 0.472352
2624.89, 0.472049
2626.22, 0.472716
2627.55, 0.472595
2628.88, 0.471685
2630.21, 0.472292
2631.55, 0.471989
2632.89, 0.470533
2634.22, 0.470351
2635.56, 0.469623
2636.9, 0.469138
2638.25, 0.468531
2639.59, 0.467803
2640.93, 0.467196
2642.28, 0.466893
2643.63, 0.465983
2644.98, 0.465498
2646.33, 0.464831
2647.68, 0.463254
2649.03, 0.461616
2650.39, 0.460524
2651.74, 0.459675
2653.1, 0.458583
2654.46, 0.456581
2655.82, 0.455125
2657.18, 0.453124
2658.54, 0.451000
2659.9, 0.449423
2661.27, 0.447058
2662.64, 0.444085
2664.01, 0.442266
2665.38, 0.441295
2666.74, 0.439051
2668.12, 0.434744
2669.49, 0.431408
2670.87, 0.429527
2672.24, 0.424250
2673.62, 0.418790
2675.0, 0.414484
2676.38, 0.410480
2677.76, 0.405506
2679.15, 0.399501
2680.54, 0.392646
2681.92, 0.385064
2683.31, 0.377300
2684.7, 0.368565
2686.09, 0.359163
2687.48, 0.348305
2688.88, 0.335930
2690.27, 0.321615
2691.67, 0.305843
2693.07, 0.288252
2694.47, 0.268781
2695.87, 0.246761
2697.27, 0.223044
2698.67, 0.198295
2700.08, 0.174092
2701.49, 0.151344
2702.9, 0.132116
2704.31, 0.117800
2705.72, 0.108277
2707.13, 0.101301
2708.54, 0.0954770
2709.96, 0.0895330
2711.38, 0.0832850
2712.8, 0.0775220
2714.22, 0.0726700
2715.64, 0.0686660
2717.06, 0.0658760
2718.49, 0.0633280
2719.91, 0.0605980
2721.34, 0.0581720
2722.77, 0.0556850
2724.2, 0.0533190
2725.63, 0.0511360
2727.07, 0.0491950
2728.5, 0.0473140
2729.94, 0.0456160
2731.38, 0.0444630
2732.82, 0.0435530
2734.26, 0.0425220
2735.7, 0.0413700
2737.15, 0.0401560
2738.59, 0.0393070
2740.04, 0.0390640
2741.49, 0.0391860
2742.94, 0.0396710
2744.39, 0.0403380
2745.84, 0.0411880
2747.3, 0.0419760
2748.76, 0.0428860
2750.21, 0.0437960
2751.67, 0.0442810
2753.14, 0.0446450
2754.6, 0.0451910
2756.06, 0.0457980
2757.53, 0.0456160
2759.0, 0.0449480
2760.46, 0.0446450
2761.94, 0.0456760
2763.41, 0.0479810
2764.88, 0.0499830
2766.36, 0.0518030
2767.83, 0.0530160
2769.31, 0.0538650
2770.79, 0.0548360
2772.27, 0.0556240
2773.76, 0.0559280
2775.24, 0.0564130
2776.73, 0.0568380
2778.22, 0.0571410
2779.71, 0.0573840
2781.2, 0.0577470
2782.69, 0.0582330
2784.18, 0.0585360
2785.68, 0.0587790
2787.18, 0.0589610
2788.68, 0.0593250
2790.18, 0.0599920
2791.68, 0.0604770
2793.19, 0.0612050
2794.69, 0.0621150
2796.2, 0.0624790
2797.71, 0.0627820
2799.22, 0.0635100
2800.73, 0.0639350
2802.24, 0.0641770
2803.76, 0.0644810
2805.28, 0.0644810
2806.8, 0.0642990
2808.32, 0.0639950
2809.84, 0.0636920
2811.36, 0.0635710
2812.89, 0.0633890
2814.42, 0.0629030
2815.94, 0.0626000
2817.48, 0.0623580
2819.01, 0.0618720
2820.54, 0.0612660
2822.08, 0.0609020
2823.61, 0.0604770
2825.15, 0.0602340
2826.69, 0.0598710
2828.23, 0.0594460
2829.78, 0.0591430
2831.32, 0.0587790
2832.87, 0.0585360
2834.42, 0.0584750
2835.97, 0.0582930
2837.52, 0.0581110
2839.08, 0.0581110
2840.63, 0.0580510
2842.19, 0.0580510
2843.75, 0.0579290
2845.31, 0.0578690
2846.87, 0.0582330
2848.44, 0.0588390
2850.0, 0.0592640
2851.57, 0.0595070
2853.14, 0.0599920
2854.71, 0.0604770
2856.28, 0.0611440
2857.86, 0.0618720
2859.43, 0.0624180
2861.01, 0.0628430
2862.59, 0.0634490
2864.17, 0.0641770
2865.76, 0.0649050
2867.34, 0.0658150
2868.93, 0.0667250
2870.52, 0.0677560
2872.11, 0.0687270
2873.7, 0.0695150
2875.29, 0.0703650
2876.89, 0.0712140
2878.49, 0.0723060
2880.08, 0.0733370
2881.69, 0.0743680
2883.29, 0.0752170
2884.89, 0.0764300
2886.5, 0.0776440
2888.11, 0.0788570
2889.72, 0.0801310
2891.33, 0.0814050
2892.94, 0.0823750
2894.56, 0.0834060
2896.17, 0.0847410
2897.79, 0.0858930
2899.42, 0.0871670
2901.04, 0.0884410
2902.66, 0.0894720
2904.29, 0.0908070
2905.92, 0.0920810
2907.55, 0.0932940
2909.18, 0.0944460
2910.81, 0.0955990
2912.45, 0.0964480
2914.08, 0.0974190
2915.72, 0.0983890
2917.36, 0.0992380
2919.01, 0.100027
2920.65, 0.100451
2922.3, 0.100815
2923.94, 0.101301
2925.59, 0.101604
2927.25, 0.101604
2928.9, 0.101422
2930.56, 0.101179
2932.21, 0.100937
2933.87, 0.100512
2935.53, 0.0998450
2937.2, 0.0991780
2938.86, 0.0985100
2940.53, 0.0977820
2942.2, 0.0967510
2943.87, 0.0957200
2945.54, 0.0946890
2947.22, 0.0934760
2948.89, 0.0923230
2950.57, 0.0912310
2952.25, 0.0900180
2953.93, 0.0887440
2955.62, 0.0875310
2957.3, 0.0863790
2958.99, 0.0853470
2960.68, 0.0843770
2962.37, 0.0832850
2964.07, 0.0821930
2965.76, 0.0811620
2967.46, 0.0803130
2969.16, 0.0795850
2970.86, 0.0788570
2972.56, 0.0781290
2974.27, 0.0774010
2975.98, 0.0765520
2977.69, 0.0760670
2979.4, 0.0755210
2981.11, 0.0750350
2982.83, 0.0747930
2984.54, 0.0743680
2986.26, 0.0740650
2987.98, 0.0738830
2989.71, 0.0737010
2991.43, 0.0735190
2993.16, 0.0733980
2994.89, 0.0735190
2996.62, 0.0735790
2998.35, 0.0735190
3000.09, 0.0736400
3001.83, 0.0738220
3003.57, 0.0741250
3005.31, 0.0745500
3007.05, 0.0749750
3008.79, 0.0754600
3010.54, 0.0760670
3012.29, 0.0767940
3014.04, 0.0773400
3015.8, 0.0781290
3017.55, 0.0788570
3019.31, 0.0796450
3021.07, 0.0805550
3022.83, 0.0813440
3024.59, 0.0823140
3026.36, 0.0833460
3028.13, 0.0843770
3029.9, 0.0855290
3031.67, 0.0865000
3033.44, 0.0875310
3035.22, 0.0888050
3037.0, 0.0902000
3038.78, 0.0914130
3040.56, 0.0925660
3042.34, 0.0937790
3044.13, 0.0952350
3045.92, 0.0966910
3047.71, 0.0980860
3049.5, 0.0994200
3051.3, 0.100815
3053.09, 0.102271
3054.89, 0.103727
3056.69, 0.105183
3058.5, 0.106699
3060.3, 0.108095
3062.11, 0.109611
3063.92, 0.111249
3065.73, 0.112765
3067.55, 0.114403
3069.36, 0.116223
3071.18, 0.117921
3073.0, 0.119559
3074.82, 0.121258
3076.65, 0.123017
3078.48, 0.124715
3080.31, 0.126474
3082.14, 0.127991
3083.97, 0.129810
3085.8, 0.131812
3087.64, 0.133935
3089.48, 0.135816
3091.33, 0.137696
3093.17, 0.139395
3095.02, 0.141457
3096.87, 0.143519
3098.72, 0.145400
3100.57, 0.147220
3102.43, 0.149343
3104.28, 0.151466
3106.14, 0.153468
3108.01, 0.155409
3109.87, 0.157471
3111.74, 0.159594
3113.61, 0.161839
3115.48, 0.163962
3117.35, 0.166024
3119.23, 0.168147
3121.1, 0.170331
3122.98, 0.172575
3124.87, 0.174820
3126.75, 0.177003
3128.64, 0.179066
3130.53, 0.181310
3132.42, 0.183615
3134.31, 0.185799
3136.21, 0.188043
3138.11, 0.190227
3140.01, 0.192411
3141.91, 0.194534
3143.82, 0.196717
3145.73, 0.198780
3147.64, 0.200903
3149.55, 0.203269
3151.46, 0.205574
3153.38, 0.207697
3155.3, 0.209699
3157.22, 0.211822
3159.14, 0.213945
3161.07, 0.216068
3163.0, 0.218191
3164.93, 0.220253
3166.86, 0.222255
3168.8, 0.224257
3170.74, 0.226137
3172.68, 0.228139
3174.62, 0.230141
3176.56, 0.232142
3178.51, 0.233962
3180.46, 0.235782
3182.42, 0.237784
3184.37, 0.239725
3186.33, 0.241605
3188.29, 0.243546
3190.25, 0.245427
3192.21, 0.247186
3194.18, 0.248824
3196.15, 0.250704
3198.12, 0.252585
3200.09, 0.254283
3202.07, 0.255921
3204.05, 0.257559
3206.03, 0.259378
3208.02, 0.261198
3210.0, 0.262897
3211.99, 0.264595
3213.98, 0.266293
3215.98, 0.267931
3217.97, 0.269508
3219.97, 0.271207
3221.97, 0.272784
3223.98, 0.274482
3225.98, 0.276060
3227.99, 0.277637
3230.0, 0.279214
3232.02, 0.280852
3234.03, 0.282308
3236.05, 0.283824
3238.07, 0.285340
3240.1, 0.286857
3242.12, 0.288434
3244.15, 0.289829
3246.18, 0.291346
3248.22, 0.292923
3250.25, 0.294439
3252.29, 0.295895
3254.33, 0.297472
3256.38, 0.298867
3258.43, 0.300384
3260.47, 0.301900
3262.53, 0.303296
3264.58, 0.304873
3266.64, 0.306632
3268.7, 0.308148
3270.76, 0.309604
3272.82, 0.310999
3274.89, 0.312455
3276.96, 0.313911
3279.04, 0.315367
3281.11, 0.316701
3283.19, 0.318278
3285.27, 0.319795
3287.35, 0.321008
3289.44, 0.322221
3291.53, 0.323616
3293.62, 0.324951
3295.71, 0.326103
3297.81, 0.327438
3299.91, 0.328894
3302.01, 0.330228
3304.11, 0.331199
3306.22, 0.332230
3308.33, 0.333382
3310.44, 0.334535
3312.56, 0.335627
3314.68, 0.336779
3316.8, 0.337750
3318.92, 0.338538
3321.05, 0.339206
3323.18, 0.339934
3325.31, 0.340722
3327.44, 0.341450
3329.58, 0.341996
3331.72, 0.342542
3333.86, 0.342906
3336.01, 0.343088
3338.16, 0.343149
3340.31, 0.342967
3342.46, 0.342542
3344.61, 0.341935
3346.77, 0.340904
3348.94, 0.339630
3351.1, 0.337871
3353.27, 0.335627
3355.44, 0.333200
3357.61, 0.330107
3359.79, 0.325921
3361.97, 0.320947
3364.15, 0.314639
3366.33, 0.307360
3368.52, 0.300202
3370.71, 0.293893
3372.9, 0.288737
3375.1, 0.285219
3377.3, 0.283278
3379.5, 0.283035
3381.71, 0.284431
3383.91, 0.286796
3386.12, 0.289283
3388.34, 0.291528
3390.55, 0.292438
3392.77, 0.291588
3394.99, 0.288798
3397.22, 0.284309
3399.45, 0.278365
3401.68, 0.271268
3403.91, 0.263928
3406.15, 0.256709
3408.39, 0.249916
3410.63, 0.243971
3412.87, 0.239179
3415.12, 0.236146
3417.37, 0.235479
3419.63, 0.237541
3421.88, 0.242636
3424.14, 0.249916
3426.41, 0.258286
3428.67, 0.266961
3430.94, 0.275210
3433.21, 0.282611
3435.49, 0.289101
3437.77, 0.294682
3440.05, 0.299474
3442.33, 0.303841
3444.62, 0.308088
3446.91, 0.312030
3449.2, 0.315852
3451.5, 0.319674
3453.8, 0.323556
3456.1, 0.327195
3458.41, 0.330471
3460.72, 0.333322
3463.03, 0.335627
3465.34, 0.336901
3467.66, 0.337204
3469.98, 0.336476
3472.31, 0.335142
3474.63, 0.333564
3476.96, 0.331745
3479.3, 0.330107
3481.64, 0.329015
3483.97, 0.328408
3486.32, 0.327438
3488.66, 0.325193
3491.01, 0.321675
3493.36, 0.317005
3495.72, 0.311666
3498.08, 0.306692
3500.44, 0.303720
3502.81, 0.304145
3505.18, 0.308694
3507.55, 0.317429
3509.92, 0.328712
3512.3, 0.340480
3514.68, 0.351520
3517.06, 0.361286
3519.45, 0.369414
3521.84, 0.376147
3524.24, 0.381485
3526.64, 0.385489
3529.04, 0.388643
3531.44, 0.391858
3533.85, 0.394951
3536.26, 0.397620
3538.67, 0.399986
3541.09, 0.401988
3543.51, 0.403868
3545.93, 0.405567
3548.36, 0.407023
3550.79, 0.408418
3553.22, 0.409874
3555.66, 0.411269
3558.1, 0.412421
3560.54, 0.413513
3562.99, 0.414666
3565.44, 0.415879
3567.9, 0.416971
3570.35, 0.417941
3572.81, 0.418851
3575.28, 0.419822
3577.75, 0.420853
3580.22, 0.421884
3582.69, 0.422794
3585.17, 0.423643
3587.65, 0.424492
3590.14, 0.425402
3592.62, 0.426252
3595.11, 0.426979
3597.61, 0.427889
3600.11, 0.428617
3602.61, 0.429284
3605.11, 0.429891
3607.62, 0.430558
3610.14, 0.431104
3612.65, 0.431590
3615.17, 0.432075
3617.69, 0.432742
3620.22, 0.433288
3622.75, 0.433713
3625.28, 0.434198
3627.82, 0.434623
3630.36, 0.435047
3632.9, 0.435472
3635.45, 0.435896
3638.0, 0.436260
3640.56, 0.436503
3643.12, 0.436685
3645.68, 0.436928
3648.24, 0.437110
3650.81, 0.437352
3653.39, 0.437595
3655.96, 0.437716
3658.54, 0.437595
3661.13, 0.437959
3663.71, 0.438869
3666.3, 0.439597
3668.9, 0.440142
3671.5, 0.440567
3674.1, 0.441052
3676.7, 0.441538
3679.31, 0.442084
3681.93, 0.442569
3684.54, 0.442933
3687.17, 0.443357
3689.79, 0.443903
3692.42, 0.444328
3695.05, 0.444692
3697.69, 0.445238
3700.32, 0.445905
3702.97, 0.446512
3705.61, 0.447058
3708.27, 0.447604
3710.92, 0.447968
3713.58, 0.448453
3716.24, 0.448999
3718.91, 0.449605
3721.58, 0.450273
3724.25, 0.450818
3726.93, 0.451364
3729.61, 0.451971
3732.29, 0.452517
3734.98, 0.453184
3737.67, 0.453730
3740.37, 0.454276
3743.07, 0.454822
3745.78, 0.455489
3748.49, 0.456096
3751.2, 0.456702
3753.91, 0.457248
3756.63, 0.457734
3759.36, 0.458219
3762.09, 0.458947
3764.82, 0.459553
3767.55, 0.459978
3770.29, 0.460463
3773.04, 0.461009
3775.78, 0.461373
3778.54, 0.461858
3781.29, 0.462344
3784.05, 0.462829
3786.82, 0.463254
3789.59, 0.463618
3792.36, 0.463921
3795.13, 0.464406
3797.92, 0.464770
3800.7, 0.465134
3803.49, 0.465619
3806.28, 0.465983
3809.08, 0.466287
3811.88, 0.466529
3814.68, 0.466832
3817.49, 0.467136
3820.31, 0.467439
3823.12, 0.467803
3825.94, 0.468167
3828.77, 0.468531
3831.6, 0.468774
3834.43, 0.469016
3837.27, 0.469198
3840.11, 0.469501
3842.96, 0.469744
3845.81, 0.470047
3848.67, 0.470472
3851.53, 0.470775
3854.39, 0.471018
3857.26, 0.471321
3860.13, 0.471564
3863.01, 0.471867
3865.89, 0.472110
3868.77, 0.472413
3871.66, 0.472716
3874.55, 0.473141
3877.45, 0.473444
3880.35, 0.473687
3883.26, 0.474051
3886.17, 0.474415
3889.09, 0.474597
3892.01, 0.474839
3894.93, 0.475143
3897.86, 0.475507
3900.79, 0.475689
3903.73, 0.475931
3906.67, 0.476235
3909.62, 0.476417
3912.57, 0.476538
3915.52, 0.476781
3918.48, 0.477145
3921.45, 0.477266
3924.42, 0.477266
3927.39, 0.477387
3930.37, 0.477569
3933.35, 0.477690
3936.34, 0.477812
3939.33, 0.477872
3942.32, 0.477812
3945.32, 0.477812
3948.33, 0.477872
3951.34, 0.477933
3954.35, 0.477994
3957.37, 0.477994
3960.39, 0.477994
3963.42, 0.478115
3966.45, 0.478176
3969.49, 0.478054
3972.53, 0.477994
3975.58, 0.478115
3978.63, 0.478054
3981.68, 0.478054
3984.75, 0.477994
3987.81, 0.477994
3990.88, 0.477933
3993.95, 0.477933
3997.03, 0.477933
4000.12, 0.477812
4003.21, 0.477690
4006.3, 0.477690
4009.4, 0.477630
4012.5, 0.477569
4015.61, 0.477448
4018.72, 0.477387
4021.84, 0.477327
4024.96, 0.477266
4028.09, 0.477084
4031.22, 0.477084
4034.36, 0.477023
4037.5, 0.477023
4040.65, 0.476963
4043.8, 0.476902
4046.96, 0.476720
4050.12, 0.476659
4053.29, 0.476659
4056.46, 0.476720
4059.64, 0.476659
4062.82, 0.476659
4066.0, 0.476720
4069.19, 0.476720
4072.39, 0.476538
4075.59, 0.476417
4078.8, 0.476356
4082.01, 0.476235
4085.23, 0.476174
4088.45, 0.476053
4091.68, 0.476053
4094.91, 0.475992
4098.15, 0.475810
4101.39, 0.475689
4104.63, 0.475446
4107.89, 0.475385
4111.14, 0.475446
4114.41, 0.475264
4117.67, 0.475021
4120.95, 0.474779
4124.23, 0.474718
4127.51, 0.474718
4130.8, 0.474536
4134.09, 0.474415
4137.39, 0.474294
4140.7, 0.474112
4144.01, 0.473869
4147.32, 0.473748
4150.64, 0.473748
4153.97, 0.473687
4157.3, 0.473384
4160.64, 0.473020
4163.98, 0.472716
4167.33, 0.472656
4170.68, 0.472474
4174.04, 0.472231
4177.4, 0.472049
4180.77, 0.471867
4184.14, 0.471625
4187.52, 0.471321
4190.91, 0.470957
4194.3, 0.470654
4197.69, 0.470351
4201.1, 0.469926
4204.5, 0.469441
4207.92, 0.468834
4211.34, 0.468167
4214.76, 0.467621
4218.19, 0.467075
4221.62, 0.466590
4225.06, 0.466044
4228.51, 0.465801
4231.96, 0.465437
4235.42, 0.465134
4238.88, 0.464831
4242.35, 0.464649
4245.83, 0.464588
4249.31, 0.464527
4252.79, 0.464588
4256.28, 0.464527
4259.78, 0.463739
4263.29, 0.462890
4266.79, 0.462283
4270.31, 0.461798
4273.83, 0.461373
4277.35, 0.461009
4280.89, 0.460645
4284.42, 0.460342
4287.97, 0.460039
4291.52, 0.459675
4295.07, 0.459553
4298.63, 0.459311
4302.2, 0.458825
4305.78, 0.458522
4309.35, 0.458219
4312.94, 0.457916
4316.53, 0.457612
4320.13, 0.457248
4323.73, 0.456824
4327.34, 0.456460
4330.96, 0.455974
4334.58, 0.455368
4338.21, 0.454701
4341.84, 0.454276
4345.48, 0.453669
4349.12, 0.452942
4352.77, 0.452214
4356.43, 0.451546
4360.1, 0.450697
4363.76, 0.449666
4367.44, 0.448635
4371.12, 0.447664
4374.81, 0.446633
4378.51, 0.445420
4382.21, 0.444085
4385.92, 0.442751
4389.63, 0.441295
4393.35, 0.439657
4397.08, 0.437898
4400.81, 0.436200
4404.55, 0.434440
4408.29, 0.432742
4412.04, 0.430983
4415.8, 0.429224
4419.57, 0.427525
4423.34, 0.425888
4427.12, 0.424371
4430.9, 0.422976
4434.69, 0.421581
4438.49, 0.420368
4442.29, 0.419154
4446.1, 0.418002
4449.92, 0.416789
4453.74, 0.415515
4457.57, 0.414120
4461.41, 0.412664
4465.25, 0.411208
4469.1, 0.409692
4472.95, 0.408175
4476.82, 0.406659
4480.69, 0.405021
4484.56, 0.403322
4488.44, 0.401503
4492.33, 0.399622
4496.23, 0.397681
4500.13, 0.395861
4504.04, 0.394102
4507.96, 0.392222
4511.88, 0.390281
4515.81, 0.388218
4519.75, 0.386095
4523.69, 0.384093
4527.65, 0.381970
4531.6, 0.379787
4535.57, 0.377664
4539.54, 0.375601
4543.52, 0.373478
4547.5, 0.371476
4551.5, 0.369535
4555.5, 0.367655
4559.5, 0.365896
4563.52, 0.364501
4567.54, 0.363287
4571.56, 0.362135
4575.6, 0.360982
4579.64, 0.359951
4583.69, 0.358859
4587.75, 0.357767
4591.81, 0.356494
4595.88, 0.355220
4599.96, 0.353885
4604.04, 0.352490
4608.14, 0.350913
4612.24, 0.349396
4616.34, 0.347880
4620.46, 0.346242
4624.58, 0.344544
4628.71, 0.342967
4632.84, 0.341268
4636.99, 0.339630
4641.14, 0.337993
4645.3, 0.336415
4649.47, 0.334899
4653.64, 0.333564
4657.82, 0.332230
4662.01, 0.330835
4666.21, 0.329561
4670.41, 0.328469
4674.62, 0.327256
4678.84, 0.325982
4683.07, 0.324769
4687.3, 0.323616
4691.54, 0.322464
4695.79, 0.321372
4700.05, 0.320280
4704.31, 0.319249
4708.59, 0.317975
4712.87, 0.316823
4717.15, 0.315731
4721.45, 0.314639
4725.76, 0.313486
4730.07, 0.312576
4734.39, 0.311545
4738.72, 0.310635
4743.05, 0.309725
4747.39, 0.308998
4751.75, 0.308330
4756.1, 0.307724
4760.47, 0.307299
4764.85, 0.306935
4769.23, 0.306692
4773.62, 0.306571
4778.02, 0.306450
4782.43, 0.306510
4786.85, 0.306632
4791.27, 0.306692
4795.7, 0.306874
4800.14, 0.307056
4804.59, 0.307299
4809.05, 0.307542
4813.51, 0.307724
4817.99, 0.307845
4822.47, 0.307966
4826.96, 0.308088
4831.46, 0.308270
4835.96, 0.308391
4840.48, 0.308512
4845.0, 0.308694
4849.54, 0.308573
4854.08, 0.308573
4858.63, 0.308573
4863.18, 0.308512
4867.75, 0.308452
4872.33, 0.308330
4876.91, 0.308148
4881.5, 0.307784
4886.1, 0.307360
4890.71, 0.306874
4895.33, 0.306328
4899.96, 0.305661
4904.59, 0.304751
4909.24, 0.303902
4913.89, 0.302992
4918.55, 0.302143
4923.22, 0.301476
4927.9, 0.301051
4932.59, 0.300748
4937.29, 0.300566
4942.0, 0.300202
4946.71, 0.299838
4951.44, 0.299292
4956.17, 0.298685
4960.91, 0.297958
4965.67, 0.296926
4970.43, 0.295774
4975.2, 0.294682
4979.98, 0.293408
4984.76, 0.292377
4989.56, 0.291528
4994.37, 0.290800
4999.18, 0.290011
5004.01, 0.289405
5008.84, 0.288859
5013.69, 0.288373
5018.54, 0.287888
5023.4, 0.287524
5028.28, 0.287100
5033.16, 0.286614
5038.05, 0.286190
5042.95, 0.285886
5047.86, 0.285462
5052.78, 0.284976
5057.71, 0.284431
5062.65, 0.284006
5067.6, 0.283460
5072.56, 0.283096
5077.53, 0.282975
5082.5, 0.282914
5087.49, 0.282732
5092.49, 0.282611
5097.5, 0.282489
5102.51, 0.282186
5107.54, 0.281701
5112.58, 0.281094
5117.62, 0.280366
5122.68, 0.279760
5127.75, 0.278911
5132.82, 0.278183
5137.91, 0.277515
5143.01, 0.276848
5148.12, 0.276302
5153.23, 0.275453
5158.36, 0.274664
5163.5, 0.273876
5168.65, 0.273087
5173.81, 0.272299
5178.98, 0.271389
5184.15, 0.270540
5189.34, 0.269630
5194.54, 0.268720
5199.75, 0.267871
5204.98, 0.266718
5210.21, 0.265384
5215.45, 0.263806
5220.7, 0.261926
5225.96, 0.259924
5231.23, 0.257801
5236.52, 0.255617
5241.81, 0.253312
5247.12, 0.251007
5252.44, 0.248702
5257.76, 0.246519
5263.1, 0.244274
5268.45, 0.242151
5273.81, 0.240210
5279.18, 0.238269
5284.56, 0.236328
5289.95, 0.234508
5295.36, 0.232870
5300.77, 0.231233
5306.2, 0.229777
5311.63, 0.228442
5317.08, 0.227290
5322.54, 0.226198
5328.01, 0.224985
5333.49, 0.224014
5338.98, 0.223226
5344.49, 0.222680
5350.0, 0.222437
5355.53, 0.222194
5361.07, 0.222012
5366.62, 0.222316
5372.18, 0.223165
5377.75, 0.224317
5383.34, 0.225713
5388.93, 0.227290
5394.54, 0.229049
5400.16, 0.230869
5405.79, 0.232506
5411.44, 0.234083
5417.09, 0.235539
5422.76, 0.236995
5428.43, 0.237541
5434.12, 0.238087
5439.83, 0.238512
5445.54, 0.238754
5451.26, 0.238754
5457.0, 0.238815
5462.75, 0.238876
5468.52, 0.238694
5474.29, 0.238087
5480.08, 0.237723
5485.88, 0.237177
5491.69, 0.236752
5497.51, 0.236389
5503.35, 0.236025
5509.2, 0.235600
5515.06, 0.235054
5520.93, 0.234629
5526.82, 0.234387
5532.71, 0.233962
5538.63, 0.233538
5544.55, 0.233113
5550.49, 0.232810
5556.44, 0.232446
5562.4, 0.232021
5568.37, 0.231718
5574.36, 0.231839
5580.36, 0.231960
5586.37, 0.231596
5592.4, 0.231354
5598.44, 0.231596
5604.49, 0.231778
5610.56, 0.231960
5616.63, 0.232385
5622.73, 0.232688
5628.83, 0.232931
5634.95, 0.233598
5641.08, 0.234508
5647.23, 0.234811
5653.39, 0.234993
5659.56, 0.235297
5665.74, 0.235175
5671.94, 0.235297
5678.15, 0.234993
5684.38, 0.234326
5690.62, 0.233538
5696.87, 0.232446
5703.14, 0.231051
5709.42, 0.229898
5715.72, 0.228078
5722.03, 0.225773
5728.35, 0.223165
5734.69, 0.220739
5741.03, 0.218373
5747.4, 0.216068
5753.78, 0.213459
5760.17, 0.211336
5766.58, 0.209517
5773.0, 0.206544
5779.44, 0.203390
5785.88, 0.200842
5792.35, 0.198295
5798.83, 0.196050
5805.32, 0.193867
5811.83, 0.192047
5818.35, 0.190652
5824.89, 0.188953
5831.45, 0.186284
5838.01, 0.183554
5844.59, 0.180764
5851.19, 0.178338
5857.8, 0.175972
5864.43, 0.173485
5871.07, 0.170755
5877.73, 0.168754
5884.4, 0.166267
5891.09, 0.163234
5897.79, 0.160504
5904.5, 0.157228
5911.23, 0.154013
5917.98, 0.151284
5924.75, 0.148615
5931.53, 0.146431
5938.32, 0.144247
5945.13, 0.141336
5951.96, 0.138606
5958.8, 0.136240
5965.65, 0.134299
5972.53, 0.132540
5979.42, 0.130660
5986.32, 0.129386
5993.24, 0.128415
6000.18, 0.127505
6007.13, 0.127020
6014.1, 0.127020
6021.08, 0.126899
6028.09, 0.127081
6035.1, 0.127748
6042.14, 0.128901
6049.19, 0.130660
6056.25, 0.131145
6063.34, 0.131024
6070.44, 0.131388
6077.55, 0.131266
6084.69, 0.130478
6091.84, 0.129447
6099.0, 0.128233
6106.19, 0.127081
6113.39, 0.126110
6120.61, 0.124412
6127.84, 0.122471
6135.09, 0.120894
6142.36, 0.119620
6149.65, 0.118346
6156.95, 0.117375
6164.27, 0.116465
6171.61, 0.115556
6178.97, 0.115070
6186.34, 0.114888
6193.73, 0.114160
6201.14, 0.113493
6208.57, 0.113129
6216.01, 0.112887
6223.47, 0.112583
6230.95, 0.112341
6238.45, 0.112341
6245.97, 0.112523
6253.5, 0.113008
6261.06, 0.113675
6268.63, 0.114524
6276.21, 0.115434
6283.82, 0.116344
6291.45, 0.117254
6299.1, 0.118164
6306.76, 0.119195
6314.44, 0.120226
6322.14, 0.121318
6329.86, 0.122653
6337.6, 0.124351
6345.35, 0.126292
6353.13, 0.127384
6360.92, 0.128355
6368.74, 0.129871
6376.57, 0.131024
6384.43, 0.131873
6392.3, 0.132661
6400.19, 0.133389
6408.1, 0.134603
6416.03, 0.135937
6423.98, 0.135937
6431.95, 0.136119
6439.94, 0.136604
6447.95, 0.136908
6455.98, 0.137454
6464.03, 0.138181
6472.1, 0.139091
6480.19, 0.140062
6488.31, 0.141214
6496.44, 0.142064
6504.59, 0.141942
6512.76, 0.142124
6520.95, 0.142792
6529.16, 0.142792
6537.4, 0.142913
6545.65, 0.143398
6553.92, 0.144005
6562.22, 0.144551
6570.54, 0.145339
6578.88, 0.145582
6587.23, 0.145461
6595.61, 0.145400
6604.02, 0.144915
6612.44, 0.144551
6620.89, 0.144369
6629.35, 0.144793
6637.84, 0.145521
6646.35, 0.145036
6654.88, 0.144247
6663.44, 0.143762
6672.01, 0.143034
6680.61, 0.142064
6689.23, 0.140668
6697.88, 0.139152
6706.54, 0.138181
6715.23, 0.137454
6723.94, 0.136422
6732.67, 0.135270
6741.42, 0.133935
6750.2, 0.132601
6759.0, 0.130963
6767.82, 0.129204
6776.67, 0.127263
6785.54, 0.125018
6794.44, 0.121925
6803.35, 0.118164
6812.29, 0.115192
6821.26, 0.113554
6830.24, 0.112523
6839.25, 0.111734
6848.29, 0.111491
6857.35, 0.111855
6866.43, 0.112098
6875.54, 0.111916
6884.67, 0.112037
6893.82, 0.112159
6903.0, 0.112159
6912.2, 0.112219
6921.43, 0.112159
6930.69, 0.112037
6939.96, 0.111734
6949.27, 0.111613
6958.59, 0.111613
6967.95, 0.111006
6977.33, 0.110157
6986.73, 0.109611
6996.16, 0.108822
7005.61, 0.107852
7015.09, 0.106942
7024.6, 0.105971
7034.13, 0.104698
7043.69, 0.103727
7053.27, 0.102635
7062.88, 0.101240
7072.52, 0.100088
7082.18, 0.0989960
7091.87, 0.0979040
7101.58, 0.0968120
7111.32, 0.0958410
7121.09, 0.0948100
7130.88, 0.0935970
7140.71, 0.0924440
7150.56, 0.0912310
7160.43, 0.0899570
7170.33, 0.0888660
7180.27, 0.0877740
7190.23, 0.0866820
7200.21, 0.0858330
7210.23, 0.0846800
7220.27, 0.0834060
7230.34, 0.0821320
7240.44, 0.0810410
7250.56, 0.0803130
7260.72, 0.0798880
7270.9, 0.0794030
7281.12, 0.0789180
7291.36, 0.0781900
7301.63, 0.0773400
7311.93, 0.0763700
7322.25, 0.0754600
7332.61, 0.0747320
7343.0, 0.0740040
7353.41, 0.0731550
7363.86, 0.0723060
7374.33, 0.0714560
7384.83, 0.0707290
7395.37, 0.0700610
7405.93, 0.0693940
7416.53, 0.0687870
7427.15, 0.0684840
7437.81, 0.0679990
7448.5, 0.0674530
7459.22, 0.0670280
7469.96, 0.0665430
7480.74, 0.0659360
7491.55, 0.0653300
7502.39, 0.0647230
7513.27, 0.0640560
7524.17, 0.0632670
7535.11, 0.0623580
7546.08, 0.0612660
7557.08, 0.0601130
7568.11, 0.0589000
7579.17, 0.0578080
7590.27, 0.0566560
7601.4, 0.0556240
7612.56, 0.0545930
7623.76, 0.0535620
7634.98, 0.0525310
7646.24, 0.0516820
7657.54, 0.0508320
7668.87, 0.0501040
7680.23, 0.0493160
7691.62, 0.0485880
7703.05, 0.0479210
7714.51, 0.0472530
7726.01, 0.0467080
7737.54, 0.0462830
7749.11, 0.0456760
7760.71, 0.0450090
7772.35, 0.0442810
7784.02, 0.0436750
7795.72, 0.0430070
7807.46, 0.0423400
7819.23, 0.0416730
7831.04, 0.0411880
7842.89, 0.0407630
7854.77, 0.0403990
7866.69, 0.0399140
7878.65, 0.0396100
7890.64, 0.0393680
7902.67, 0.0392460
7914.74, 0.0392460
7926.84, 0.0393680
7938.98, 0.0394280
7951.16, 0.0395500
7963.37, 0.0397320
7975.62, 0.0397920
7987.91, 0.0397920
8000.24, 0.0399140
8012.6, 0.0399740
8025.01, 0.0401560
8037.45, 0.0403380
8049.93, 0.0405810
8062.45, 0.0410060
8075.01, 0.0414910
8087.61, 0.0419150
8100.24, 0.0424610
8112.91, 0.0430680
8125.63, 0.0437960
8138.39, 0.0444630
8151.18, 0.0451300
8164.02, 0.0457370
8176.9, 0.0461010
8189.81, 0.0462220
8202.77, 0.0461010
8215.77, 0.0458580
8228.82, 0.0454340
8241.9, 0.0446450
8255.02, 0.0439170
8268.19, 0.0431290
8281.39, 0.0423400
8294.65, 0.0415510
8307.94, 0.0407630
8321.28, 0.0401560
8334.66, 0.0396710
8348.08, 0.0392460
8361.54, 0.0388220
8375.05, 0.0385790
8388.6, 0.0384580
8402.2, 0.0382150
8415.84, 0.0380940
8429.52, 0.0380940
8443.25, 0.0382150
8457.02, 0.0384580
8470.84, 0.0387610
8484.7, 0.0389430
8498.61, 0.0390040
8512.57, 0.0391250
8526.57, 0.0394280
8540.62, 0.0394280
8554.71, 0.0393070
8568.85, 0.0389430
8583.04, 0.0380940
8597.27, 0.0363350
8611.55, 0.0349400
8625.88, 0.0345760
8640.26, 0.0352430
8654.68, 0.0369410
8669.16, 0.0387010
8683.68, 0.0399140
8698.25, 0.0410660
8712.87, 0.0419760
8727.53, 0.0427040
8742.25, 0.0431290
8757.02, 0.0434320
8771.83, 0.0436140
8786.7, 0.0436750
8801.62, 0.0433710
8816.59, 0.0431890
8831.61, 0.0430680
8846.68, 0.0430070
8861.8, 0.0431290
8876.97, 0.0430070
8892.2, 0.0426430
8907.48, 0.0422190
8922.81, 0.0417330
8938.2, 0.0411880
8953.63, 0.0406420
8969.13, 0.0402170
8984.67, 0.0401560
9000.27, 0.0407630
9015.92, 0.0417940
9031.63, 0.0430070
9047.39, 0.0439170
9063.21, 0.0448270
9079.08, 0.0454340
9095.01, 0.0456160
9111.0, 0.0456160
9127.04, 0.0457370
9143.13, 0.0457980
9159.28, 0.0456760
9175.49, 0.0454940
9191.76, 0.0457370
9208.09, 0.0457980
9224.47, 0.0456760
9240.92, 0.0456160
9257.42, 0.0456160
9273.98, 0.0455550
9290.6, 0.0456160
9307.28, 0.0454940
9324.02, 0.0451910
9340.82, 0.0451300
9357.68, 0.0450700
9374.6, 0.0447060
9391.58, 0.0441600
9408.62, 0.0433710
9425.73, 0.0424610
9442.9, 0.0414910
9460.13, 0.0403990
9477.42, 0.0391250
9494.78, 0.0379120
9512.2, 0.0367590
9529.69, 0.0356680
9547.24, 0.0346360
9564.86, 0.0338480
9582.54, 0.0336050
9600.28, 0.0334230
9618.1, 0.0332410
9635.97, 0.0333020
9653.92, 0.0338480
9671.93, 0.0346360
9690.01, 0.0351820
9708.16, 0.0351820
9726.37, 0.0350000
9744.65, 0.0350000
9763.0, 0.0350610
9781.43, 0.0351820
9799.92, 0.0353640
9818.48, 0.0354860
9837.1, 0.0357280
9855.8, 0.0357280
9874.58, 0.0352430
9893.42, 0.0346970
9912.34, 0.0339690
9931.33, 0.0332410
9950.39, 0.0327560
9969.52, 0.0321490
9988.74, 0.0312390
10008.0, 0.0307540
10027.4, 0.0304510
10046.8, 0.0300870
10066.3, 0.0297840
10085.9, 0.0294200
10105.6, 0.0291160
10125.3, 0.0291770
10145.1, 0.0291160
10165.0, 0.0290560
10185.0, 0.0289340
10205.0, 0.0291160
10225.2, 0.0292380
10245.4, 0.0291770
10265.7, 0.0292380
10286.0, 0.0291160
10306.5, 0.0291160
10327.0, 0.0292980
10347.6, 0.0292380
10368.3, 0.0289950
10389.1, 0.0287520
10409.9, 0.0285700
10430.9, 0.0281460
10451.9, 0.0279640
10473.0, 0.0277820
10494.2, 0.0275390
10515.5, 0.0271150
10536.9, 0.0270540
10558.4, 0.0272970
10579.9, 0.0276000
10601.5, 0.0279030
10623.3, 0.0283280
10645.1, 0.0285700
10667.0, 0.0291160
10689.0, 0.0296020
10711.1, 0.0300870
10733.2, 0.0302080
10755.5, 0.0304510
10777.9, 0.0305120
10800.3, 0.0305720
10822.9, 0.0308150
10845.5, 0.0313000
10868.2, 0.0317850
10891.1, 0.0324530
10914.0, 0.0330590
10937.0, 0.0341510
10960.2, 0.0354860
10983.4, 0.0368810
11006.7, 0.0385790
11030.1, 0.0405200
11053.6, 0.0419150
11077.3, 0.0433710
11101.0, 0.0447060
11124.8, 0.0457980
11148.7, 0.0464040
11172.7, 0.0472530
11196.9, 0.0482850
11221.1, 0.0493160
11245.4, 0.0502260
11269.9, 0.0515000
11294.4, 0.0528340
11319.1, 0.0542290
11343.9, 0.0556850
11368.8, 0.0568980
11393.7, 0.0578080
11418.8, 0.0582330
11444.0, 0.0581110
11469.4, 0.0579290
11494.8, 0.0573840
11520.3, 0.0566560
11546.0, 0.0553210
11571.8, 0.0536230
11597.7, 0.0516210
11623.7, 0.0495580
11649.8, 0.0473750
11676.0, 0.0451910
11702.4, 0.0428250
11728.9, 0.0405200
11755.5, 0.0380940
11782.2, 0.0356680
11809.0, 0.0334230
11836.0, 0.0316030
11863.0, 0.0297840
11890.3, 0.0285100
11917.6, 0.0274180
11945.0, 0.0261440
11972.6, 0.0249920
12000.4, 0.0240820
12028.2, 0.0231110
12056.2, 0.0219590
12084.3, 0.0210490
12112.5, 0.0202600
12140.9, 0.0193500
12169.4, 0.0183190
12198.0, 0.0173490
12226.8, 0.0164390
12255.7, 0.0157710
12284.7, 0.0155890
12313.9, 0.0153470
12343.2, 0.0153470
12372.7, 0.0155290
12402.3, 0.0155890
12432.0, 0.0158320
12461.9, 0.0163780
12491.9, 0.0166810
12522.1, 0.0164390
12552.4, 0.0158930
12582.9, 0.0158930
12613.5, 0.0158930
12644.3, 0.0158320
12675.2, 0.0157110
12706.3, 0.0155290
12737.5, 0.0157710
12768.9, 0.0158930
12800.4, 0.0155890
12832.1, 0.0154070
12863.9, 0.0146800
12895.9, 0.0140730
12928.1, 0.0137090
12960.4, 0.0131630
12992.9, 0.0129200
13025.5, 0.0129810
13058.3, 0.0130420
13091.3, 0.0131020
13124.4, 0.0133450
13157.8, 0.0133450
13191.2, 0.0133450
13224.9, 0.0134660
13258.7, 0.0132240
13292.7, 0.0130420
13326.9, 0.0134660
13361.2, 0.0137700
13395.7, 0.0135880
13430.4, 0.0138300
13465.3, 0.0141340
13500.4, 0.0143160
13535.7, 0.0148010
13571.1, 0.0154680
13606.7, 0.0159530
13642.5, 0.0164390
13678.5, 0.0164990
13714.7, 0.0162570
13751.1, 0.0163780
13787.6, 0.0170450
13824.4, 0.0172270
13861.4, 0.0172880
13898.5, 0.0171060
13935.9, 0.0169850
13973.5, 0.0169240
14011.2, 0.0169850
14049.2, 0.0166210
14087.4, 0.0163780
14125.8, 0.0159530
14164.3, 0.0157110
14203.2, 0.0152860
14242.2, 0.0150430
14281.4, 0.0148010
14320.9, 0.0145580
14360.5, 0.0144370
14400.4, 0.0148610
14440.5, 0.0148010
14480.9, 0.0150430
14521.4, 0.0157710
14562.2, 0.0161960
14603.3, 0.0164390
14644.5, 0.0165600
14686.0, 0.0166210
14727.7, 0.0166210
14769.7, 0.0162570
14811.9, 0.0164390
14854.3, 0.0168630
14897.0, 0.0171060
14939.9, 0.0168030
14983.1, 0.0162570
15026.5, 0.0158320
15070.2, 0.0158930
15114.2, 0.0161960
15158.3, 0.0163170
15202.8, 0.0164990
15247.5, 0.0164990
15292.5, 0.0163170
15337.7, 0.0161960
15383.2, 0.0161960
15429.0, 0.0160750
15475.1, 0.0161350
15521.4, 0.0166210
15568.0, 0.0161960
15614.9, 0.0162570
15662.1, 0.0160750
15709.6, 0.0158930
15757.3, 0.0161350
15805.4, 0.0160140
15853.7, 0.0158320
15902.3, 0.0157110
15951.2, 0.0154680
16000.5, 0.0152860
16050.0, 0.0148610
16099.8, 0.0145580
16150.0, 0.0140730
16200.5, 0.0140120
16251.3, 0.0141940
16302.4, 0.0140730
16353.8, 0.0141340
16405.5, 0.0148010
16457.6, 0.0150430
16510.0, 0.0152860
16562.8, 0.0158320
16615.9, 0.0159530
16669.3, 0.0160140
16723.1, 0.0168630
16777.2, 0.0174700
16831.7, 0.0178940
16886.5, 0.0177730
16941.7, 0.0182580
16997.2, 0.0189260
17053.1, 0.0185620
17109.4, 0.0188650
17166.1, 0.0198960
17223.1, 0.0206850
17280.5, 0.0214730
17338.3, 0.0223830
17396.5, 0.0236570
17455.1, 0.0246280
17514.0, 0.0260230
17573.4, 0.0285700
17633.2, 0.0310570
17693.4, 0.0323310
17754.0, 0.0335440
17815.0, 0.0349400
17876.4, 0.0354250
17938.3, 0.0366990
18000.5, 0.0387010
18063.3, 0.0397920
18126.4, 0.0403990
18190.0, 0.0404600
18254.1, 0.0404600
18318.6, 0.0404600
18383.5, 0.0405200
18449.0, 0.0403380
18514.9, 0.0402170
18581.2, 0.0400350
18648.0, 0.0392460
18715.4, 0.0376690
18783.2, 0.0369410
18851.5, 0.0370020
18920.3, 0.0368810
18989.6, 0.0362740
19059.4, 0.0366990
19129.7, 0.0376690
19200.6, 0.0373050
19272.0, 0.0371840
19343.9, 0.0382150
19416.3, 0.0377300
19489.3, 0.0363950
19562.8, 0.0351820
19637.0, 0.0345150
19711.6, 0.0336660
19786.8, 0.0325740
19862.6, 0.0312390
19939.0, 0.0296620
20016.0, 0.0288740
20093.6, 0.0285700
20171.8, 0.0291770
20250.6, 0.0313000
20330.0, 0.0322100
20410.0, 0.0329380
20490.7, 0.0355460
20572.0, 0.0379730
20654.0, 0.0395500
20736.6, 0.0413700
20819.9, 0.0426430
20903.8, 0.0445840
20988.5, 0.0439170
21073.8, 0.0435530
21159.8, 0.0435530
21246.5, 0.0435530
21334.0, 0.0433710
21422.1, 0.0434320
21511.0, 0.0450090
21600.7, 0.0462220
21691.0, 0.0461010
21782.1, 0.0465260
21874.0, 0.0452520
21966.7, 0.0438570
22060.2, 0.0444630
22154.5, 0.0447060
22249.6, 0.0439170
22345.5, 0.0440390
22442.2, 0.0434930
22539.8, 0.0434930
22638.2, 0.0417940
22737.5, 0.0405810
22837.7, 0.0400350
22938.7, 0.0388220
23040.7, 0.0390640
23143.5, 0.0409450
23247.3, 0.0408240
23352.1, 0.0419760
23457.7, 0.0414300
23564.4, 0.0411880
23672.0, 0.0414300
23780.5, 0.0418550
23890.1, 0.0399740
24000.7, 0.0388820
24112.3, 0.0409450
24225.0, 0.0424610
24338.7, 0.0416120
24453.5, 0.0393680
24569.4, 0.0406420
24686.4, 0.0449480
24804.5, 0.0499220
24923.8, 0.0530160
