Database of Origin, USGS Spectral Database
Sample Description, See USGS database for additional info
Date Added,2016-07-22 09:49:28.615521

Data ID,USGS_hyd02          
Sample ID, hydrogrossular_nmnh120555
Mineral Name, hydrogrossular
Material Class,Nesosilicate

Wavelength
1394.34, 0.506866
1394.71, 0.505244
1395.09, 0.504301
1395.46, 0.503935
1395.84, 0.502626
1396.22, 0.501527
1396.59, 0.501370
1396.97, 0.501161
1397.35, 0.500742
1397.72, 0.500533
1398.1, 0.500742
1398.48, 0.500533
1398.85, 0.500271
1399.23, 0.500009
1399.61, 0.499852
1399.99, 0.499643
1400.37, 0.499695
1400.74, 0.499329
1401.12, 0.499433
1401.5, 0.499852
1401.88, 0.499800
1402.26, 0.499276
1402.64, 0.499119
1403.02, 0.498805
1403.4, 0.498334
1403.78, 0.498177
1404.16, 0.497863
1404.54, 0.497078
1404.92, 0.496554
1405.3, 0.496554
1405.68, 0.496397
1406.06, 0.496136
1406.44, 0.495612
1406.83, 0.494879
1407.21, 0.494670
1407.59, 0.494408
1407.97, 0.493780
1408.35, 0.493099
1408.74, 0.492524
1409.12, 0.491948
1409.5, 0.491267
1409.89, 0.491110
1410.27, 0.490744
1410.65, 0.490430
1411.04, 0.489959
1411.42, 0.489645
1411.81, 0.489226
1412.19, 0.489016
1412.58, 0.488964
1412.96, 0.488441
1413.35, 0.487760
1413.73, 0.487289
1414.12, 0.487341
1414.5, 0.487132
1414.89, 0.486713
1415.28, 0.486085
1415.66, 0.485771
1416.05, 0.485457
1416.44, 0.485509
1416.82, 0.485143
1417.21, 0.484410
1417.6, 0.483991
1417.98, 0.483887
1418.37, 0.483363
1418.76, 0.483572
1419.15, 0.483625
1419.54, 0.483154
1419.93, 0.482944
1420.32, 0.482735
1420.71, 0.482107
1421.09, 0.481950
1421.48, 0.481897
1421.88, 0.481897
1422.27, 0.481740
1422.66, 0.481845
1423.05, 0.481688
1423.44, 0.481583
1423.83, 0.481688
1424.22, 0.481897
1424.61, 0.481636
1425.0, 0.481740
1425.39, 0.482107
1425.78, 0.482264
1426.18, 0.482421
1426.57, 0.482787
1426.96, 0.482944
1427.36, 0.483258
1427.75, 0.483834
1428.14, 0.484044
1428.54, 0.484305
1428.93, 0.485038
1429.32, 0.485562
1429.72, 0.485928
1430.11, 0.486556
1430.51, 0.486818
1430.9, 0.487132
1431.3, 0.487603
1431.69, 0.488231
1432.09, 0.488441
1432.48, 0.488755
1432.88, 0.489435
1433.28, 0.490116
1433.67, 0.490692
1434.07, 0.491163
1434.46, 0.491424
1434.86, 0.491738
1435.26, 0.492471
1435.66, 0.493099
1436.05, 0.493728
1436.45, 0.494356
1436.85, 0.494827
1437.25, 0.494670
1437.65, 0.494827
1438.05, 0.495403
1438.44, 0.496083
1438.84, 0.496607
1439.24, 0.497130
1439.64, 0.497392
1440.04, 0.497706
1440.44, 0.497915
1440.84, 0.498282
1441.24, 0.498700
1441.65, 0.498962
1442.05, 0.499381
1442.45, 0.499695
1442.85, 0.500061
1443.25, 0.500428
1443.65, 0.500533
1444.05, 0.500847
1444.46, 0.500951
1444.86, 0.501108
1445.26, 0.501213
1445.67, 0.501684
1446.07, 0.502155
1446.47, 0.502051
1446.88, 0.502417
1447.28, 0.503150
1447.68, 0.503098
1448.09, 0.502836
1448.49, 0.502888
1448.9, 0.503202
1449.3, 0.502993
1449.71, 0.503150
1450.11, 0.502888
1450.52, 0.503307
1450.93, 0.503830
1451.33, 0.504249
1451.74, 0.504458
1452.14, 0.504197
1452.55, 0.504144
1452.96, 0.504668
1453.36, 0.504773
1453.77, 0.504877
1454.18, 0.504982
1454.59, 0.505139
1455.0, 0.504982
1455.41, 0.505034
1455.81, 0.504825
1456.22, 0.504930
1456.63, 0.505348
1457.04, 0.505296
1457.45, 0.505453
1457.86, 0.505610
1458.27, 0.505767
1458.68, 0.505715
1459.09, 0.505819
1459.5, 0.505872
1459.91, 0.505662
1460.32, 0.506029
1460.74, 0.505977
1461.15, 0.505977
1461.56, 0.505872
1461.97, 0.506238
1462.39, 0.506291
1462.8, 0.505924
1463.21, 0.505977
1463.62, 0.506238
1464.04, 0.506186
1464.45, 0.506448
1464.86, 0.506186
1465.28, 0.506134
1465.69, 0.506395
1466.11, 0.506395
1466.52, 0.506395
1466.94, 0.506448
1467.35, 0.506238
1467.77, 0.506500
1468.18, 0.507076
1468.6, 0.507024
1469.02, 0.506552
1469.43, 0.506552
1469.85, 0.507076
1470.27, 0.507285
1470.68, 0.507181
1471.1, 0.507181
1471.52, 0.507285
1471.94, 0.507495
1472.35, 0.507704
1472.77, 0.507861
1473.19, 0.507652
1473.61, 0.507809
1474.03, 0.508332
1474.45, 0.508542
1474.87, 0.507966
1475.29, 0.507861
1475.71, 0.508070
1476.13, 0.508542
1476.55, 0.508699
1476.97, 0.508803
1477.39, 0.508751
1477.81, 0.508751
1478.23, 0.509013
1478.65, 0.508960
1479.07, 0.508856
1479.5, 0.508856
1479.92, 0.509379
1480.34, 0.509902
1480.76, 0.509850
1481.19, 0.509693
1481.61, 0.509745
1482.03, 0.509902
1482.46, 0.510112
1482.88, 0.510164
1483.31, 0.510478
1483.73, 0.510688
1484.16, 0.510845
1484.58, 0.511159
1485.01, 0.511211
1485.43, 0.511211
1485.86, 0.511106
1486.28, 0.510792
1486.71, 0.511211
1487.14, 0.511525
1487.56, 0.511211
1487.99, 0.511578
1488.42, 0.511892
1488.84, 0.511892
1489.27, 0.511735
1489.7, 0.511996
1490.13, 0.512258
1490.56, 0.512520
1490.98, 0.512677
1491.41, 0.512991
1491.84, 0.513148
1492.27, 0.513096
1492.7, 0.513462
1493.13, 0.513410
1493.56, 0.513410
1493.99, 0.513776
1494.42, 0.513828
1494.85, 0.513724
1495.29, 0.513671
1495.72, 0.513881
1496.15, 0.514090
1496.58, 0.514509
1497.01, 0.514509
1497.44, 0.514352
1497.88, 0.514718
1498.31, 0.515085
1498.74, 0.514928
1499.18, 0.515189
1499.61, 0.515451
1500.04, 0.515242
1500.48, 0.515085
1500.91, 0.515294
1501.35, 0.515504
1501.78, 0.515661
1502.22, 0.515922
1502.65, 0.516132
1503.09, 0.516027
1503.53, 0.516079
1503.96, 0.516236
1504.4, 0.516289
1504.83, 0.516603
1505.27, 0.516864
1505.71, 0.516864
1506.15, 0.516969
1506.58, 0.517074
1507.02, 0.517231
1507.46, 0.517388
1507.9, 0.517702
1508.34, 0.517807
1508.78, 0.517859
1509.21, 0.517807
1509.66, 0.517911
1510.09, 0.518121
1510.53, 0.518330
1510.97, 0.518644
1511.42, 0.518749
1511.86, 0.518749
1512.3, 0.519115
1512.74, 0.519168
1513.18, 0.519011
1513.62, 0.519115
1514.06, 0.519220
1514.51, 0.519325
1514.95, 0.519534
1515.39, 0.519587
1515.83, 0.519796
1516.28, 0.520110
1516.72, 0.520424
1517.16, 0.520319
1517.61, 0.520267
1518.05, 0.520424
1518.5, 0.520686
1518.94, 0.520790
1519.39, 0.520843
1519.83, 0.520895
1520.28, 0.521000
1520.73, 0.521209
1521.17, 0.521419
1521.62, 0.521628
1522.07, 0.521942
1522.51, 0.521837
1522.96, 0.521733
1523.41, 0.522047
1523.85, 0.522204
1524.3, 0.522151
1524.75, 0.522256
1525.2, 0.522361
1525.65, 0.522309
1526.1, 0.522518
1526.55, 0.522937
1527.0, 0.522884
1527.45, 0.522832
1527.9, 0.523146
1528.35, 0.523460
1528.8, 0.523460
1529.25, 0.523513
1529.7, 0.523827
1530.15, 0.524088
1530.6, 0.524088
1531.05, 0.524088
1531.51, 0.524141
1531.96, 0.524402
1532.41, 0.524926
1532.87, 0.525187
1533.32, 0.525292
1533.77, 0.525554
1534.23, 0.525659
1534.68, 0.525659
1535.14, 0.525659
1535.59, 0.525659
1536.05, 0.525763
1536.5, 0.526287
1536.96, 0.526549
1537.41, 0.526706
1537.87, 0.526863
1538.32, 0.527281
1538.78, 0.527334
1539.24, 0.527438
1539.7, 0.527543
1540.15, 0.527752
1540.61, 0.527962
1541.07, 0.528119
1541.53, 0.528328
1541.98, 0.528642
1542.44, 0.528642
1542.9, 0.528747
1543.36, 0.529114
1543.82, 0.529480
1544.28, 0.529532
1544.74, 0.529585
1545.2, 0.529846
1545.66, 0.530317
1546.12, 0.530474
1546.59, 0.530684
1547.05, 0.530789
1547.51, 0.530893
1547.97, 0.531207
1548.43, 0.531260
1548.9, 0.531469
1549.36, 0.531783
1549.82, 0.531417
1550.29, 0.531469
1550.75, 0.531940
1551.21, 0.532254
1551.68, 0.532516
1552.14, 0.532935
1552.61, 0.532987
1553.07, 0.533196
1553.54, 0.533511
1554.0, 0.533615
1554.47, 0.533615
1554.93, 0.533720
1555.4, 0.534034
1555.87, 0.534243
1556.34, 0.534453
1556.8, 0.534453
1557.27, 0.534610
1557.74, 0.534715
1558.21, 0.534819
1558.68, 0.535290
1559.14, 0.535604
1559.61, 0.535552
1560.08, 0.535500
1560.55, 0.535814
1561.02, 0.535814
1561.49, 0.536023
1561.96, 0.536390
1562.43, 0.536494
1562.9, 0.536547
1563.38, 0.536651
1563.85, 0.536704
1564.32, 0.536965
1564.79, 0.537384
1565.26, 0.537698
1565.74, 0.537541
1566.21, 0.537594
1566.68, 0.537751
1567.16, 0.537751
1567.63, 0.537908
1568.1, 0.538274
1568.58, 0.538274
1569.05, 0.538588
1569.53, 0.538745
1570.0, 0.538850
1570.48, 0.538902
1570.96, 0.539059
1571.43, 0.539373
1571.91, 0.539530
1572.39, 0.539740
1572.86, 0.539897
1573.34, 0.539897
1573.82, 0.540054
1574.3, 0.540316
1574.77, 0.540525
1575.25, 0.540839
1575.73, 0.541048
1576.21, 0.540996
1576.69, 0.541101
1577.17, 0.541153
1577.65, 0.541205
1578.13, 0.541258
1578.61, 0.541677
1579.09, 0.541781
1579.57, 0.541886
1580.05, 0.541938
1580.54, 0.542043
1581.02, 0.542095
1581.5, 0.542148
1581.98, 0.542514
1582.47, 0.542619
1582.95, 0.542671
1583.43, 0.542723
1583.92, 0.543195
1584.4, 0.543404
1584.88, 0.543456
1585.37, 0.543613
1585.85, 0.543456
1586.34, 0.543299
1586.82, 0.543299
1587.31, 0.543613
1587.8, 0.544084
1588.28, 0.544346
1588.77, 0.544503
1589.26, 0.544765
1589.74, 0.545027
1590.23, 0.545027
1590.72, 0.545079
1591.21, 0.545131
1591.7, 0.545236
1592.19, 0.545341
1592.67, 0.545498
1593.16, 0.545707
1593.65, 0.545969
1594.14, 0.545917
1594.63, 0.546021
1595.12, 0.546178
1595.61, 0.546649
1596.11, 0.546754
1596.6, 0.546964
1597.09, 0.547330
1597.58, 0.547487
1598.08, 0.547382
1598.57, 0.547592
1599.06, 0.547696
1599.55, 0.548010
1600.05, 0.548115
1600.54, 0.548167
1601.04, 0.548429
1601.53, 0.548482
1602.03, 0.548586
1602.52, 0.549162
1603.02, 0.549424
1603.51, 0.549214
1604.01, 0.549476
1604.5, 0.549947
1605.0, 0.550104
1605.5, 0.550157
1606.0, 0.550314
1606.49, 0.550418
1606.99, 0.550575
1607.49, 0.550889
1607.99, 0.551099
1608.49, 0.551203
1608.99, 0.551518
1609.49, 0.551675
1609.99, 0.551884
1610.49, 0.551989
1610.99, 0.552146
1611.49, 0.552093
1611.99, 0.552250
1612.49, 0.552669
1612.99, 0.552826
1613.49, 0.552983
1614.0, 0.553245
1614.5, 0.553507
1615.0, 0.553559
1615.51, 0.553297
1616.01, 0.553402
1616.51, 0.553821
1617.02, 0.554240
1617.52, 0.554344
1618.03, 0.554554
1618.53, 0.554815
1619.04, 0.554972
1619.54, 0.555077
1620.05, 0.555339
1620.55, 0.555496
1621.06, 0.555286
1621.57, 0.555339
1622.08, 0.555653
1622.58, 0.555915
1623.09, 0.556072
1623.6, 0.556229
1624.11, 0.556543
1624.62, 0.556543
1625.13, 0.556805
1625.64, 0.556805
1626.15, 0.556962
1626.66, 0.557171
1627.17, 0.557537
1627.68, 0.557590
1628.19, 0.557537
1628.7, 0.557694
1629.21, 0.558008
1629.72, 0.558166
1630.24, 0.558270
1630.75, 0.558584
1631.26, 0.558584
1631.78, 0.558480
1632.29, 0.558637
1632.8, 0.558846
1633.32, 0.559108
1633.83, 0.559108
1634.35, 0.559160
1634.86, 0.559474
1635.38, 0.559684
1635.9, 0.559474
1636.41, 0.559370
1636.93, 0.559736
1637.45, 0.559893
1637.96, 0.559684
1638.48, 0.559788
1639.0, 0.559998
1639.52, 0.560050
1640.04, 0.560312
1640.56, 0.560573
1641.08, 0.560783
1641.59, 0.560992
1642.11, 0.561149
1642.63, 0.561045
1643.16, 0.561097
1643.68, 0.561149
1644.2, 0.561516
1644.72, 0.561777
1645.24, 0.561516
1645.76, 0.561620
1646.29, 0.561934
1646.81, 0.561830
1647.33, 0.561725
1647.86, 0.561987
1648.38, 0.562406
1648.9, 0.562406
1649.43, 0.562144
1649.95, 0.562406
1650.48, 0.562615
1651.0, 0.562563
1651.53, 0.562667
1652.06, 0.562667
1652.58, 0.562824
1653.11, 0.563086
1653.64, 0.563295
1654.17, 0.563505
1654.69, 0.563348
1655.22, 0.563243
1655.75, 0.563400
1656.28, 0.563609
1656.81, 0.563557
1657.34, 0.563714
1657.87, 0.563924
1658.4, 0.564028
1658.93, 0.563976
1659.46, 0.564185
1659.99, 0.564499
1660.52, 0.564604
1661.05, 0.564447
1661.59, 0.564604
1662.12, 0.564813
1662.65, 0.564918
1663.19, 0.565128
1663.72, 0.565075
1664.26, 0.565128
1664.79, 0.565337
1665.32, 0.565546
1665.86, 0.565808
1666.39, 0.565808
1666.93, 0.565913
1667.47, 0.565965
1668.0, 0.566017
1668.54, 0.566279
1669.08, 0.566541
1669.61, 0.566855
1670.15, 0.567064
1670.69, 0.567169
1671.23, 0.567326
1671.77, 0.567431
1672.31, 0.567535
1672.85, 0.567745
1673.39, 0.567588
1673.93, 0.567640
1674.47, 0.567850
1675.01, 0.568111
1675.55, 0.568425
1676.09, 0.568582
1676.64, 0.568635
1677.18, 0.568478
1677.72, 0.568530
1678.26, 0.568896
1678.81, 0.569054
1679.35, 0.569106
1679.89, 0.569315
1680.44, 0.569682
1680.98, 0.569682
1681.53, 0.569577
1682.07, 0.569682
1682.62, 0.569943
1683.17, 0.570100
1683.71, 0.570310
1684.26, 0.570467
1684.81, 0.570781
1685.36, 0.570833
1685.9, 0.570781
1686.45, 0.570886
1687.0, 0.571147
1687.55, 0.571357
1688.1, 0.571252
1688.65, 0.571252
1689.2, 0.571514
1689.75, 0.571775
1690.3, 0.571933
1690.85, 0.572037
1691.41, 0.572142
1691.96, 0.572142
1692.51, 0.572247
1693.06, 0.572404
1693.61, 0.572404
1694.17, 0.572613
1694.72, 0.572770
1695.28, 0.572875
1695.83, 0.573032
1696.39, 0.573346
1696.94, 0.573398
1697.5, 0.573503
1698.05, 0.573503
1698.61, 0.573765
1699.17, 0.573817
1699.72, 0.573817
1700.28, 0.573608
1700.84, 0.573555
1701.4, 0.573608
1701.95, 0.573869
1702.51, 0.573869
1703.07, 0.573922
1703.63, 0.574079
1704.19, 0.574393
1704.75, 0.574393
1705.31, 0.574445
1705.88, 0.574550
1706.44, 0.574550
1707.0, 0.574655
1707.56, 0.574759
1708.12, 0.574812
1708.69, 0.574812
1709.25, 0.574707
1709.81, 0.574916
1710.38, 0.575021
1710.94, 0.575178
1711.51, 0.575126
1712.07, 0.575073
1712.64, 0.575073
1713.2, 0.575178
1713.77, 0.575230
1714.34, 0.575178
1714.9, 0.575230
1715.47, 0.575126
1716.04, 0.575126
1716.61, 0.575230
1717.18, 0.575335
1717.74, 0.575335
1718.31, 0.575387
1718.88, 0.575544
1719.45, 0.575597
1720.02, 0.575649
1720.59, 0.575649
1721.17, 0.575754
1721.74, 0.575911
1722.31, 0.576068
1722.88, 0.576068
1723.45, 0.576173
1724.03, 0.576277
1724.6, 0.576068
1725.18, 0.576068
1725.75, 0.576015
1726.33, 0.575963
1726.9, 0.576173
1727.48, 0.576382
1728.05, 0.576330
1728.63, 0.576591
1729.2, 0.576591
1729.78, 0.576434
1730.36, 0.576434
1730.94, 0.576696
1731.51, 0.576748
1732.09, 0.576905
1732.67, 0.576905
1733.25, 0.576958
1733.83, 0.576748
1734.41, 0.576539
1734.99, 0.576591
1735.57, 0.576748
1736.15, 0.576748
1736.73, 0.577062
1737.32, 0.577167
1737.9, 0.577219
1738.48, 0.577219
1739.07, 0.577377
1739.65, 0.577534
1740.23, 0.577481
1740.82, 0.577534
1741.4, 0.577743
1741.99, 0.577848
1742.57, 0.577848
1743.16, 0.578109
1743.74, 0.578266
1744.33, 0.578266
1744.92, 0.578371
1745.51, 0.578633
1746.09, 0.578790
1746.68, 0.578894
1747.27, 0.579052
1747.86, 0.578947
1748.45, 0.578947
1749.04, 0.578790
1749.63, 0.579052
1750.22, 0.579313
1750.81, 0.579313
1751.4, 0.579209
1751.99, 0.579209
1752.59, 0.579209
1753.18, 0.579366
1753.77, 0.579313
1754.37, 0.579418
1754.96, 0.579575
1755.56, 0.579784
1756.15, 0.580151
1756.74, 0.580256
1757.34, 0.580256
1757.94, 0.580308
1758.53, 0.580360
1759.13, 0.580308
1759.73, 0.580517
1760.32, 0.580570
1760.92, 0.580570
1761.52, 0.580517
1762.12, 0.580570
1762.72, 0.580727
1763.32, 0.580727
1763.92, 0.580779
1764.52, 0.581250
1765.12, 0.581250
1765.72, 0.580884
1766.32, 0.581145
1766.92, 0.581355
1767.53, 0.581250
1768.13, 0.581145
1768.73, 0.581302
1769.34, 0.581460
1769.94, 0.581460
1770.55, 0.581512
1771.15, 0.581617
1771.76, 0.581669
1772.36, 0.581826
1772.97, 0.582140
1773.57, 0.581931
1774.18, 0.581878
1774.79, 0.582088
1775.4, 0.582088
1776.0, 0.581826
1776.61, 0.581826
1777.22, 0.581931
1777.83, 0.582140
1778.44, 0.582245
1779.05, 0.582297
1779.66, 0.582035
1780.27, 0.581931
1780.88, 0.581983
1781.5, 0.582297
1782.11, 0.582402
1782.72, 0.582088
1783.33, 0.581931
1783.95, 0.581826
1784.56, 0.581931
1785.18, 0.582192
1785.79, 0.582297
1786.41, 0.582140
1787.02, 0.582088
1787.64, 0.582192
1788.26, 0.582088
1788.87, 0.582035
1789.49, 0.582088
1790.11, 0.582192
1790.73, 0.582140
1791.35, 0.582140
1791.96, 0.582035
1792.58, 0.581931
1793.21, 0.581878
1793.83, 0.581826
1794.45, 0.581826
1795.07, 0.581983
1795.69, 0.581983
1796.31, 0.582035
1796.93, 0.581931
1797.56, 0.581826
1798.18, 0.581826
1798.8, 0.581721
1799.43, 0.581774
1800.05, 0.581931
1800.68, 0.581774
1801.3, 0.581878
1801.93, 0.581826
1802.56, 0.581669
1803.18, 0.581826
1803.81, 0.581774
1804.44, 0.581669
1805.07, 0.581721
1805.7, 0.581826
1806.33, 0.581669
1806.95, 0.581617
1807.58, 0.581617
1808.22, 0.581617
1808.85, 0.581721
1809.48, 0.581774
1810.11, 0.581564
1810.74, 0.581407
1811.38, 0.581564
1812.01, 0.581669
1812.64, 0.581669
1813.28, 0.581721
1813.91, 0.581826
1814.55, 0.581564
1815.18, 0.581302
1815.82, 0.581407
1816.45, 0.581617
1817.09, 0.581564
1817.73, 0.581460
1818.36, 0.581407
1819.0, 0.581512
1819.64, 0.581198
1820.28, 0.580884
1820.92, 0.581250
1821.56, 0.581355
1822.2, 0.581564
1822.84, 0.581774
1823.48, 0.582035
1824.12, 0.582035
1824.76, 0.581983
1825.41, 0.581564
1826.05, 0.581093
1826.69, 0.581355
1827.34, 0.581878
1827.98, 0.581878
1828.63, 0.581669
1829.27, 0.581826
1829.92, 0.581983
1830.56, 0.581931
1831.21, 0.581878
1831.86, 0.582035
1832.5, 0.582035
1833.15, 0.582140
1833.8, 0.582035
1834.45, 0.581721
1835.1, 0.581721
1835.75, 0.581512
1836.4, 0.581669
1837.05, 0.581983
1837.7, 0.581774
1838.35, 0.582140
1839.01, 0.582088
1839.66, 0.581617
1840.31, 0.581931
1840.96, 0.581826
1841.62, 0.581355
1842.27, 0.581983
1842.93, 0.582820
1843.58, 0.582663
1844.24, 0.582454
1844.9, 0.582768
1845.55, 0.582925
1846.21, 0.582349
1846.87, 0.581564
1847.53, 0.581721
1848.18, 0.582140
1848.84, 0.582768
1849.5, 0.582978
1850.16, 0.582716
1850.82, 0.582716
1851.48, 0.582925
1852.14, 0.582768
1852.81, 0.582349
1853.47, 0.581983
1854.13, 0.582245
1854.8, 0.582663
1855.46, 0.582559
1856.12, 0.582140
1856.79, 0.582035
1857.45, 0.582349
1858.12, 0.582402
1858.79, 0.582192
1859.45, 0.581460
1860.12, 0.581617
1860.79, 0.581983
1861.46, 0.582192
1862.12, 0.582140
1862.79, 0.582035
1863.46, 0.581721
1864.13, 0.581407
1864.8, 0.581460
1865.48, 0.581355
1866.15, 0.581145
1866.82, 0.580727
1867.49, 0.579994
1868.16, 0.579941
1868.84, 0.580046
1869.51, 0.579732
1870.19, 0.578947
1870.86, 0.578319
1871.54, 0.578842
1872.21, 0.578423
1872.89, 0.577324
1873.56, 0.577377
1874.24, 0.577638
1874.92, 0.577377
1875.6, 0.577115
1876.28, 0.576382
1876.96, 0.575858
1877.64, 0.575963
1878.32, 0.575806
1879.0, 0.575492
1879.68, 0.574916
1880.36, 0.574340
1881.04, 0.573817
1881.73, 0.573555
1882.41, 0.573084
1883.09, 0.572404
1883.78, 0.571671
1884.46, 0.571514
1885.15, 0.571409
1885.83, 0.570938
1886.52, 0.570257
1887.21, 0.569786
1887.89, 0.569158
1888.58, 0.568687
1889.27, 0.567954
1889.96, 0.567064
1890.65, 0.566907
1891.34, 0.566541
1892.03, 0.565808
1892.72, 0.565232
1893.41, 0.564604
1894.1, 0.563976
1894.79, 0.563609
1895.49, 0.563138
1896.18, 0.562458
1896.87, 0.561777
1897.57, 0.560992
1898.26, 0.560259
1898.96, 0.559108
1899.65, 0.558218
1900.35, 0.557956
1901.05, 0.557694
1901.74, 0.557066
1902.44, 0.556176
1903.14, 0.555810
1903.84, 0.555548
1904.54, 0.554397
1905.24, 0.553297
1905.94, 0.552983
1906.64, 0.552617
1907.34, 0.552512
1908.04, 0.552146
1908.75, 0.551622
1909.45, 0.551203
1910.15, 0.550680
1910.86, 0.550052
1911.56, 0.549528
1912.27, 0.549214
1912.97, 0.548429
1913.68, 0.547853
1914.39, 0.547958
1915.09, 0.547592
1915.8, 0.547330
1916.51, 0.547173
1917.22, 0.546964
1917.93, 0.546807
1918.64, 0.546545
1919.35, 0.545759
1920.06, 0.544974
1920.77, 0.544974
1921.48, 0.545393
1922.19, 0.545498
1922.91, 0.545341
1923.62, 0.544870
1924.33, 0.544817
1925.05, 0.545027
1925.76, 0.544974
1926.48, 0.544660
1927.19, 0.544660
1927.91, 0.544608
1928.63, 0.544346
1929.35, 0.544346
1930.07, 0.544294
1930.78, 0.544451
1931.5, 0.544451
1932.22, 0.544503
1932.94, 0.544398
1933.66, 0.544137
1934.39, 0.544241
1935.11, 0.544660
1935.83, 0.544608
1936.55, 0.544503
1937.28, 0.544608
1938.0, 0.544765
1938.73, 0.544713
1939.45, 0.544608
1940.18, 0.544713
1940.9, 0.544922
1941.63, 0.544922
1942.36, 0.544974
1943.09, 0.545131
1943.81, 0.545236
1944.54, 0.545341
1945.27, 0.545341
1946.0, 0.545498
1946.73, 0.545550
1947.47, 0.545550
1948.2, 0.545655
1948.93, 0.545602
1949.66, 0.545759
1950.4, 0.545969
1951.13, 0.546178
1951.86, 0.546126
1952.6, 0.546021
1953.34, 0.545917
1954.07, 0.546074
1954.81, 0.546231
1955.55, 0.546126
1956.29, 0.546074
1957.02, 0.546178
1957.76, 0.546283
1958.5, 0.546126
1959.24, 0.545969
1959.98, 0.546126
1960.72, 0.546126
1961.47, 0.546231
1962.21, 0.546178
1962.95, 0.546283
1963.7, 0.546283
1964.44, 0.546283
1965.18, 0.546545
1965.93, 0.546754
1966.67, 0.546702
1967.42, 0.546807
1968.17, 0.546754
1968.92, 0.546859
1969.66, 0.547068
1970.41, 0.547173
1971.16, 0.547330
1971.91, 0.547278
1972.66, 0.547225
1973.41, 0.547278
1974.16, 0.547278
1974.92, 0.547278
1975.67, 0.547225
1976.42, 0.547121
1977.18, 0.547487
1977.93, 0.547644
1978.69, 0.547539
1979.44, 0.547330
1980.2, 0.547278
1980.95, 0.547382
1981.71, 0.547539
1982.47, 0.547592
1983.23, 0.547539
1983.99, 0.547592
1984.74, 0.547592
1985.51, 0.547696
1986.27, 0.547749
1987.03, 0.547801
1987.79, 0.547958
1988.55, 0.548115
1989.32, 0.548115
1990.08, 0.548220
1990.84, 0.548377
1991.61, 0.548429
1992.37, 0.548534
1993.14, 0.548691
1993.9, 0.548848
1994.67, 0.549005
1995.44, 0.549214
1996.21, 0.549214
1996.98, 0.549267
1997.75, 0.549424
1998.52, 0.549528
1999.29, 0.549633
2000.06, 0.549685
2000.83, 0.549843
2001.6, 0.549947
2002.38, 0.550000
2003.15, 0.550157
2003.93, 0.550209
2004.7, 0.550418
2005.48, 0.550628
2006.25, 0.550732
2007.03, 0.550785
2007.81, 0.551099
2008.58, 0.551361
2009.36, 0.551570
2010.14, 0.551779
2010.92, 0.551779
2011.7, 0.551779
2012.48, 0.552093
2013.26, 0.552303
2014.05, 0.552617
2014.83, 0.552774
2015.61, 0.552617
2016.4, 0.552460
2017.18, 0.552512
2017.97, 0.552879
2018.75, 0.552983
2019.54, 0.553088
2020.32, 0.553036
2021.11, 0.553245
2021.9, 0.553507
2022.69, 0.553507
2023.48, 0.553559
2024.27, 0.553664
2025.06, 0.553611
2025.85, 0.553664
2026.64, 0.553926
2027.44, 0.553821
2028.23, 0.553821
2029.02, 0.554030
2029.82, 0.554240
2030.61, 0.554397
2031.41, 0.554501
2032.2, 0.554501
2033.0, 0.554501
2033.8, 0.554397
2034.6, 0.554187
2035.4, 0.554135
2036.2, 0.554240
2037.0, 0.554240
2037.8, 0.554397
2038.6, 0.554554
2039.4, 0.554554
2040.2, 0.554554
2041.01, 0.554606
2041.81, 0.554554
2042.61, 0.554658
2043.42, 0.554658
2044.22, 0.554658
2045.03, 0.554711
2045.84, 0.554554
2046.65, 0.554449
2047.46, 0.554292
2048.26, 0.554240
2049.07, 0.554344
2049.88, 0.554292
2050.69, 0.554083
2051.51, 0.554187
2052.32, 0.554397
2053.13, 0.554397
2053.94, 0.554135
2054.76, 0.554030
2055.57, 0.553821
2056.39, 0.553716
2057.2, 0.553664
2058.02, 0.553716
2058.84, 0.553664
2059.66, 0.553559
2060.48, 0.553454
2061.29, 0.553245
2062.11, 0.553193
2062.94, 0.553140
2063.76, 0.552826
2064.58, 0.552617
2065.4, 0.552722
2066.22, 0.552617
2067.05, 0.552407
2067.87, 0.552146
2068.7, 0.552146
2069.52, 0.551989
2070.35, 0.551675
2071.18, 0.551518
2072.0, 0.551469
2072.83, 0.551174
2073.66, 0.550390
2074.49, 0.549703
2075.32, 0.549998
2076.15, 0.549949
2076.98, 0.549703
2077.82, 0.549752
2078.65, 0.549802
2079.48, 0.549409
2080.32, 0.548968
2081.15, 0.548723
2081.99, 0.548478
2082.83, 0.548723
2083.66, 0.548723
2084.5, 0.548085
2085.34, 0.547693
2086.18, 0.547448
2087.02, 0.547693
2087.86, 0.548036
2088.7, 0.547056
2089.54, 0.546467
2090.39, 0.546467
2091.23, 0.545977
2092.07, 0.545781
2092.92, 0.545830
2093.76, 0.545830
2094.61, 0.545977
2095.45, 0.545634
2096.3, 0.545192
2097.15, 0.544947
2098.0, 0.544163
2098.85, 0.543525
2099.7, 0.543476
2100.55, 0.543231
2101.4, 0.542643
2102.25, 0.542349
2103.1, 0.542300
2103.96, 0.542152
2104.81, 0.541564
2105.67, 0.541270
2106.52, 0.540927
2107.38, 0.540436
2108.24, 0.540142
2109.09, 0.539750
2109.95, 0.538818
2110.81, 0.538181
2111.67, 0.537396
2112.53, 0.537298
2113.39, 0.537543
2114.25, 0.536955
2115.12, 0.536023
2115.98, 0.535533
2116.84, 0.535533
2117.71, 0.535092
2118.58, 0.534111
2119.44, 0.533425
2120.31, 0.533130
2121.18, 0.532150
2122.04, 0.531512
2122.91, 0.531071
2123.78, 0.530336
2124.65, 0.529551
2125.52, 0.529159
2126.4, 0.528374
2127.27, 0.527590
2128.14, 0.527443
2129.02, 0.527394
2129.89, 0.526119
2130.77, 0.525040
2131.64, 0.524501
2132.52, 0.523716
2133.4, 0.522687
2134.27, 0.521559
2135.15, 0.520284
2136.03, 0.519205
2136.91, 0.517832
2137.79, 0.516999
2138.68, 0.516263
2139.56, 0.515332
2140.44, 0.514204
2141.33, 0.513370
2142.21, 0.512537
2143.1, 0.511115
2143.99, 0.509791
2144.87, 0.508908
2145.76, 0.507879
2146.65, 0.506653
2147.54, 0.505329
2148.43, 0.503907
2149.32, 0.502534
2150.21, 0.501504
2151.1, 0.500426
2151.99, 0.499004
2152.89, 0.497141
2153.78, 0.495572
2154.68, 0.494052
2155.57, 0.492482
2156.47, 0.490570
2157.37, 0.488658
2158.27, 0.486991
2159.16, 0.485520
2160.06, 0.483461
2160.96, 0.481597
2161.86, 0.479244
2162.77, 0.477282
2163.67, 0.476106
2164.57, 0.474733
2165.48, 0.473017
2166.38, 0.471104
2167.29, 0.469094
2168.2, 0.467623
2169.1, 0.465907
2170.01, 0.464044
2170.92, 0.462229
2171.83, 0.460857
2172.74, 0.459631
2173.65, 0.457964
2174.56, 0.456247
2175.47, 0.454678
2176.39, 0.453502
2177.3, 0.452080
2178.22, 0.450609
2179.13, 0.448745
2180.05, 0.446735
2180.96, 0.445558
2181.88, 0.444333
2182.8, 0.442715
2183.72, 0.441440
2184.64, 0.439429
2185.56, 0.437762
2186.48, 0.436144
2187.41, 0.434379
2188.33, 0.432810
2189.25, 0.431241
2190.18, 0.429917
2191.1, 0.428789
2192.03, 0.427465
2192.96, 0.425847
2193.89, 0.424131
2194.82, 0.422660
2195.74, 0.421140
2196.68, 0.419816
2197.61, 0.418983
2198.54, 0.417953
2199.47, 0.416482
2200.4, 0.415207
2201.34, 0.414570
2202.28, 0.413344
2203.21, 0.411922
2204.15, 0.411187
2205.08, 0.410108
2206.02, 0.408833
2206.96, 0.408196
2207.9, 0.407852
2208.84, 0.407166
2209.78, 0.406136
2210.73, 0.405744
2211.67, 0.405695
2212.61, 0.405548
2213.56, 0.405450
2214.5, 0.405352
2215.45, 0.405156
2216.4, 0.405254
2217.35, 0.405352
2218.3, 0.405107
2219.24, 0.405107
2220.2, 0.405352
2221.15, 0.405646
2222.1, 0.405499
2223.05, 0.405793
2224.0, 0.406430
2224.96, 0.406774
2225.91, 0.407068
2226.87, 0.407117
2227.83, 0.407264
2228.79, 0.407558
2229.74, 0.407705
2230.7, 0.407901
2231.66, 0.408343
2232.63, 0.408490
2233.59, 0.408686
2234.55, 0.408245
2235.51, 0.408441
2236.48, 0.408735
2237.44, 0.408833
2238.41, 0.408784
2239.38, 0.408784
2240.34, 0.409127
2241.31, 0.409618
2242.28, 0.410010
2243.25, 0.410598
2244.22, 0.411089
2245.19, 0.411481
2246.17, 0.411726
2247.14, 0.412020
2248.12, 0.412609
2249.09, 0.413148
2250.07, 0.413638
2251.04, 0.414178
2252.02, 0.414619
2253.0, 0.415060
2253.98, 0.415894
2254.96, 0.416678
2255.94, 0.417365
2256.92, 0.418149
2257.91, 0.418394
2258.89, 0.419130
2259.88, 0.419767
2260.86, 0.420209
2261.85, 0.420846
2262.83, 0.421680
2263.82, 0.422464
2264.81, 0.422807
2265.8, 0.423445
2266.79, 0.424180
2267.78, 0.424720
2268.78, 0.425259
2269.77, 0.425847
2270.76, 0.426485
2271.76, 0.427073
2272.75, 0.427514
2273.75, 0.427907
2274.75, 0.428642
2275.75, 0.429182
2276.75, 0.429378
2277.75, 0.429231
2278.75, 0.429476
2279.75, 0.429770
2280.75, 0.430064
2281.76, 0.430260
2282.76, 0.430505
2283.77, 0.430505
2284.77, 0.430260
2285.78, 0.430015
2286.79, 0.429770
2287.8, 0.429525
2288.81, 0.429525
2289.82, 0.429427
2290.83, 0.429329
2291.84, 0.428838
2292.86, 0.428054
2293.87, 0.427514
2294.89, 0.426779
2295.91, 0.426289
2296.92, 0.425749
2297.94, 0.425210
2298.96, 0.424818
2299.98, 0.424229
2301.0, 0.423101
2302.02, 0.422219
2303.04, 0.421778
2304.07, 0.421582
2305.09, 0.421434
2306.12, 0.421336
2307.15, 0.421140
2308.17, 0.420601
2309.2, 0.420258
2310.23, 0.419865
2311.26, 0.419424
2312.29, 0.419081
2313.32, 0.418640
2314.35, 0.418394
2315.39, 0.418051
2316.42, 0.417463
2317.46, 0.416727
2318.5, 0.416139
2319.53, 0.415158
2320.57, 0.414227
2321.61, 0.413540
2322.65, 0.412756
2323.69, 0.411334
2324.73, 0.410157
2325.78, 0.409274
2326.82, 0.407803
2327.86, 0.406038
2328.91, 0.404371
2329.96, 0.402900
2331.01, 0.401233
2332.05, 0.399517
2333.1, 0.397899
2334.15, 0.396036
2335.21, 0.393927
2336.26, 0.391770
2337.31, 0.389220
2338.36, 0.386866
2339.42, 0.384562
2340.48, 0.382061
2341.53, 0.379708
2342.59, 0.377599
2343.65, 0.375540
2344.71, 0.372892
2345.77, 0.370343
2346.83, 0.368234
2347.9, 0.366175
2348.96, 0.363870
2350.02, 0.361762
2351.09, 0.359604
2352.16, 0.357496
2353.23, 0.355682
2354.29, 0.354015
2355.36, 0.352544
2356.43, 0.350779
2357.51, 0.348915
2358.58, 0.347493
2359.65, 0.346120
2360.73, 0.344649
2361.8, 0.343326
2362.88, 0.342492
2363.96, 0.341953
2365.03, 0.341217
2366.11, 0.340580
2367.19, 0.340040
2368.27, 0.339599
2369.36, 0.339207
2370.44, 0.338668
2371.53, 0.338324
2372.61, 0.338275
2373.7, 0.338226
2374.78, 0.338373
2375.87, 0.338668
2376.96, 0.339011
2378.05, 0.339060
2379.14, 0.339109
2380.24, 0.339501
2381.33, 0.339550
2382.42, 0.339795
2383.52, 0.340531
2384.61, 0.341168
2385.71, 0.341511
2386.81, 0.342051
2387.91, 0.342786
2389.01, 0.343375
2390.11, 0.344012
2391.22, 0.344600
2392.32, 0.345091
2393.42, 0.345483
2394.53, 0.346071
2395.64, 0.346464
2396.74, 0.346807
2397.85, 0.347444
2398.96, 0.348131
2400.07, 0.348376
2401.18, 0.348474
2402.3, 0.348768
2403.41, 0.348915
2404.52, 0.349209
2405.64, 0.349553
2406.76, 0.349798
2407.88, 0.349945
2408.99, 0.350288
2410.11, 0.350484
2411.23, 0.350435
2412.36, 0.350582
2413.48, 0.350681
2414.6, 0.350582
2415.73, 0.350337
2416.85, 0.350435
2417.98, 0.350239
2419.11, 0.349945
2420.24, 0.349455
2421.37, 0.348964
2422.5, 0.348719
2423.64, 0.348425
2424.77, 0.347788
2425.9, 0.346905
2427.04, 0.346071
2428.18, 0.345336
2429.31, 0.344846
2430.45, 0.344306
2431.59, 0.343031
2432.73, 0.341904
2433.88, 0.341315
2435.02, 0.340335
2436.16, 0.339207
2437.31, 0.338422
2438.45, 0.337540
2439.6, 0.336853
2440.75, 0.335922
2441.9, 0.335039
2443.05, 0.334206
2444.2, 0.333176
2445.35, 0.332244
2446.51, 0.331509
2447.67, 0.330577
2448.82, 0.329253
2449.98, 0.328175
2451.14, 0.327341
2452.3, 0.326556
2453.46, 0.325772
2454.62, 0.324889
2455.78, 0.323860
2456.94, 0.323026
2458.11, 0.322193
2459.28, 0.321310
2460.44, 0.320280
2461.61, 0.319300
2462.78, 0.318662
2463.95, 0.317878
2465.12, 0.317093
2466.3, 0.316554
2467.47, 0.316113
2468.65, 0.315622
2469.82, 0.314789
2471.0, 0.314200
2472.18, 0.313857
2473.36, 0.313514
2474.54, 0.313122
2475.72, 0.312729
2476.9, 0.312337
2478.08, 0.311749
2479.27, 0.311160
2480.46, 0.310474
2481.64, 0.310131
2482.83, 0.309787
2484.02, 0.309395
2485.21, 0.309052
2486.4, 0.308660
2487.6, 0.308218
2488.79, 0.307581
2489.99, 0.307042
2491.18, 0.306502
2492.38, 0.306159
2493.58, 0.305865
2494.78, 0.305571
2495.98, 0.305227
2497.18, 0.305178
2498.39, 0.304688
2499.59, 0.304247
2500.8, 0.304002
2502.01, 0.303953
2503.21, 0.303953
2504.42, 0.303903
2505.63, 0.303707
2506.84, 0.303217
2508.06, 0.302923
2509.27, 0.302825
2510.49, 0.302825
2511.7, 0.302874
2512.92, 0.302776
2514.14, 0.302727
2515.36, 0.302727
2516.58, 0.302727
2517.8, 0.302727
2519.03, 0.302678
2520.25, 0.302531
2521.48, 0.302629
2522.7, 0.302923
2523.93, 0.303168
2525.16, 0.303364
2526.39, 0.303609
2527.62, 0.303756
2528.86, 0.303756
2530.09, 0.303903
2531.33, 0.304345
2532.56, 0.304639
2533.8, 0.304933
2535.04, 0.305227
2536.28, 0.305571
2537.52, 0.305718
2538.76, 0.305865
2540.01, 0.306257
2541.25, 0.306110
2542.5, 0.305865
2543.75, 0.306159
2544.99, 0.306698
2546.24, 0.306894
2547.49, 0.306698
2548.75, 0.306551
2550.0, 0.306747
2551.26, 0.306698
2552.51, 0.306649
2553.77, 0.306894
2555.03, 0.306993
2556.29, 0.307091
2557.55, 0.306894
2558.81, 0.306502
2560.08, 0.305963
2561.34, 0.305423
2562.61, 0.305178
2563.88, 0.305178
2565.14, 0.305227
2566.41, 0.305325
2567.68, 0.305080
2568.96, 0.304296
2570.23, 0.304051
2571.51, 0.303756
2572.78, 0.302531
2574.06, 0.302285
2575.34, 0.302187
2576.62, 0.301501
2577.9, 0.301207
2579.18, 0.300814
2580.47, 0.299834
2581.75, 0.299049
2583.04, 0.297872
2584.32, 0.297431
2585.61, 0.297284
2586.9, 0.296500
2588.2, 0.295911
2589.49, 0.295568
2590.78, 0.295127
2592.08, 0.293999
2593.37, 0.291645
2594.67, 0.289537
2595.97, 0.290125
2597.27, 0.290959
2598.57, 0.290616
2599.88, 0.289733
2601.18, 0.288654
2602.49, 0.287772
2603.79, 0.286644
2605.1, 0.285173
2606.41, 0.284732
2607.72, 0.284487
2609.03, 0.283849
2610.35, 0.283163
2611.66, 0.282329
2612.98, 0.281447
2614.3, 0.280613
2615.62, 0.278946
2616.94, 0.277524
2618.26, 0.277034
2619.58, 0.275318
2620.91, 0.274435
2622.23, 0.274288
2623.56, 0.273454
2624.89, 0.271934
2626.22, 0.269875
2627.55, 0.268943
2628.88, 0.267423
2630.21, 0.265462
2631.55, 0.264972
2632.89, 0.264187
2634.22, 0.262912
2635.56, 0.261932
2636.9, 0.260559
2638.25, 0.258892
2639.59, 0.257372
2640.93, 0.256048
2642.28, 0.254773
2643.63, 0.253449
2644.98, 0.251733
2646.33, 0.250311
2647.68, 0.248987
2649.03, 0.247565
2650.39, 0.245898
2651.74, 0.244231
2653.1, 0.243005
2654.46, 0.241681
2655.82, 0.240014
2657.18, 0.238641
2658.54, 0.236925
2659.9, 0.235405
2661.27, 0.233787
2662.64, 0.232120
2664.01, 0.229766
2665.38, 0.227560
2666.74, 0.225893
2668.12, 0.224863
2669.49, 0.222608
2670.87, 0.220891
2672.24, 0.220450
2673.62, 0.218930
2675.0, 0.216626
2676.38, 0.214321
2677.76, 0.212654
2679.15, 0.210938
2680.54, 0.209418
2681.92, 0.207408
2683.31, 0.204956
2684.7, 0.202406
2686.09, 0.199562
2687.48, 0.196866
2688.88, 0.193924
2690.27, 0.190491
2691.67, 0.186667
2693.07, 0.182009
2694.47, 0.177449
2695.87, 0.172840
2697.27, 0.167936
2698.67, 0.162690
2700.08, 0.156953
2701.49, 0.151118
2702.9, 0.145283
2704.31, 0.138909
2705.72, 0.131946
2707.13, 0.124346
2708.54, 0.116305
2709.96, 0.107822
2711.38, 0.0992420
2712.8, 0.0907590
2714.22, 0.0821780
2715.64, 0.0742840
2717.06, 0.0674690
2718.49, 0.0620750
2719.91, 0.0577600
2721.34, 0.0548670
2722.77, 0.0531510
2724.2, 0.0522200
2725.63, 0.0522690
2727.07, 0.0528570
2728.5, 0.0532490
2729.94, 0.0538380
2731.38, 0.0541320
2732.82, 0.0539850
2734.26, 0.0535930
2735.7, 0.0529060
2737.15, 0.0518270
2738.59, 0.0505030
2740.04, 0.0488360
2741.49, 0.0470710
2742.94, 0.0452570
2744.39, 0.0432470
2745.84, 0.0412360
2747.3, 0.0396180
2748.76, 0.0378530
2750.21, 0.0364310
2751.67, 0.0351070
2753.14, 0.0339300
2754.6, 0.0328520
2756.06, 0.0321650
2757.53, 0.0316260
2759.0, 0.0312340
2760.46, 0.0310870
2761.94, 0.0311850
2763.41, 0.0315770
2764.88, 0.0319690
2766.36, 0.0325090
2767.83, 0.0330480
2769.31, 0.0336850
2770.79, 0.0344210
2772.27, 0.0351560
2773.76, 0.0358430
2775.24, 0.0363330
2776.73, 0.0369210
2778.22, 0.0377060
2779.71, 0.0385400
2781.2, 0.0392750
2782.69, 0.0401580
2784.18, 0.0408930
2785.68, 0.0414820
2787.18, 0.0421680
2788.68, 0.0430020
2790.18, 0.0437370
2791.68, 0.0444720
2793.19, 0.0452570
2794.69, 0.0459920
2796.2, 0.0464830
2797.71, 0.0470710
2799.22, 0.0477580
2800.73, 0.0484440
2802.24, 0.0489830
2803.76, 0.0495230
2805.28, 0.0499640
2806.8, 0.0503560
2808.32, 0.0509450
2809.84, 0.0515330
2811.36, 0.0517290
2812.89, 0.0520730
2814.42, 0.0527590
2815.94, 0.0532980
2817.48, 0.0533960
2819.01, 0.0537400
2820.54, 0.0541810
2822.08, 0.0547200
2823.61, 0.0552600
2825.15, 0.0558970
2826.69, 0.0565340
2828.23, 0.0569760
2829.78, 0.0573680
2831.32, 0.0579560
2832.87, 0.0583980
2834.42, 0.0589370
2835.97, 0.0595250
2837.52, 0.0602120
2839.08, 0.0608000
2840.63, 0.0614380
2842.19, 0.0620750
2843.75, 0.0627620
2845.31, 0.0635460
2846.87, 0.0644780
2848.44, 0.0650170
2850.0, 0.0656550
2851.57, 0.0665370
2853.14, 0.0671260
2854.71, 0.0677630
2856.28, 0.0684980
2857.86, 0.0691360
2859.43, 0.0698220
2861.01, 0.0701660
2862.59, 0.0704110
2864.17, 0.0709010
2865.76, 0.0714400
2867.34, 0.0719310
2868.93, 0.0722250
2870.52, 0.0723720
2872.11, 0.0728130
2873.7, 0.0732550
2875.29, 0.0735980
2876.89, 0.0736470
2878.49, 0.0736470
2880.08, 0.0738430
2881.69, 0.0740880
2883.29, 0.0743820
2884.89, 0.0745780
2886.5, 0.0746270
2888.11, 0.0748240
2889.72, 0.0750200
2891.33, 0.0751180
2892.94, 0.0751180
2894.56, 0.0752650
2896.17, 0.0754120
2897.79, 0.0754610
2899.42, 0.0754610
2901.04, 0.0754610
2902.66, 0.0755590
2904.29, 0.0757550
2905.92, 0.0758530
2907.55, 0.0759510
2909.18, 0.0760000
2910.81, 0.0760000
2912.45, 0.0762950
2914.08, 0.0766380
2915.72, 0.0765890
2917.36, 0.0763440
2919.01, 0.0763440
2920.65, 0.0764420
2922.3, 0.0765400
2923.94, 0.0767850
2925.59, 0.0769810
2927.25, 0.0769810
2928.9, 0.0768830
2930.56, 0.0770790
2932.21, 0.0772260
2933.87, 0.0773730
2935.53, 0.0774220
2937.2, 0.0775690
2938.86, 0.0777170
2940.53, 0.0777660
2942.2, 0.0777660
2943.87, 0.0780110
2945.54, 0.0780600
2947.22, 0.0781090
2948.89, 0.0782560
2950.57, 0.0785010
2952.25, 0.0786970
2953.93, 0.0789420
2955.62, 0.0792370
2957.3, 0.0793840
2958.99, 0.0795310
2960.68, 0.0798740
2962.37, 0.0800700
2964.07, 0.0803150
2965.76, 0.0805600
2967.46, 0.0807080
2969.16, 0.0808550
2970.86, 0.0811000
2972.56, 0.0814920
2974.27, 0.0815900
2975.98, 0.0817370
2977.69, 0.0821290
2979.4, 0.0823260
2981.11, 0.0826200
2982.83, 0.0829140
2984.54, 0.0831590
2986.26, 0.0833060
2987.98, 0.0835020
2989.71, 0.0838460
2991.43, 0.0841890
2993.16, 0.0843360
2994.89, 0.0846790
2996.62, 0.0848260
2998.35, 0.0848750
3000.09, 0.0850710
3001.83, 0.0853660
3003.57, 0.0856110
3005.31, 0.0858070
3007.05, 0.0860030
3008.79, 0.0862480
3010.54, 0.0863460
3012.29, 0.0864930
3014.04, 0.0867880
3015.8, 0.0870330
3017.55, 0.0870330
3019.31, 0.0870330
3021.07, 0.0871800
3022.83, 0.0872780
3024.59, 0.0872780
3026.36, 0.0873760
3028.13, 0.0873760
3029.9, 0.0875230
3031.67, 0.0877680
3033.44, 0.0880620
3035.22, 0.0881110
3037.0, 0.0880620
3038.78, 0.0880620
3040.56, 0.0880620
3042.34, 0.0881110
3044.13, 0.0882090
3045.92, 0.0881110
3047.71, 0.0881600
3049.5, 0.0883570
3051.3, 0.0884060
3053.09, 0.0882090
3054.89, 0.0880620
3056.69, 0.0881600
3058.5, 0.0882590
3060.3, 0.0883080
3062.11, 0.0883080
3063.92, 0.0881110
3065.73, 0.0881110
3067.55, 0.0882590
3069.36, 0.0882590
3071.18, 0.0882090
3073.0, 0.0881600
3074.82, 0.0882590
3076.65, 0.0884060
3078.48, 0.0882590
3080.31, 0.0882590
3082.14, 0.0882590
3083.97, 0.0882590
3085.8, 0.0882590
3087.64, 0.0883570
3089.48, 0.0883080
3091.33, 0.0883080
3093.17, 0.0884060
3095.02, 0.0885040
3096.87, 0.0885530
3098.72, 0.0886510
3100.57, 0.0887000
3102.43, 0.0887000
3104.28, 0.0887490
3106.14, 0.0888470
3108.01, 0.0888960
3109.87, 0.0889940
3111.74, 0.0889940
3113.61, 0.0891410
3115.48, 0.0892880
3117.35, 0.0893370
3119.23, 0.0892390
3121.1, 0.0892880
3122.98, 0.0893860
3124.87, 0.0893860
3126.75, 0.0892880
3128.64, 0.0891900
3130.53, 0.0891410
3132.42, 0.0892390
3134.31, 0.0891900
3136.21, 0.0892880
3138.11, 0.0892880
3140.01, 0.0893370
3141.91, 0.0892880
3143.82, 0.0894350
3145.73, 0.0895330
3147.64, 0.0895330
3149.55, 0.0895820
3151.46, 0.0897790
3153.38, 0.0897790
3155.3, 0.0898770
3157.22, 0.0900240
3159.14, 0.0901220
3161.07, 0.0903180
3163.0, 0.0906120
3164.93, 0.0908080
3166.86, 0.0911020
3168.8, 0.0914460
3170.74, 0.0917400
3172.68, 0.0920340
3174.62, 0.0923770
3176.56, 0.0927200
3178.51, 0.0931620
3180.46, 0.0936030
3182.42, 0.0938480
3184.37, 0.0943390
3186.33, 0.0947800
3188.29, 0.0953190
3190.25, 0.0959570
3192.21, 0.0965940
3194.18, 0.0971330
3196.15, 0.0977710
3198.12, 0.0983100
3200.09, 0.0988500
3202.07, 0.0994870
3204.05, 0.0999280
3206.03, 0.100468
3208.02, 0.101007
3210.0, 0.101546
3211.99, 0.102135
3213.98, 0.102821
3215.98, 0.103361
3217.97, 0.103851
3219.97, 0.104243
3221.97, 0.104635
3223.98, 0.105028
3225.98, 0.105371
3227.99, 0.105861
3230.0, 0.106450
3232.02, 0.106940
3234.03, 0.107185
3236.05, 0.107528
3238.07, 0.108068
3240.1, 0.108509
3242.12, 0.108754
3244.15, 0.109097
3246.18, 0.109441
3248.22, 0.109784
3250.25, 0.110372
3252.29, 0.110666
3254.33, 0.111157
3256.38, 0.111451
3258.43, 0.111745
3260.47, 0.112235
3262.53, 0.112677
3264.58, 0.113069
3266.64, 0.113608
3268.7, 0.114148
3270.76, 0.114540
3272.82, 0.114932
3274.89, 0.115472
3276.96, 0.116109
3279.04, 0.116697
3281.11, 0.117139
3283.19, 0.117531
3285.27, 0.117972
3287.35, 0.118561
3289.44, 0.119100
3291.53, 0.119688
3293.62, 0.120179
3295.71, 0.120767
3297.81, 0.121454
3299.91, 0.122042
3302.01, 0.122483
3304.11, 0.123023
3306.22, 0.123562
3308.33, 0.124101
3310.44, 0.124739
3312.56, 0.125278
3314.68, 0.125768
3316.8, 0.126259
3318.92, 0.126847
3321.05, 0.127485
3323.18, 0.128024
3325.31, 0.128563
3327.44, 0.129054
3329.58, 0.129544
3331.72, 0.129936
3333.86, 0.130426
3336.01, 0.131015
3338.16, 0.131505
3340.31, 0.132045
3342.46, 0.132584
3344.61, 0.133025
3346.77, 0.133221
3348.94, 0.133565
3351.1, 0.134006
3353.27, 0.134447
3355.44, 0.134839
3357.61, 0.135183
3359.79, 0.135624
3361.97, 0.136065
3364.15, 0.136506
3366.33, 0.136899
3368.52, 0.137291
3370.71, 0.137634
3372.9, 0.137928
3375.1, 0.138370
3377.3, 0.138860
3379.5, 0.139203
3381.71, 0.139497
3383.91, 0.139792
3386.12, 0.140086
3388.34, 0.140576
3390.55, 0.141116
3392.77, 0.141508
3394.99, 0.141802
3397.22, 0.142145
3399.45, 0.142488
3401.68, 0.142832
3403.91, 0.143126
3406.15, 0.143469
3408.39, 0.143861
3410.63, 0.144303
3412.87, 0.144793
3415.12, 0.145136
3417.37, 0.145381
3419.63, 0.145725
3421.88, 0.146117
3424.14, 0.146558
3426.41, 0.146999
3428.67, 0.147441
3430.94, 0.147980
3433.21, 0.148323
3435.49, 0.148765
3437.77, 0.149206
3440.05, 0.149598
3442.33, 0.149941
3444.62, 0.150334
3446.91, 0.150628
3449.2, 0.150971
3451.5, 0.151314
3453.8, 0.151805
3456.1, 0.152344
3458.41, 0.152687
3460.72, 0.152932
3463.03, 0.153227
3465.34, 0.153717
3467.66, 0.154305
3469.98, 0.154550
3472.31, 0.154796
3474.63, 0.155188
3476.96, 0.155580
3479.3, 0.156021
3481.64, 0.156463
3483.97, 0.156904
3486.32, 0.157198
3488.66, 0.157492
3491.01, 0.157787
3493.36, 0.158228
3495.72, 0.158718
3498.08, 0.159110
3500.44, 0.159503
3502.81, 0.159944
3505.18, 0.160483
3507.55, 0.160827
3509.92, 0.161219
3512.3, 0.161660
3514.68, 0.162003
3517.06, 0.162494
3519.45, 0.162984
3521.84, 0.163327
3524.24, 0.163818
3526.64, 0.164308
3529.04, 0.164700
3531.44, 0.165092
3533.85, 0.165534
3536.26, 0.165926
3538.67, 0.166318
3541.09, 0.166760
3543.51, 0.167250
3545.93, 0.167740
3548.36, 0.168083
3550.79, 0.168427
3553.22, 0.168917
3555.66, 0.169407
3558.1, 0.169898
3560.54, 0.170290
3562.99, 0.170731
3565.44, 0.171172
3567.9, 0.171565
3570.35, 0.171957
3572.81, 0.172300
3575.28, 0.172643
3577.75, 0.173036
3580.22, 0.173477
3582.69, 0.174016
3585.17, 0.174311
3587.65, 0.174703
3590.14, 0.175193
3592.62, 0.175585
3595.11, 0.176027
3597.61, 0.176419
3600.11, 0.176860
3602.61, 0.177302
3605.11, 0.177792
3607.62, 0.178135
3610.14, 0.178478
3612.65, 0.178822
3615.17, 0.179165
3617.69, 0.179655
3620.22, 0.180194
3622.75, 0.180636
3625.28, 0.180930
3627.82, 0.181371
3630.36, 0.181763
3632.9, 0.182107
3635.45, 0.182499
3638.0, 0.182989
3640.56, 0.183382
3643.12, 0.183774
3645.68, 0.184215
3648.24, 0.184656
3650.81, 0.185049
3653.39, 0.185441
3655.96, 0.185882
3658.54, 0.186373
3661.13, 0.186765
3663.71, 0.187206
3666.3, 0.187647
3668.9, 0.187991
3671.5, 0.188432
3674.1, 0.188922
3676.7, 0.189364
3679.31, 0.189707
3681.93, 0.190148
3684.54, 0.190687
3687.17, 0.191031
3689.79, 0.191472
3692.42, 0.191815
3695.05, 0.192207
3697.69, 0.192551
3700.32, 0.192992
3702.97, 0.193482
3705.61, 0.194071
3708.27, 0.194561
3710.92, 0.194904
3713.58, 0.195345
3716.24, 0.195738
3718.91, 0.196081
3721.58, 0.196522
3724.25, 0.196964
3726.93, 0.197356
3729.61, 0.197846
3732.29, 0.198287
3734.98, 0.198631
3737.67, 0.199023
3740.37, 0.199464
3743.07, 0.199906
3745.78, 0.200298
3748.49, 0.200690
3751.2, 0.201082
3753.91, 0.201475
3756.63, 0.201867
3759.36, 0.202210
3762.09, 0.202651
3764.82, 0.203142
3767.55, 0.203681
3770.29, 0.204122
3773.04, 0.204417
3775.78, 0.204858
3778.54, 0.205299
3781.29, 0.205593
3784.05, 0.206035
3786.82, 0.206476
3789.59, 0.206868
3792.36, 0.207309
3795.13, 0.207653
3797.92, 0.208143
3800.7, 0.208535
3803.49, 0.208878
3806.28, 0.209271
3809.08, 0.209614
3811.88, 0.209957
3814.68, 0.210300
3817.49, 0.210644
3820.31, 0.211036
3823.12, 0.211428
3825.94, 0.211771
3828.77, 0.212164
3831.6, 0.212507
3834.43, 0.212801
3837.27, 0.213144
3840.11, 0.213586
3842.96, 0.214027
3845.81, 0.214370
3848.67, 0.214664
3851.53, 0.215057
3854.39, 0.215400
3857.26, 0.215694
3860.13, 0.216086
3863.01, 0.216528
3865.89, 0.216920
3868.77, 0.217263
3871.66, 0.217655
3874.55, 0.217950
3877.45, 0.218146
3880.35, 0.218489
3883.26, 0.218930
3886.17, 0.219322
3889.09, 0.219568
3892.01, 0.219862
3894.93, 0.220254
3897.86, 0.220548
3900.79, 0.220940
3903.73, 0.221284
3906.67, 0.221529
3909.62, 0.221774
3912.57, 0.221970
3915.52, 0.222264
3918.48, 0.222608
3921.45, 0.222853
3924.42, 0.223049
3927.39, 0.223343
3930.37, 0.223686
3933.35, 0.224030
3936.34, 0.224177
3939.33, 0.224324
3942.32, 0.224716
3945.32, 0.224961
3948.33, 0.225059
3951.34, 0.225255
3954.35, 0.225550
3957.37, 0.225648
3960.39, 0.225893
3963.42, 0.226187
3966.45, 0.226334
3969.49, 0.226481
3972.53, 0.226775
3975.58, 0.227021
3978.63, 0.227217
3981.68, 0.227364
3984.75, 0.227658
3987.81, 0.227854
3990.88, 0.228001
3993.95, 0.228246
3997.03, 0.228393
4000.12, 0.228639
4003.21, 0.228933
4006.3, 0.229031
4009.4, 0.229129
4012.5, 0.229374
4015.61, 0.229619
4018.72, 0.229717
4021.84, 0.229766
4024.96, 0.229913
4028.09, 0.230061
4031.22, 0.230208
4034.36, 0.230355
4037.5, 0.230453
4040.65, 0.230502
4043.8, 0.230600
4046.96, 0.230698
4050.12, 0.230796
4053.29, 0.230845
4056.46, 0.230894
4059.64, 0.230845
4062.82, 0.230894
4066.0, 0.230894
4069.19, 0.230943
4072.39, 0.230992
4075.59, 0.230992
4078.8, 0.230943
4082.01, 0.230943
4085.23, 0.230894
4088.45, 0.230894
4091.68, 0.230894
4094.91, 0.230894
4098.15, 0.230845
4101.39, 0.230796
4104.63, 0.230845
4107.89, 0.230845
4111.14, 0.230698
4114.41, 0.230698
4117.67, 0.230698
4120.95, 0.230551
4124.23, 0.230453
4127.51, 0.230404
4130.8, 0.230453
4134.09, 0.230355
4137.39, 0.230257
4140.7, 0.230110
4144.01, 0.230012
4147.32, 0.230012
4150.64, 0.229913
4153.97, 0.229766
4157.3, 0.229717
4160.64, 0.229668
4163.98, 0.229619
4167.33, 0.229472
4170.68, 0.229374
4174.04, 0.229276
4177.4, 0.229178
4180.77, 0.229129
4184.14, 0.228884
4187.52, 0.228639
4190.91, 0.228590
4194.3, 0.228541
4197.69, 0.228393
4201.1, 0.228246
4204.5, 0.228050
4207.92, 0.227952
4211.34, 0.227756
4214.76, 0.227511
4218.19, 0.227315
4221.62, 0.227119
4225.06, 0.226922
4228.51, 0.226677
4231.96, 0.226530
4235.42, 0.226432
4238.88, 0.226334
4242.35, 0.226285
4245.83, 0.226285
4249.31, 0.226236
4252.79, 0.226236
4256.28, 0.226187
4259.78, 0.226040
4263.29, 0.225795
4266.79, 0.225599
4270.31, 0.225451
4273.83, 0.225255
4277.35, 0.225206
4280.89, 0.225108
4284.42, 0.225059
4287.97, 0.225108
4291.52, 0.225108
4295.07, 0.224961
4298.63, 0.224912
4302.2, 0.224912
4305.78, 0.224814
4309.35, 0.224716
4312.94, 0.224765
4316.53, 0.224765
4320.13, 0.224618
4323.73, 0.224520
4327.34, 0.224520
4330.96, 0.224569
4334.58, 0.224520
4338.21, 0.224471
4341.84, 0.224471
4345.48, 0.224422
4349.12, 0.224324
4352.77, 0.224275
4356.43, 0.224177
4360.1, 0.224226
4363.76, 0.224275
4367.44, 0.224177
4371.12, 0.224128
4374.81, 0.224128
4378.51, 0.223980
4382.21, 0.223980
4385.92, 0.224030
4389.63, 0.224030
4393.35, 0.223882
4397.08, 0.223980
4400.81, 0.223980
4404.55, 0.223882
4408.29, 0.223882
4412.04, 0.223931
4415.8, 0.223882
4419.57, 0.223833
4423.34, 0.223833
4427.12, 0.223833
4430.9, 0.223784
4434.69, 0.223833
4438.49, 0.223833
4442.29, 0.223833
4446.1, 0.223882
4449.92, 0.223980
4453.74, 0.223833
4457.57, 0.223833
4461.41, 0.223882
4465.25, 0.223882
4469.1, 0.223980
4472.95, 0.223980
4476.82, 0.224030
4480.69, 0.223980
4484.56, 0.223882
4488.44, 0.223833
4492.33, 0.223882
4496.23, 0.223980
4500.13, 0.224079
4504.04, 0.223980
4507.96, 0.223882
4511.88, 0.223882
4515.81, 0.223931
4519.75, 0.223931
4523.69, 0.223931
4527.65, 0.223882
4531.6, 0.223882
4535.57, 0.223931
4539.54, 0.223833
4543.52, 0.223784
4547.5, 0.223833
4551.5, 0.223735
4555.5, 0.223588
4559.5, 0.223539
4563.52, 0.223539
4567.54, 0.223539
4571.56, 0.223490
4575.6, 0.223392
4579.64, 0.223294
4583.69, 0.223245
4587.75, 0.223098
4591.81, 0.222853
4595.88, 0.222755
4599.96, 0.222755
4604.04, 0.222657
4608.14, 0.222510
4612.24, 0.222313
4616.34, 0.222264
4620.46, 0.222117
4624.58, 0.221970
4628.71, 0.221921
4632.84, 0.221774
4636.99, 0.221627
4641.14, 0.221627
4645.3, 0.221676
4649.47, 0.221627
4653.64, 0.221578
4657.82, 0.221529
4662.01, 0.221529
4666.21, 0.221529
4670.41, 0.221480
4674.62, 0.221431
4678.84, 0.221333
4683.07, 0.221235
4687.3, 0.221186
4691.54, 0.221137
4695.79, 0.221088
4700.05, 0.221088
4704.31, 0.220990
4708.59, 0.220793
4712.87, 0.220793
4717.15, 0.220695
4721.45, 0.220548
4725.76, 0.220450
4730.07, 0.220352
4734.39, 0.220156
4738.72, 0.220009
4743.05, 0.219911
4747.39, 0.219862
4751.75, 0.219764
4756.1, 0.219617
4760.47, 0.219420
4764.85, 0.219126
4769.23, 0.219077
4773.62, 0.218979
4778.02, 0.218783
4782.43, 0.218587
4786.85, 0.218391
4791.27, 0.218146
4795.7, 0.217851
4800.14, 0.217655
4804.59, 0.217508
4809.05, 0.217312
4813.51, 0.217067
4817.99, 0.216773
4822.47, 0.216528
4826.96, 0.216282
4831.46, 0.215988
4835.96, 0.215743
4840.48, 0.215400
4845.0, 0.215057
4849.54, 0.214762
4854.08, 0.214419
4858.63, 0.214076
4863.18, 0.213733
4867.75, 0.213438
4872.33, 0.213046
4876.91, 0.212654
4881.5, 0.212360
4886.1, 0.212017
4890.71, 0.211624
4895.33, 0.211232
4899.96, 0.210791
4904.59, 0.210349
4909.24, 0.209957
4913.89, 0.209565
4918.55, 0.209124
4923.22, 0.208633
4927.9, 0.208192
4932.59, 0.207751
4937.29, 0.207260
4942.0, 0.206770
4946.71, 0.206329
4951.44, 0.205838
4956.17, 0.205250
4960.91, 0.204662
4965.67, 0.204171
4970.43, 0.203681
4975.2, 0.203044
4979.98, 0.202504
4984.76, 0.201965
4989.56, 0.201377
4994.37, 0.200837
4999.18, 0.200298
5004.01, 0.199611
5008.84, 0.198974
5013.69, 0.198386
5018.54, 0.197797
5023.4, 0.197209
5028.28, 0.196571
5033.16, 0.195934
5038.05, 0.195296
5042.95, 0.194757
5047.86, 0.194169
5052.78, 0.193580
5057.71, 0.192992
5062.65, 0.192305
5067.6, 0.191668
5072.56, 0.191080
5077.53, 0.190442
5082.5, 0.189756
5087.49, 0.189118
5092.49, 0.188530
5097.5, 0.187991
5102.51, 0.187353
5107.54, 0.186667
5112.58, 0.186029
5117.62, 0.185343
5122.68, 0.184754
5127.75, 0.184117
5132.82, 0.183431
5137.91, 0.182793
5143.01, 0.182009
5148.12, 0.181224
5153.23, 0.180587
5158.36, 0.179753
5163.5, 0.178969
5168.65, 0.178282
5173.81, 0.177547
5178.98, 0.176811
5184.15, 0.175978
5189.34, 0.175242
5194.54, 0.174458
5199.75, 0.173624
5204.98, 0.172840
5210.21, 0.172006
5215.45, 0.171123
5220.7, 0.170339
5225.96, 0.169456
5231.23, 0.168525
5236.52, 0.167495
5241.81, 0.166563
5247.12, 0.165583
5252.44, 0.164455
5257.76, 0.163425
5263.1, 0.162396
5268.45, 0.161317
5273.81, 0.160189
5279.18, 0.159110
5284.56, 0.157885
5289.95, 0.156610
5295.36, 0.155433
5300.77, 0.154354
5306.2, 0.153129
5311.63, 0.151952
5317.08, 0.150873
5322.54, 0.149794
5328.01, 0.148765
5333.49, 0.147637
5338.98, 0.146607
5344.49, 0.145578
5350.0, 0.144646
5355.53, 0.143959
5361.07, 0.143224
5366.62, 0.142390
5372.18, 0.141557
5377.75, 0.140772
5383.34, 0.140037
5388.93, 0.139252
5394.54, 0.138517
5400.16, 0.137781
5405.79, 0.137046
5411.44, 0.136310
5417.09, 0.135477
5422.76, 0.134741
5428.43, 0.134300
5434.12, 0.133663
5439.83, 0.132927
5445.54, 0.132241
5451.26, 0.131505
5457.0, 0.130770
5462.75, 0.129985
5468.52, 0.129348
5474.29, 0.128808
5480.08, 0.128171
5485.88, 0.127681
5491.69, 0.127141
5497.51, 0.126651
5503.35, 0.126161
5509.2, 0.125621
5515.06, 0.124984
5520.93, 0.124444
5526.82, 0.123954
5532.71, 0.123513
5538.63, 0.122974
5544.55, 0.122532
5550.49, 0.122042
5556.44, 0.121601
5562.4, 0.121159
5568.37, 0.120816
5574.36, 0.120277
5580.36, 0.119835
5586.37, 0.119688
5592.4, 0.119492
5598.44, 0.119100
5604.49, 0.118855
5610.56, 0.118659
5616.63, 0.118512
5622.73, 0.118364
5628.83, 0.118119
5634.95, 0.117776
5641.08, 0.117335
5647.23, 0.117188
5653.39, 0.116943
5659.56, 0.116795
5665.74, 0.116697
5671.94, 0.116256
5678.15, 0.115913
5684.38, 0.115570
5690.62, 0.115128
5696.87, 0.114834
5703.14, 0.114344
5709.42, 0.113657
5715.72, 0.113265
5722.03, 0.112971
5728.35, 0.112579
5734.69, 0.112039
5741.03, 0.111451
5747.4, 0.110813
5753.78, 0.110323
5760.17, 0.109342
5766.58, 0.108362
5773.0, 0.108117
5779.44, 0.107724
5785.88, 0.107087
5792.35, 0.106548
5798.83, 0.105910
5805.32, 0.105273
5811.83, 0.104488
5818.35, 0.103459
5824.89, 0.102772
5831.45, 0.102429
5838.01, 0.101939
5844.59, 0.101399
5851.19, 0.100664
5857.8, 0.0998790
5864.43, 0.0991440
5871.07, 0.0984570
5877.73, 0.0972310
5884.4, 0.0964470
5891.09, 0.0959080
5897.79, 0.0951720
5904.5, 0.0949760
5911.23, 0.0944370
5917.98, 0.0937500
5924.75, 0.0931130
5931.53, 0.0920830
5938.32, 0.0914460
5945.13, 0.0915440
5951.96, 0.0913480
5958.8, 0.0911020
5965.65, 0.0906120
5972.53, 0.0904650
5979.42, 0.0905140
5986.32, 0.0902690
5993.24, 0.0903180
6000.18, 0.0904650
6007.13, 0.0904650
6014.1, 0.0905140
6021.08, 0.0907100
6028.09, 0.0909060
6035.1, 0.0911020
6042.14, 0.0908080
6049.19, 0.0906610
6056.25, 0.0917400
6063.34, 0.0926710
6070.44, 0.0929660
6077.55, 0.0937500
6084.69, 0.0948780
6091.84, 0.0958590
6099.0, 0.0967900
6106.19, 0.0975750
6113.39, 0.0985060
6120.61, 0.100173
6127.84, 0.101742
6135.09, 0.103066
6142.36, 0.104488
6149.65, 0.106008
6156.95, 0.107430
6164.27, 0.108852
6171.61, 0.110372
6178.97, 0.111500
6186.34, 0.112677
6193.73, 0.114442
6201.14, 0.115864
6208.57, 0.116992
6216.01, 0.118021
6223.47, 0.119051
6230.95, 0.119983
6238.45, 0.120767
6245.97, 0.121503
6253.5, 0.122189
6261.06, 0.122728
6268.63, 0.123317
6276.21, 0.123758
6283.82, 0.124150
6291.45, 0.124543
6299.1, 0.124837
6306.76, 0.124935
6314.44, 0.124984
6322.14, 0.125033
6329.86, 0.124984
6337.6, 0.124444
6345.35, 0.123954
6353.13, 0.124248
6360.92, 0.123954
6368.74, 0.123170
6376.57, 0.122777
6384.43, 0.122336
6392.3, 0.121699
6400.19, 0.120816
6408.1, 0.119149
6416.03, 0.117972
6423.98, 0.117923
6431.95, 0.117335
6439.94, 0.116550
6447.95, 0.115717
6455.98, 0.114785
6464.03, 0.113706
6472.1, 0.112432
6480.19, 0.111010
6488.31, 0.109392
6496.44, 0.108215
6504.59, 0.107773
6512.76, 0.106793
6520.95, 0.105469
6529.16, 0.104488
6537.4, 0.103459
6545.65, 0.102282
6553.92, 0.101154
6562.22, 0.100026
6570.54, 0.0987020
6578.88, 0.0979180
6587.23, 0.0970840
6595.61, 0.0962020
6604.02, 0.0953680
6612.44, 0.0944370
6620.89, 0.0934560
6629.35, 0.0921810
6637.84, 0.0910040
6646.35, 0.0906120
6654.88, 0.0901710
6663.44, 0.0892880
6672.01, 0.0884060
6680.61, 0.0875720
6689.23, 0.0868860
6697.88, 0.0862480
6706.54, 0.0854150
6715.23, 0.0847280
6723.94, 0.0841400
6732.67, 0.0836490
6741.42, 0.0830610
6750.2, 0.0823750
6759.0, 0.0818350
6767.82, 0.0813450
6776.67, 0.0806580
6785.54, 0.0798740
6794.44, 0.0794330
6803.35, 0.0792860
6812.29, 0.0788930
6821.26, 0.0784520
6830.24, 0.0781580
6839.25, 0.0779130
6848.29, 0.0775200
6857.35, 0.0768340
6866.43, 0.0764420
6875.54, 0.0765400
6884.67, 0.0763930
6893.82, 0.0761970
6903.0, 0.0760490
6912.2, 0.0760980
6921.43, 0.0761970
6930.69, 0.0763440
6939.96, 0.0762460
6949.27, 0.0759020
6958.59, 0.0755100
6967.95, 0.0753630
6977.33, 0.0751180
6986.73, 0.0745780
6996.16, 0.0739900
7005.61, 0.0735490
7015.09, 0.0730090
7024.6, 0.0723230
7034.13, 0.0715870
7043.69, 0.0708030
7053.27, 0.0703620
7062.88, 0.0700180
7072.52, 0.0695280
7082.18, 0.0691360
7091.87, 0.0687930
7101.58, 0.0685960
7111.32, 0.0686460
7121.09, 0.0688910
7130.88, 0.0691360
7140.71, 0.0691360
7150.56, 0.0692830
7160.43, 0.0695280
7170.33, 0.0695770
7180.27, 0.0696750
7190.23, 0.0697730
7200.21, 0.0698220
7210.23, 0.0699200
7220.27, 0.0702150
7230.34, 0.0704110
7240.44, 0.0706070
7250.56, 0.0707540
7260.72, 0.0710480
7270.9, 0.0712930
7281.12, 0.0715870
7291.36, 0.0718820
7301.63, 0.0721760
7311.93, 0.0724700
7322.25, 0.0728130
7332.61, 0.0731070
7343.0, 0.0734020
7353.41, 0.0737450
7363.86, 0.0739900
7374.33, 0.0741860
7384.83, 0.0744800
7395.37, 0.0746770
7405.93, 0.0748240
7416.53, 0.0749220
7427.15, 0.0750690
7437.81, 0.0751670
7448.5, 0.0751670
7459.22, 0.0751180
7469.96, 0.0751180
7480.74, 0.0750690
7491.55, 0.0749220
7502.39, 0.0748240
7513.27, 0.0747750
7524.17, 0.0746770
7535.11, 0.0744310
7546.08, 0.0741860
7557.08, 0.0739410
7568.11, 0.0736470
7579.17, 0.0733040
7590.27, 0.0730090
7601.4, 0.0728130
7612.56, 0.0725190
7623.76, 0.0721270
7634.98, 0.0718330
7646.24, 0.0716360
7657.54, 0.0713910
7668.87, 0.0709990
7680.23, 0.0705580
7691.62, 0.0700670
7703.05, 0.0696260
7714.51, 0.0691360
7726.01, 0.0684490
7737.54, 0.0677630
7749.11, 0.0671750
7760.71, 0.0665860
7772.35, 0.0658510
7784.02, 0.0651640
7795.72, 0.0645270
7807.46, 0.0638400
7819.23, 0.0630560
7831.04, 0.0621730
7842.89, 0.0613400
7854.77, 0.0605550
7866.69, 0.0599670
7878.65, 0.0595250
7890.64, 0.0590840
7902.67, 0.0586920
7914.74, 0.0583490
7926.84, 0.0579070
7938.98, 0.0572210
7951.16, 0.0562890
7963.37, 0.0553090
7975.62, 0.0543770
7987.91, 0.0534450
8000.24, 0.0523180
8012.6, 0.0513860
8025.01, 0.0507000
8037.45, 0.0500130
8049.93, 0.0495230
8062.45, 0.0490330
8075.01, 0.0483950
8087.61, 0.0477090
8100.24, 0.0471200
8112.91, 0.0465320
8125.63, 0.0457960
8138.39, 0.0449630
8151.18, 0.0439820
8164.02, 0.0431000
8176.9, 0.0422170
8189.81, 0.0411870
8202.77, 0.0402070
8215.77, 0.0392750
8228.82, 0.0383430
8241.9, 0.0374120
8255.02, 0.0365290
8268.19, 0.0355490
8281.39, 0.0345680
8294.65, 0.0336850
8307.94, 0.0328030
8321.28, 0.0317730
8334.66, 0.0307430
8348.08, 0.0297140
8361.54, 0.0287820
8375.05, 0.0278990
8388.6, 0.0269680
8402.2, 0.0260360
8415.84, 0.0250560
8429.52, 0.0240750
8443.25, 0.0231920
8457.02, 0.0222610
8470.84, 0.0212310
8484.7, 0.0202990
8498.61, 0.0195150
8512.57, 0.0186810
8526.57, 0.0178970
8540.62, 0.0170630
8554.71, 0.0163280
8568.85, 0.0155920
8583.04, 0.0148570
8597.27, 0.0142680
8611.55, 0.0136800
8625.88, 0.0130430
8640.26, 0.0124050
8654.68, 0.0118170
8669.16, 0.0113270
8683.68, 0.0108360
8698.25, 0.0103460
8712.87, 0.00990500
8727.53, 0.00951200
8742.25, 0.00902200
8757.02, 0.00858100
8771.83, 0.00818800
8786.7, 0.00774700
8801.62, 0.00740400
8816.59, 0.00706100
8831.61, 0.00676600
8846.68, 0.00647200
8861.8, 0.00608000
8876.97, 0.00573700
8892.2, 0.00544300
8907.48, 0.00519700
8922.81, 0.00500100
8938.2, 0.00480500
8953.63, 0.00446200
8969.13, 0.00426600
8984.67, 0.00411900
9000.27, 0.00392300
9015.92, 0.00367700
9031.63, 0.00353000
9047.39, 0.00338300
9063.21, 0.00323600
9079.08, 0.00299100
9095.01, 0.00279500
9111.0, 0.00255000
9127.04, 0.00240300
9143.13, 0.00230500
9159.28, 0.00235400
9175.49, 0.00235400
9191.76, 0.00220600
9208.09, 0.00215700
9224.47, 0.00245200
9240.92, 0.00259900
9257.42, 0.00259900
9273.98, 0.00264800
9290.6, 0.00294200
9307.28, 0.00318700
9324.02, 0.00357900
9340.82, 0.00411900
9357.68, 0.00475600
9374.6, 0.00544300
9391.58, 0.00627600
9408.62, 0.00701200
9425.73, 0.00799200
9442.9, 0.00916900
9460.13, 0.0105420
9477.42, 0.0119640
9494.78, 0.0133860
9512.2, 0.0145140
9529.69, 0.0156410
9547.24, 0.0166710
9564.86, 0.0176030
9582.54, 0.0181420
9600.28, 0.0184850
9618.1, 0.0187300
9635.97, 0.0191720
9653.92, 0.0199070
9671.93, 0.0205450
9690.01, 0.0211820
9708.16, 0.0221140
9726.37, 0.0229960
9744.65, 0.0237320
9763.0, 0.0245160
9781.43, 0.0254970
9799.92, 0.0263300
9818.48, 0.0270660
9837.1, 0.0278990
9855.8, 0.0288800
9874.58, 0.0299590
9893.42, 0.0314300
9912.34, 0.0332930
9931.33, 0.0350580
9950.39, 0.0367250
9969.52, 0.0387360
9988.74, 0.0407460
10008.0, 0.0427560
10027.4, 0.0444230
10046.8, 0.0458940
10066.3, 0.0473650
10085.9, 0.0485910
10105.6, 0.0493270
10125.3, 0.0498660
10145.1, 0.0502090
10165.0, 0.0504540
10185.0, 0.0504540
10205.0, 0.0501110
10225.2, 0.0497190
10245.4, 0.0494740
10265.7, 0.0492780
10286.0, 0.0490820
10306.5, 0.0486400
10327.0, 0.0481990
10347.6, 0.0480030
10368.3, 0.0477580
10389.1, 0.0475120
10409.9, 0.0476600
10430.9, 0.0478070
10451.9, 0.0478560
10473.0, 0.0480030
10494.2, 0.0481990
10515.5, 0.0482480
10536.9, 0.0480520
10558.4, 0.0478070
10579.9, 0.0476110
10601.5, 0.0471690
10623.3, 0.0468260
10645.1, 0.0464830
10667.0, 0.0461890
10689.0, 0.0456490
10711.1, 0.0452080
10733.2, 0.0448650
10755.5, 0.0447180
10777.9, 0.0442760
10800.3, 0.0436390
10822.9, 0.0431490
10845.5, 0.0428050
10868.2, 0.0423640
10891.1, 0.0417760
10914.0, 0.0411870
10937.0, 0.0407950
10960.2, 0.0401090
10983.4, 0.0393730
11006.7, 0.0386380
11030.1, 0.0378040
11053.6, 0.0366270
11077.3, 0.0351070
11101.0, 0.0334890
11124.8, 0.0321160
11148.7, 0.0309890
11172.7, 0.0298610
11196.9, 0.0288310
11221.1, 0.0280470
11245.4, 0.0273110
11269.9, 0.0269680
11294.4, 0.0270170
11319.1, 0.0275560
11343.9, 0.0284390
11368.8, 0.0295180
11393.7, 0.0305960
11418.8, 0.0318220
11444.0, 0.0329010
11469.4, 0.0342740
11494.8, 0.0355490
11520.3, 0.0366270
11546.0, 0.0376080
11571.8, 0.0385890
11597.7, 0.0393730
11623.7, 0.0401580
11649.8, 0.0407460
11676.0, 0.0412360
11702.4, 0.0414820
11728.9, 0.0416290
11755.5, 0.0416780
11782.2, 0.0416780
11809.0, 0.0417270
11836.0, 0.0418740
11863.0, 0.0422660
11890.3, 0.0428050
11917.6, 0.0430510
11945.0, 0.0432470
11972.6, 0.0432960
12000.4, 0.0432960
12028.2, 0.0430510
12056.2, 0.0427070
12084.3, 0.0421680
12112.5, 0.0414320
12140.9, 0.0406970
12169.4, 0.0401090
12198.0, 0.0396180
12226.8, 0.0393240
12255.7, 0.0390300
12284.7, 0.0387850
12313.9, 0.0384410
12343.2, 0.0380000
12372.7, 0.0377060
12402.3, 0.0377550
12432.0, 0.0378040
12461.9, 0.0378040
12491.9, 0.0377550
12522.1, 0.0377550
12552.4, 0.0378530
12582.9, 0.0379020
12613.5, 0.0379510
12644.3, 0.0381470
12675.2, 0.0384910
12706.3, 0.0385890
12737.5, 0.0385400
12768.9, 0.0386380
12800.4, 0.0387360
12832.1, 0.0388340
12863.9, 0.0386380
12895.9, 0.0384910
12928.1, 0.0386870
12960.4, 0.0386870
12992.9, 0.0383920
13025.5, 0.0380000
13058.3, 0.0374610
13091.3, 0.0371180
13124.4, 0.0367740
13157.8, 0.0362840
13191.2, 0.0358920
13224.9, 0.0357450
13258.7, 0.0350580
13292.7, 0.0345680
13326.9, 0.0344210
13361.2, 0.0341760
13395.7, 0.0338320
13430.4, 0.0331460
13465.3, 0.0325090
13500.4, 0.0321160
13535.7, 0.0316260
13571.1, 0.0311850
13606.7, 0.0307430
13642.5, 0.0301550
13678.5, 0.0296650
13714.7, 0.0294200
13751.1, 0.0289780
13787.6, 0.0282430
13824.4, 0.0273600
13861.4, 0.0267720
13898.5, 0.0261830
13935.9, 0.0255950
13973.5, 0.0246140
14011.2, 0.0236830
14049.2, 0.0229470
14087.4, 0.0221140
14125.8, 0.0214760
14164.3, 0.0212310
14203.2, 0.0207410
14242.2, 0.0197110
14281.4, 0.0188780
14320.9, 0.0180930
14360.5, 0.0172100
14400.4, 0.0164750
14440.5, 0.0159360
14480.9, 0.0154450
14521.4, 0.0143670
14562.2, 0.0135330
14603.3, 0.0132880
14644.5, 0.0126990
14686.0, 0.0119150
14727.7, 0.0114740
14769.7, 0.0110320
14811.9, 0.0105910
14854.3, 0.0101990
14897.0, 0.0100520
14939.9, 0.00961000
14983.1, 0.00921800
15026.5, 0.00912000
15070.2, 0.00921800
15114.2, 0.00872800
15158.3, 0.00863000
15202.8, 0.00877700
15247.5, 0.00848300
15292.5, 0.00774700
15337.7, 0.00764900
15383.2, 0.00789400
15429.0, 0.00779600
15475.1, 0.00735500
15521.4, 0.00745300
15568.0, 0.00789400
15614.9, 0.00784500
15662.1, 0.00764900
15709.6, 0.00774700
15757.3, 0.00784500
15805.4, 0.00799200
15853.7, 0.00789400
15902.3, 0.00813900
15951.2, 0.00892400
16000.5, 0.00995400
16050.0, 0.0109340
16099.8, 0.0124050
16150.0, 0.0138270
16200.5, 0.0146120
16251.3, 0.0146610
16302.4, 0.0150530
16353.8, 0.0149060
16405.5, 0.0146120
16457.6, 0.0147100
16510.0, 0.0150530
16562.8, 0.0148570
16615.9, 0.0148570
16669.3, 0.0150530
16723.1, 0.0156410
16777.2, 0.0156900
16831.7, 0.0162300
16886.5, 0.0166710
16941.7, 0.0170630
16997.2, 0.0173080
17053.1, 0.0179950
17109.4, 0.0189760
17166.1, 0.0199070
17223.1, 0.0206920
17280.5, 0.0216720
17338.3, 0.0228490
17396.5, 0.0239770
17455.1, 0.0253500
17514.0, 0.0268210
17573.4, 0.0276050
17633.2, 0.0297630
17693.4, 0.0314300
17754.0, 0.0320670
17815.0, 0.0323610
17876.4, 0.0332440
17938.3, 0.0335870
18000.5, 0.0341760
18063.3, 0.0350580
18126.4, 0.0345190
18190.0, 0.0338810
18254.1, 0.0342740
18318.6, 0.0341760
18383.5, 0.0338810
18449.0, 0.0337340
18514.9, 0.0329010
18581.2, 0.0319690
18648.0, 0.0316260
18715.4, 0.0308410
18783.2, 0.0299100
18851.5, 0.0288800
18920.3, 0.0289780
18989.6, 0.0295180
19059.4, 0.0306450
19129.7, 0.0308900
19200.6, 0.0322140
19272.0, 0.0349600
19343.9, 0.0367740
19416.3, 0.0393730
19489.3, 0.0424130
19562.8, 0.0436880
19637.0, 0.0457960
19711.6, 0.0486400
19786.8, 0.0503560
19862.6, 0.0512880
19939.0, 0.0526610
20016.0, 0.0527590
20093.6, 0.0522690
20171.8, 0.0519740
20250.6, 0.0528080
20330.0, 0.0545240
20410.0, 0.0562400
20490.7, 0.0561910
20572.0, 0.0557010
20654.0, 0.0552600
20736.6, 0.0551620
20819.9, 0.0557010
20903.8, 0.0560930
20988.5, 0.0560930
21073.8, 0.0561420
21159.8, 0.0555050
21246.5, 0.0550140
21334.0, 0.0551620
21422.1, 0.0559950
21511.0, 0.0573680
21600.7, 0.0598200
21691.0, 0.0607020
21782.1, 0.0611930
21874.0, 0.0626640
21966.7, 0.0647230
22060.2, 0.0646740
22154.5, 0.0667330
22249.6, 0.0687440
22345.5, 0.0689890
22442.2, 0.0685470
22539.8, 0.0690380
22638.2, 0.0691360
22737.5, 0.0688420
22837.7, 0.0685960
22938.7, 0.0694790
23040.7, 0.0680570
23143.5, 0.0670760
23247.3, 0.0677630
23352.1, 0.0657530
23457.7, 0.0633500
23564.4, 0.0626150
23672.0, 0.0624180
23780.5, 0.0639870
23890.1, 0.0635460
24000.7, 0.0603100
24112.3, 0.0575150
24225.0, 0.0597710
24338.7, 0.0599180
24453.5, 0.0583490
24569.4, 0.0586430
24686.4, 0.0587900
