Database of Origin, USGS Spectral Database
Sample Description, See USGS database for additional info
Date Added,2016-08-03 20:59:41.749779

Data ID,USGS_and11          
Sample ID, andradite_nmnh113829.2274
Mineral Name, andradite
Material Class,Nesosilicate

Wavelength
1389.85, 0.836537
1390.23, 0.836269
1390.6, 0.836135
1390.97, 0.836068
1391.35, 0.836403
1391.72, 0.836604
1392.09, 0.836068
1392.47, 0.836671
1392.84, 0.836202
1393.21, 0.835867
1393.59, 0.836470
1393.96, 0.836805
1394.34, 0.836470
1394.71, 0.836068
1395.09, 0.834995
1395.46, 0.835531
1395.84, 0.836202
1396.22, 0.836470
1396.59, 0.836336
1396.97, 0.835330
1397.35, 0.834392
1397.72, 0.835196
1398.1, 0.835330
1398.48, 0.835263
1398.85, 0.834727
1399.23, 0.834057
1399.61, 0.833722
1399.99, 0.833654
1400.37, 0.834057
1400.74, 0.834325
1401.12, 0.833789
1401.5, 0.833520
1401.88, 0.833923
1402.26, 0.833520
1402.64, 0.833520
1403.02, 0.833386
1403.4, 0.833386
1403.78, 0.833386
1404.16, 0.833118
1404.54, 0.832850
1404.92, 0.832649
1405.3, 0.832582
1405.68, 0.832515
1406.06, 0.832314
1406.44, 0.832046
1406.83, 0.832314
1407.21, 0.832247
1407.59, 0.832582
1407.97, 0.832180
1408.35, 0.832381
1408.74, 0.832046
1409.12, 0.832180
1409.5, 0.831979
1409.89, 0.831710
1410.27, 0.831710
1410.65, 0.831509
1411.04, 0.830973
1411.42, 0.831107
1411.81, 0.831174
1412.19, 0.831375
1412.58, 0.830906
1412.96, 0.830705
1413.35, 0.830638
1413.73, 0.831107
1414.12, 0.831040
1414.5, 0.830772
1414.89, 0.830236
1415.28, 0.830169
1415.66, 0.829833
1416.05, 0.829498
1416.44, 0.829431
1416.82, 0.829565
1417.21, 0.829364
1417.6, 0.829565
1417.98, 0.829230
1418.37, 0.828761
1418.76, 0.828694
1419.15, 0.828694
1419.54, 0.828694
1419.93, 0.829163
1420.32, 0.828895
1420.71, 0.828828
1421.09, 0.828426
1421.48, 0.828895
1421.88, 0.828761
1422.27, 0.828359
1422.66, 0.828560
1423.05, 0.827956
1423.44, 0.827487
1423.83, 0.827688
1424.22, 0.827621
1424.61, 0.827420
1425.0, 0.827487
1425.39, 0.827085
1425.78, 0.826750
1426.18, 0.826884
1426.57, 0.827152
1426.96, 0.826683
1427.36, 0.826281
1427.75, 0.826482
1428.14, 0.826549
1428.54, 0.826482
1428.93, 0.826214
1429.32, 0.826214
1429.72, 0.826214
1430.11, 0.826281
1430.51, 0.825945
1430.9, 0.826012
1431.3, 0.825878
1431.69, 0.826079
1432.09, 0.826079
1432.48, 0.826146
1432.88, 0.825945
1433.28, 0.825476
1433.67, 0.825275
1434.07, 0.824538
1434.46, 0.824202
1434.86, 0.824672
1435.26, 0.824873
1435.66, 0.824672
1436.05, 0.824538
1436.45, 0.824538
1436.85, 0.824269
1437.25, 0.824269
1437.65, 0.824001
1438.05, 0.824135
1438.44, 0.823532
1438.84, 0.823465
1439.24, 0.823867
1439.64, 0.823867
1440.04, 0.823666
1440.44, 0.823465
1440.84, 0.823197
1441.24, 0.823063
1441.65, 0.822996
1442.05, 0.823197
1442.45, 0.823331
1442.85, 0.823264
1443.25, 0.823264
1443.65, 0.823264
1444.05, 0.823063
1444.46, 0.822795
1444.86, 0.822527
1445.26, 0.822325
1445.67, 0.822258
1446.07, 0.822929
1446.47, 0.822795
1446.88, 0.823264
1447.28, 0.822996
1447.68, 0.822594
1448.09, 0.822258
1448.49, 0.822392
1448.9, 0.822057
1449.3, 0.821856
1449.71, 0.821655
1450.11, 0.821789
1450.52, 0.821521
1450.93, 0.821253
1451.33, 0.821521
1451.74, 0.821789
1452.14, 0.821588
1452.55, 0.821387
1452.96, 0.821454
1453.36, 0.821521
1453.77, 0.821454
1454.18, 0.821789
1454.59, 0.821722
1455.0, 0.821655
1455.41, 0.821588
1455.81, 0.821789
1456.22, 0.821454
1456.63, 0.820985
1457.04, 0.821052
1457.45, 0.821119
1457.86, 0.820717
1458.27, 0.820918
1458.68, 0.820650
1459.09, 0.820247
1459.5, 0.820918
1459.91, 0.820851
1460.32, 0.820448
1460.74, 0.820650
1461.15, 0.820515
1461.56, 0.820515
1461.97, 0.820247
1462.39, 0.819979
1462.8, 0.820314
1463.21, 0.820515
1463.62, 0.820784
1464.04, 0.820583
1464.45, 0.819912
1464.86, 0.820180
1465.28, 0.819845
1465.69, 0.819778
1466.11, 0.819778
1466.52, 0.819845
1466.94, 0.819778
1467.35, 0.819778
1467.77, 0.819577
1468.18, 0.819778
1468.6, 0.819309
1469.02, 0.819644
1469.43, 0.819443
1469.85, 0.819577
1470.27, 0.819778
1470.68, 0.819778
1471.1, 0.819845
1471.52, 0.819711
1471.94, 0.819108
1472.35, 0.818974
1472.77, 0.819041
1473.19, 0.819309
1473.61, 0.819175
1474.03, 0.818974
1474.45, 0.818907
1474.87, 0.819376
1475.29, 0.819242
1475.71, 0.819108
1476.13, 0.819443
1476.55, 0.819242
1476.97, 0.818840
1477.39, 0.818907
1477.81, 0.819041
1478.23, 0.819376
1478.65, 0.819108
1479.07, 0.818773
1479.5, 0.818907
1479.92, 0.818974
1480.34, 0.819242
1480.76, 0.819577
1481.19, 0.819309
1481.61, 0.819443
1482.03, 0.819510
1482.46, 0.819175
1482.88, 0.818571
1483.31, 0.818639
1483.73, 0.818639
1484.16, 0.818437
1484.58, 0.818571
1485.01, 0.818840
1485.43, 0.818571
1485.86, 0.818705
1486.28, 0.818639
1486.71, 0.819041
1487.14, 0.818705
1487.56, 0.818840
1487.99, 0.818907
1488.42, 0.818974
1488.84, 0.819309
1489.27, 0.819242
1489.7, 0.819309
1490.13, 0.819778
1490.56, 0.819443
1490.98, 0.818907
1491.41, 0.818504
1491.84, 0.818840
1492.27, 0.819108
1492.7, 0.818773
1493.13, 0.818504
1493.56, 0.819041
1493.99, 0.819443
1494.42, 0.819309
1494.85, 0.818974
1495.29, 0.819108
1495.72, 0.819376
1496.15, 0.819577
1496.58, 0.819443
1497.01, 0.819644
1497.44, 0.819376
1497.88, 0.819108
1498.31, 0.819108
1498.74, 0.819175
1499.18, 0.819644
1499.61, 0.820180
1500.04, 0.820381
1500.48, 0.820113
1500.91, 0.819443
1501.35, 0.819845
1501.78, 0.820180
1502.22, 0.820046
1502.65, 0.819577
1503.09, 0.819242
1503.53, 0.819443
1503.96, 0.819711
1504.4, 0.819041
1504.83, 0.819443
1505.27, 0.819510
1505.71, 0.819376
1506.15, 0.819443
1506.58, 0.819912
1507.02, 0.819711
1507.46, 0.819845
1507.9, 0.819443
1508.34, 0.819577
1508.78, 0.819577
1509.21, 0.819711
1509.66, 0.819443
1510.09, 0.819644
1510.53, 0.819510
1510.97, 0.819778
1511.42, 0.819912
1511.86, 0.819644
1512.3, 0.819242
1512.74, 0.819644
1513.18, 0.819845
1513.62, 0.820180
1514.06, 0.819912
1514.51, 0.819711
1514.95, 0.819644
1515.39, 0.819644
1515.83, 0.819443
1516.28, 0.819309
1516.72, 0.819577
1517.16, 0.819845
1517.61, 0.819577
1518.05, 0.819845
1518.5, 0.820046
1518.94, 0.819912
1519.39, 0.819376
1519.83, 0.819644
1520.28, 0.819577
1520.73, 0.819912
1521.17, 0.819845
1521.62, 0.819644
1522.07, 0.819376
1522.51, 0.819845
1522.96, 0.819979
1523.41, 0.819778
1523.85, 0.820046
1524.3, 0.819845
1524.75, 0.819711
1525.2, 0.819510
1525.65, 0.819242
1526.1, 0.819845
1526.55, 0.819912
1527.0, 0.819845
1527.45, 0.819845
1527.9, 0.820113
1528.35, 0.820314
1528.8, 0.820046
1529.25, 0.819778
1529.7, 0.820247
1530.15, 0.820247
1530.6, 0.819979
1531.05, 0.820113
1531.51, 0.820046
1531.96, 0.819577
1532.41, 0.819979
1532.87, 0.820113
1533.32, 0.819979
1533.77, 0.819711
1534.23, 0.819711
1534.68, 0.819845
1535.14, 0.820180
1535.59, 0.820180
1536.05, 0.820113
1536.5, 0.820448
1536.96, 0.820717
1537.41, 0.820985
1537.87, 0.821052
1538.32, 0.820985
1538.78, 0.821186
1539.24, 0.821655
1539.7, 0.821588
1540.15, 0.821521
1540.61, 0.821722
1541.07, 0.821789
1541.53, 0.821789
1541.98, 0.821253
1542.44, 0.821119
1542.9, 0.821521
1543.36, 0.821990
1543.82, 0.821789
1544.28, 0.821789
1544.74, 0.821655
1545.2, 0.821923
1545.66, 0.822057
1546.12, 0.821990
1546.59, 0.822057
1547.05, 0.822057
1547.51, 0.822325
1547.97, 0.822191
1548.43, 0.822191
1548.9, 0.822661
1549.36, 0.822661
1549.82, 0.822728
1550.29, 0.822460
1550.75, 0.822929
1551.21, 0.822929
1551.68, 0.823063
1552.14, 0.823532
1552.61, 0.823666
1553.07, 0.823465
1553.54, 0.823465
1554.0, 0.823465
1554.47, 0.823465
1554.93, 0.823733
1555.4, 0.823867
1555.87, 0.823934
1556.34, 0.823934
1556.8, 0.824337
1557.27, 0.824806
1557.74, 0.824269
1558.21, 0.824001
1558.68, 0.824068
1559.14, 0.824269
1559.61, 0.824538
1560.08, 0.824873
1560.55, 0.824739
1561.02, 0.824940
1561.49, 0.825141
1561.96, 0.825007
1562.43, 0.824806
1562.9, 0.825074
1563.38, 0.825007
1563.85, 0.825007
1564.32, 0.824806
1564.79, 0.825275
1565.26, 0.825141
1565.74, 0.825476
1566.21, 0.825543
1566.68, 0.825342
1567.16, 0.825208
1567.63, 0.825744
1568.1, 0.826012
1568.58, 0.825945
1569.05, 0.825811
1569.53, 0.825811
1570.0, 0.825811
1570.48, 0.825878
1570.96, 0.825677
1571.43, 0.825945
1571.91, 0.826079
1572.39, 0.826214
1572.86, 0.826079
1573.34, 0.826012
1573.82, 0.825878
1574.3, 0.826214
1574.77, 0.825945
1575.25, 0.825945
1575.73, 0.826415
1576.21, 0.826549
1576.69, 0.826281
1577.17, 0.826146
1577.65, 0.826348
1578.13, 0.826616
1578.61, 0.826348
1579.09, 0.826549
1579.57, 0.826549
1580.05, 0.826683
1580.54, 0.826683
1581.02, 0.826884
1581.5, 0.826951
1581.98, 0.827085
1582.47, 0.827286
1582.95, 0.827353
1583.43, 0.826951
1583.92, 0.826817
1584.4, 0.826884
1584.88, 0.827286
1585.37, 0.827822
1585.85, 0.827621
1586.34, 0.827554
1586.82, 0.827487
1587.31, 0.827353
1587.8, 0.827822
1588.28, 0.827621
1588.77, 0.827353
1589.26, 0.827487
1589.74, 0.827621
1590.23, 0.827554
1590.72, 0.827621
1591.21, 0.827286
1591.7, 0.827353
1592.19, 0.827554
1592.67, 0.828091
1593.16, 0.828091
1593.65, 0.827889
1594.14, 0.827956
1594.63, 0.828023
1595.12, 0.827956
1595.61, 0.828091
1596.11, 0.828426
1596.6, 0.828761
1597.09, 0.828627
1597.58, 0.828694
1598.08, 0.828828
1598.57, 0.828962
1599.06, 0.828694
1599.55, 0.828828
1600.05, 0.828962
1600.54, 0.829431
1601.04, 0.829096
1601.53, 0.829498
1602.03, 0.829632
1602.52, 0.829632
1603.02, 0.829498
1603.51, 0.829699
1604.01, 0.829901
1604.5, 0.830236
1605.0, 0.830035
1605.5, 0.830169
1606.0, 0.830370
1606.49, 0.830504
1606.99, 0.830236
1607.49, 0.830370
1607.99, 0.830571
1608.49, 0.830906
1608.99, 0.830906
1609.49, 0.830973
1609.99, 0.831040
1610.49, 0.831241
1610.99, 0.831040
1611.49, 0.831040
1611.99, 0.831174
1612.49, 0.831710
1612.99, 0.831777
1613.49, 0.831912
1614.0, 0.831710
1614.5, 0.831777
1615.0, 0.831912
1615.51, 0.832314
1616.01, 0.832582
1616.51, 0.832247
1617.02, 0.832046
1617.52, 0.832381
1618.03, 0.832247
1618.53, 0.832515
1619.04, 0.833051
1619.54, 0.832984
1620.05, 0.832984
1620.55, 0.833587
1621.06, 0.833654
1621.57, 0.833789
1622.08, 0.833654
1622.58, 0.833520
1623.09, 0.833789
1623.6, 0.833990
1624.11, 0.833789
1624.62, 0.833923
1625.13, 0.833789
1625.64, 0.833923
1626.15, 0.834191
1626.66, 0.834526
1627.17, 0.834526
1627.68, 0.834593
1628.19, 0.834459
1628.7, 0.834660
1629.21, 0.834392
1629.72, 0.834660
1630.24, 0.834660
1630.75, 0.834995
1631.26, 0.834995
1631.78, 0.835129
1632.29, 0.835263
1632.8, 0.835196
1633.32, 0.835196
1633.83, 0.835196
1634.35, 0.835330
1634.86, 0.835531
1635.38, 0.835397
1635.9, 0.835531
1636.41, 0.835598
1636.93, 0.835867
1637.45, 0.835733
1637.96, 0.835598
1638.48, 0.835666
1639.0, 0.836068
1639.52, 0.836135
1640.04, 0.836001
1640.56, 0.836068
1641.08, 0.836403
1641.59, 0.836068
1642.11, 0.835934
1642.63, 0.835934
1643.16, 0.835733
1643.68, 0.835733
1644.2, 0.836001
1644.72, 0.836336
1645.24, 0.836336
1645.76, 0.836537
1646.29, 0.836604
1646.81, 0.836403
1647.33, 0.836537
1647.86, 0.836939
1648.38, 0.837073
1648.9, 0.836403
1649.43, 0.836202
1649.95, 0.836537
1650.48, 0.836805
1651.0, 0.836604
1651.53, 0.836805
1652.06, 0.836738
1652.58, 0.836403
1653.11, 0.836470
1653.64, 0.836738
1654.17, 0.836537
1654.69, 0.836805
1655.22, 0.837140
1655.75, 0.836872
1656.28, 0.837006
1656.81, 0.836872
1657.34, 0.836671
1657.87, 0.836805
1658.4, 0.836872
1658.93, 0.836872
1659.46, 0.836939
1659.99, 0.837006
1660.52, 0.836872
1661.05, 0.837140
1661.59, 0.837274
1662.12, 0.837475
1662.65, 0.837677
1663.19, 0.837945
1663.72, 0.837811
1664.26, 0.837677
1664.79, 0.837610
1665.32, 0.837945
1665.86, 0.838012
1666.39, 0.838347
1666.93, 0.838414
1667.47, 0.838347
1668.0, 0.838146
1668.54, 0.838481
1669.08, 0.838615
1669.61, 0.838548
1670.15, 0.838548
1670.69, 0.838883
1671.23, 0.838883
1671.77, 0.838816
1672.31, 0.838682
1672.85, 0.839151
1673.39, 0.839151
1673.93, 0.839487
1674.47, 0.839353
1675.01, 0.839285
1675.55, 0.839151
1676.09, 0.839420
1676.64, 0.839420
1677.18, 0.839621
1677.72, 0.839755
1678.26, 0.839889
1678.81, 0.840023
1679.35, 0.840023
1679.89, 0.839688
1680.44, 0.839956
1680.98, 0.840090
1681.53, 0.840291
1682.07, 0.840358
1682.62, 0.840492
1683.17, 0.840291
1683.71, 0.840626
1684.26, 0.840693
1684.81, 0.840961
1685.36, 0.840961
1685.9, 0.841028
1686.45, 0.840894
1687.0, 0.840961
1687.55, 0.841162
1688.1, 0.841498
1688.65, 0.841363
1689.2, 0.841498
1689.75, 0.841699
1690.3, 0.841699
1690.85, 0.841699
1691.41, 0.841900
1691.96, 0.841967
1692.51, 0.842235
1693.06, 0.842302
1693.61, 0.842302
1694.17, 0.842168
1694.72, 0.842168
1695.28, 0.842369
1695.83, 0.842704
1696.39, 0.842905
1696.94, 0.842905
1697.5, 0.842771
1698.05, 0.843039
1698.61, 0.843308
1699.17, 0.842972
1699.72, 0.842637
1700.28, 0.842771
1700.84, 0.842972
1701.4, 0.843107
1701.95, 0.843509
1702.51, 0.843710
1703.07, 0.843241
1703.63, 0.843442
1704.19, 0.843442
1704.75, 0.843241
1705.31, 0.843308
1705.88, 0.843442
1706.44, 0.843576
1707.0, 0.843643
1707.56, 0.843442
1708.12, 0.843241
1708.69, 0.843442
1709.25, 0.843643
1709.81, 0.843777
1710.38, 0.843844
1710.94, 0.843643
1711.51, 0.843710
1712.07, 0.843710
1712.64, 0.843777
1713.2, 0.843442
1713.77, 0.843442
1714.34, 0.843643
1714.9, 0.843777
1715.47, 0.843710
1716.04, 0.843710
1716.61, 0.843710
1717.18, 0.843978
1717.74, 0.844179
1718.31, 0.844045
1718.88, 0.843844
1719.45, 0.843978
1720.02, 0.843978
1720.59, 0.844045
1721.17, 0.844179
1721.74, 0.843978
1722.31, 0.843710
1722.88, 0.843844
1723.45, 0.843978
1724.03, 0.844246
1724.6, 0.844380
1725.18, 0.844313
1725.75, 0.844313
1726.33, 0.844447
1726.9, 0.844179
1727.48, 0.844112
1728.05, 0.844112
1728.63, 0.844246
1729.2, 0.844246
1729.78, 0.844313
1730.36, 0.844313
1730.94, 0.844447
1731.51, 0.844380
1732.09, 0.844313
1732.67, 0.844313
1733.25, 0.844380
1733.83, 0.844313
1734.41, 0.844447
1734.99, 0.844581
1735.57, 0.844782
1736.15, 0.844916
1736.73, 0.845252
1737.32, 0.844983
1737.9, 0.844849
1738.48, 0.844782
1739.07, 0.844782
1739.65, 0.844916
1740.23, 0.845386
1740.82, 0.845453
1741.4, 0.845185
1741.99, 0.845051
1742.57, 0.845118
1743.16, 0.845185
1743.74, 0.845520
1744.33, 0.845453
1744.92, 0.845386
1745.51, 0.845319
1746.09, 0.845855
1746.68, 0.846190
1747.27, 0.846056
1747.86, 0.846056
1748.45, 0.846123
1749.04, 0.846056
1749.63, 0.846190
1750.22, 0.846257
1750.81, 0.846190
1751.4, 0.846056
1751.99, 0.846324
1752.59, 0.846592
1753.18, 0.846793
1753.77, 0.846793
1754.37, 0.846793
1754.96, 0.846726
1755.56, 0.846726
1756.15, 0.846659
1756.74, 0.846793
1757.34, 0.846995
1757.94, 0.847330
1758.53, 0.847464
1759.13, 0.847531
1759.73, 0.847531
1760.32, 0.847531
1760.92, 0.847598
1761.52, 0.847732
1762.12, 0.848067
1762.72, 0.848000
1763.32, 0.847866
1763.92, 0.848067
1764.52, 0.848335
1765.12, 0.848603
1765.72, 0.848402
1766.32, 0.848670
1766.92, 0.848804
1767.53, 0.848670
1768.13, 0.848737
1768.73, 0.849073
1769.34, 0.849140
1769.94, 0.849341
1770.55, 0.849341
1771.15, 0.849274
1771.76, 0.849140
1772.36, 0.849006
1772.97, 0.849341
1773.57, 0.849542
1774.18, 0.849475
1774.79, 0.849475
1775.4, 0.849676
1776.0, 0.850011
1776.61, 0.850078
1777.22, 0.850212
1777.83, 0.850145
1778.44, 0.850346
1779.05, 0.850279
1779.66, 0.850480
1780.27, 0.850413
1780.88, 0.850480
1781.5, 0.850279
1782.11, 0.850145
1782.72, 0.850145
1783.33, 0.850480
1783.95, 0.850749
1784.56, 0.850883
1785.18, 0.850682
1785.79, 0.850682
1786.41, 0.850547
1787.02, 0.850547
1787.64, 0.850615
1788.26, 0.850816
1788.87, 0.850816
1789.49, 0.850883
1790.11, 0.850883
1790.73, 0.850883
1791.35, 0.850749
1791.96, 0.850749
1792.58, 0.850682
1793.21, 0.850749
1793.83, 0.850816
1794.45, 0.850749
1795.07, 0.850749
1795.69, 0.850749
1796.31, 0.850615
1796.93, 0.850682
1797.56, 0.850749
1798.18, 0.850883
1798.8, 0.850615
1799.43, 0.850682
1800.05, 0.850816
1800.68, 0.850816
1801.3, 0.850413
1801.93, 0.850279
1802.56, 0.850346
1803.18, 0.850413
1803.81, 0.850547
1804.44, 0.850615
1805.07, 0.850615
1805.7, 0.850480
1806.33, 0.850615
1806.95, 0.850547
1807.58, 0.850413
1808.22, 0.850615
1808.85, 0.850615
1809.48, 0.850480
1810.11, 0.850547
1810.74, 0.850615
1811.38, 0.850279
1812.01, 0.850480
1812.64, 0.850749
1813.28, 0.850950
1813.91, 0.850682
1814.55, 0.850682
1815.18, 0.850883
1815.82, 0.850950
1816.45, 0.850816
1817.09, 0.850749
1817.73, 0.850816
1818.36, 0.850950
1819.0, 0.851084
1819.64, 0.851084
1820.28, 0.850749
1820.92, 0.850950
1821.56, 0.851017
1822.2, 0.851218
1822.84, 0.851352
1823.48, 0.851419
1824.12, 0.851218
1824.76, 0.851218
1825.41, 0.851285
1826.05, 0.851218
1826.69, 0.851151
1827.34, 0.851352
1827.98, 0.851486
1828.63, 0.851620
1829.27, 0.851553
1829.92, 0.851620
1830.56, 0.851486
1831.21, 0.851888
1831.86, 0.851821
1832.5, 0.851821
1833.15, 0.851955
1833.8, 0.852156
1834.45, 0.852022
1835.1, 0.851888
1835.75, 0.851620
1836.4, 0.851821
1837.05, 0.851955
1837.7, 0.852156
1838.35, 0.852357
1839.01, 0.852424
1839.66, 0.852223
1840.31, 0.852760
1840.96, 0.852424
1841.62, 0.852357
1842.27, 0.852894
1842.93, 0.853229
1843.58, 0.853095
1844.24, 0.853095
1844.9, 0.853028
1845.55, 0.853162
1846.21, 0.853028
1846.87, 0.853028
1847.53, 0.853296
1848.18, 0.853497
1848.84, 0.853698
1849.5, 0.853698
1850.16, 0.853698
1850.82, 0.853765
1851.48, 0.853832
1852.14, 0.853765
1852.81, 0.853832
1853.47, 0.853966
1854.13, 0.854167
1854.8, 0.854167
1855.46, 0.854100
1856.12, 0.854033
1856.79, 0.854100
1857.45, 0.854369
1858.12, 0.854234
1858.79, 0.854167
1859.45, 0.854033
1860.12, 0.854436
1860.79, 0.854570
1861.46, 0.854637
1862.12, 0.854436
1862.79, 0.854570
1863.46, 0.854570
1864.13, 0.854637
1864.8, 0.854704
1865.48, 0.854570
1866.15, 0.854771
1866.82, 0.854637
1867.49, 0.854436
1868.16, 0.854838
1868.84, 0.854704
1869.51, 0.854503
1870.19, 0.854234
1870.86, 0.854570
1871.54, 0.854905
1872.21, 0.854637
1872.89, 0.854301
1873.56, 0.854570
1874.24, 0.854436
1874.92, 0.854369
1875.6, 0.854637
1876.28, 0.854503
1876.96, 0.854369
1877.64, 0.854704
1878.32, 0.854570
1879.0, 0.854369
1879.68, 0.854234
1880.36, 0.854234
1881.04, 0.854301
1881.73, 0.854301
1882.41, 0.854369
1883.09, 0.854234
1883.78, 0.854033
1884.46, 0.854100
1885.15, 0.853966
1885.83, 0.853966
1886.52, 0.853832
1887.21, 0.853765
1887.89, 0.853765
1888.58, 0.853765
1889.27, 0.853430
1889.96, 0.853430
1890.65, 0.853497
1891.34, 0.853497
1892.03, 0.853430
1892.72, 0.853363
1893.41, 0.853229
1894.1, 0.853162
1894.79, 0.852961
1895.49, 0.853028
1896.18, 0.853162
1896.87, 0.852961
1897.57, 0.852827
1898.26, 0.852894
1898.96, 0.852625
1899.65, 0.852693
1900.35, 0.852760
1901.05, 0.852693
1901.74, 0.852491
1902.44, 0.852424
1903.14, 0.852693
1903.84, 0.852491
1904.54, 0.852089
1905.24, 0.851888
1905.94, 0.852156
1906.64, 0.852491
1907.34, 0.852491
1908.04, 0.852290
1908.75, 0.852156
1909.45, 0.852156
1910.15, 0.852089
1910.86, 0.852022
1911.56, 0.852156
1912.27, 0.852424
1912.97, 0.852290
1913.68, 0.852223
1914.39, 0.852156
1915.09, 0.852022
1915.8, 0.851955
1916.51, 0.852022
1917.22, 0.852156
1917.93, 0.852424
1918.64, 0.852290
1919.35, 0.852022
1920.06, 0.852022
1920.77, 0.852290
1921.48, 0.852223
1922.19, 0.852022
1922.91, 0.852089
1923.62, 0.852424
1924.33, 0.852424
1925.05, 0.852491
1925.76, 0.852424
1926.48, 0.852357
1927.19, 0.852625
1927.91, 0.852760
1928.63, 0.852760
1929.35, 0.852760
1930.07, 0.852693
1930.78, 0.852827
1931.5, 0.852827
1932.22, 0.852693
1932.94, 0.852760
1933.66, 0.852961
1934.39, 0.853162
1935.11, 0.853162
1935.83, 0.853095
1936.55, 0.853430
1937.28, 0.853564
1938.0, 0.853497
1938.73, 0.853430
1939.45, 0.853497
1940.18, 0.853765
1940.9, 0.853832
1941.63, 0.853631
1942.36, 0.853564
1943.09, 0.853832
1943.81, 0.854167
1944.54, 0.853899
1945.27, 0.853899
1946.0, 0.853899
1946.73, 0.853966
1947.47, 0.853966
1948.2, 0.854033
1948.93, 0.853765
1949.66, 0.853832
1950.4, 0.853899
1951.13, 0.853966
1951.86, 0.854100
1952.6, 0.854301
1953.34, 0.854234
1954.07, 0.854301
1954.81, 0.854369
1955.55, 0.854436
1956.29, 0.854436
1957.02, 0.854369
1957.76, 0.854369
1958.5, 0.854503
1959.24, 0.854570
1959.98, 0.854436
1960.72, 0.854100
1961.47, 0.854167
1962.21, 0.854369
1962.95, 0.854436
1963.7, 0.854436
1964.44, 0.854570
1965.18, 0.854503
1965.93, 0.854436
1966.67, 0.854167
1967.42, 0.854167
1968.17, 0.854033
1968.92, 0.854234
1969.66, 0.854100
1970.41, 0.854234
1971.16, 0.854301
1971.91, 0.854503
1972.66, 0.854301
1973.41, 0.853966
1974.16, 0.853966
1974.92, 0.854100
1975.67, 0.854167
1976.42, 0.853966
1977.18, 0.853966
1977.93, 0.854436
1978.69, 0.854167
1979.44, 0.853765
1980.2, 0.853832
1980.95, 0.853966
1981.71, 0.853631
1982.47, 0.853564
1983.23, 0.853430
1983.99, 0.853430
1984.74, 0.853363
1985.51, 0.853564
1986.27, 0.853765
1987.03, 0.853698
1987.79, 0.853564
1988.55, 0.853564
1989.32, 0.853162
1990.08, 0.853296
1990.84, 0.853430
1991.61, 0.853296
1992.37, 0.853229
1993.14, 0.853229
1993.9, 0.852961
1994.67, 0.852894
1995.44, 0.852961
1996.21, 0.853095
1996.98, 0.853162
1997.75, 0.853162
1998.52, 0.853095
1999.29, 0.852961
2000.06, 0.852760
2000.83, 0.852961
2001.6, 0.853028
2002.38, 0.853028
2003.15, 0.853095
2003.93, 0.852827
2004.7, 0.852693
2005.48, 0.852760
2006.25, 0.853028
2007.03, 0.853363
2007.81, 0.853229
2008.58, 0.853095
2009.36, 0.852894
2010.14, 0.852894
2010.92, 0.852827
2011.7, 0.852961
2012.48, 0.853095
2013.26, 0.853028
2014.05, 0.852961
2014.83, 0.853095
2015.61, 0.852894
2016.4, 0.852894
2017.18, 0.853229
2017.97, 0.853296
2018.75, 0.853095
2019.54, 0.853229
2020.32, 0.853229
2021.11, 0.853229
2021.9, 0.853229
2022.69, 0.853363
2023.48, 0.853564
2024.27, 0.853765
2025.06, 0.853765
2025.85, 0.853899
2026.64, 0.854033
2027.44, 0.854033
2028.23, 0.853765
2029.02, 0.853631
2029.82, 0.853698
2030.61, 0.854033
2031.41, 0.854100
2032.2, 0.853899
2033.0, 0.853832
2033.8, 0.854033
2034.6, 0.854100
2035.4, 0.854436
2036.2, 0.854503
2037.0, 0.854436
2037.8, 0.854167
2038.6, 0.854369
2039.4, 0.854436
2040.2, 0.854436
2041.01, 0.854436
2041.81, 0.854436
2042.61, 0.854369
2043.42, 0.854771
2044.22, 0.854905
2045.03, 0.854771
2045.84, 0.854838
2046.65, 0.854704
2047.46, 0.854704
2048.26, 0.854905
2049.07, 0.854771
2049.88, 0.854972
2050.69, 0.855173
2051.51, 0.855240
2052.32, 0.854905
2053.13, 0.854905
2053.94, 0.855106
2054.76, 0.855307
2055.57, 0.854905
2056.39, 0.854905
2057.2, 0.854972
2058.02, 0.855240
2058.84, 0.855240
2059.66, 0.855441
2060.48, 0.855307
2061.29, 0.855106
2062.11, 0.855039
2062.94, 0.855173
2063.76, 0.855173
2064.58, 0.855106
2065.4, 0.854905
2066.22, 0.854838
2067.05, 0.854704
2067.87, 0.854838
2068.7, 0.854905
2069.52, 0.854905
2070.35, 0.854972
2071.18, 0.854905
2072.0, 0.854771
2072.83, 0.854570
2073.66, 0.854369
2074.49, 0.854503
2075.32, 0.854637
2076.15, 0.854905
2076.98, 0.854771
2077.82, 0.854369
2078.65, 0.854301
2079.48, 0.854570
2080.32, 0.854301
2081.15, 0.854167
2081.99, 0.854234
2082.83, 0.854100
2083.66, 0.853832
2084.5, 0.853899
2085.34, 0.854033
2086.18, 0.853966
2087.02, 0.853698
2087.86, 0.853698
2088.7, 0.853564
2089.54, 0.853698
2090.39, 0.853765
2091.23, 0.853698
2092.07, 0.853430
2092.92, 0.853296
2093.76, 0.853229
2094.61, 0.853162
2095.45, 0.853162
2096.3, 0.853162
2097.15, 0.853162
2098.0, 0.853095
2098.85, 0.852961
2099.7, 0.853095
2100.55, 0.852961
2101.4, 0.852961
2102.25, 0.852961
2103.1, 0.852961
2103.96, 0.852693
2104.81, 0.852625
2105.67, 0.852693
2106.52, 0.852491
2107.38, 0.852089
2108.24, 0.852223
2109.09, 0.852290
2109.95, 0.852491
2110.81, 0.852424
2111.67, 0.852424
2112.53, 0.852290
2113.39, 0.852357
2114.25, 0.852290
2115.12, 0.852089
2115.98, 0.851955
2116.84, 0.852223
2117.71, 0.852357
2118.58, 0.852290
2119.44, 0.852089
2120.31, 0.851955
2121.18, 0.852089
2122.04, 0.852089
2122.91, 0.852022
2123.78, 0.852357
2124.65, 0.852424
2125.52, 0.852357
2126.4, 0.852156
2127.27, 0.852089
2128.14, 0.852223
2129.02, 0.852357
2129.89, 0.852089
2130.77, 0.851888
2131.64, 0.852089
2132.52, 0.852357
2133.4, 0.852089
2134.27, 0.851821
2135.15, 0.851687
2136.03, 0.851955
2136.91, 0.852156
2137.79, 0.852223
2138.68, 0.852089
2139.56, 0.852290
2140.44, 0.852223
2141.33, 0.852089
2142.21, 0.852022
2143.1, 0.852022
2143.99, 0.851955
2144.87, 0.852022
2145.76, 0.852022
2146.65, 0.852022
2147.54, 0.852290
2148.43, 0.852290
2149.32, 0.852434
2150.21, 0.852506
2151.1, 0.852578
2151.99, 0.852650
2152.89, 0.852722
2153.78, 0.852362
2154.68, 0.852075
2155.57, 0.852147
2156.47, 0.852147
2157.37, 0.851931
2158.27, 0.851716
2159.16, 0.852147
2160.06, 0.852434
2160.96, 0.852650
2161.86, 0.852506
2162.77, 0.852865
2163.67, 0.852650
2164.57, 0.852434
2165.48, 0.851500
2166.38, 0.851644
2167.29, 0.852003
2168.2, 0.852075
2169.1, 0.852003
2170.01, 0.852003
2170.92, 0.851787
2171.83, 0.851859
2172.74, 0.851644
2173.65, 0.851787
2174.56, 0.852219
2175.47, 0.852290
2176.39, 0.852147
2177.3, 0.852506
2178.22, 0.852075
2179.13, 0.851859
2180.05, 0.851716
2180.96, 0.851931
2181.88, 0.851500
2182.8, 0.851428
2183.72, 0.852003
2184.64, 0.852362
2185.56, 0.851859
2186.48, 0.851284
2187.41, 0.851284
2188.33, 0.851069
2189.25, 0.850566
2190.18, 0.850781
2191.1, 0.850781
2192.03, 0.851284
2192.96, 0.851141
2193.89, 0.850853
2194.82, 0.851284
2195.74, 0.851644
2196.68, 0.851141
2197.61, 0.851212
2198.54, 0.851572
2199.47, 0.851141
2200.4, 0.850422
2201.34, 0.850494
2202.28, 0.850134
2203.21, 0.850278
2204.15, 0.850422
2205.08, 0.850350
2206.02, 0.850134
2206.96, 0.849775
2207.9, 0.849703
2208.84, 0.850063
2209.78, 0.849631
2210.73, 0.849416
2211.67, 0.849488
2212.61, 0.849200
2213.56, 0.848266
2214.5, 0.848554
2215.45, 0.848410
2216.4, 0.848051
2217.35, 0.847763
2218.3, 0.847476
2219.24, 0.847476
2220.2, 0.847044
2221.15, 0.846685
2222.1, 0.846685
2223.05, 0.846973
2224.0, 0.846829
2224.96, 0.846326
2225.91, 0.845679
2226.87, 0.845392
2227.83, 0.845463
2228.79, 0.844960
2229.74, 0.844529
2230.7, 0.844170
2231.66, 0.843811
2232.63, 0.843667
2233.59, 0.843739
2234.55, 0.844026
2235.51, 0.844170
2236.48, 0.843451
2237.44, 0.842589
2238.41, 0.842733
2239.38, 0.843523
2240.34, 0.843308
2241.31, 0.842805
2242.28, 0.842301
2243.25, 0.841727
2244.22, 0.841655
2245.19, 0.841583
2246.17, 0.841152
2247.14, 0.840217
2248.12, 0.839858
2249.09, 0.840146
2250.07, 0.840433
2251.04, 0.840433
2252.02, 0.840002
2253.0, 0.839714
2253.98, 0.839068
2254.96, 0.838996
2255.94, 0.838708
2256.92, 0.838565
2257.91, 0.838493
2258.89, 0.838421
2259.88, 0.838493
2260.86, 0.838780
2261.85, 0.838708
2262.83, 0.838565
2263.82, 0.838205
2264.81, 0.838133
2265.8, 0.837487
2266.79, 0.837415
2267.78, 0.837559
2268.78, 0.837702
2269.77, 0.837702
2270.76, 0.838277
2271.76, 0.837630
2272.75, 0.836912
2273.75, 0.836768
2274.75, 0.837056
2275.75, 0.837630
2276.75, 0.837990
2277.75, 0.837487
2278.75, 0.836912
2279.75, 0.837127
2280.75, 0.837343
2281.76, 0.836912
2282.76, 0.837056
2283.77, 0.837199
2284.77, 0.837127
2285.78, 0.837056
2286.79, 0.836768
2287.8, 0.836193
2288.81, 0.836265
2289.82, 0.836409
2290.83, 0.836696
2291.84, 0.836984
2292.86, 0.837415
2293.87, 0.836984
2294.89, 0.837271
2295.91, 0.837343
2296.92, 0.837918
2297.94, 0.837846
2298.96, 0.837702
2299.98, 0.837702
2301.0, 0.837415
2302.02, 0.837702
2303.04, 0.838205
2304.07, 0.838493
2305.09, 0.838421
2306.12, 0.838205
2307.15, 0.838636
2308.17, 0.839211
2309.2, 0.839714
2310.23, 0.839499
2311.26, 0.839714
2312.29, 0.840074
2313.32, 0.840289
2314.35, 0.840002
2315.39, 0.840002
2316.42, 0.840721
2317.46, 0.841295
2318.5, 0.841655
2319.53, 0.841583
2320.57, 0.841224
2321.61, 0.841295
2322.65, 0.841152
2323.69, 0.841367
2324.73, 0.842014
2325.78, 0.842301
2326.82, 0.842589
2327.86, 0.843164
2328.91, 0.842661
2329.96, 0.842301
2331.01, 0.842517
2332.05, 0.842661
2333.1, 0.842733
2334.15, 0.842876
2335.21, 0.842733
2336.26, 0.842661
2337.31, 0.842661
2338.36, 0.842661
2339.42, 0.842661
2340.48, 0.842733
2341.53, 0.842661
2342.59, 0.842589
2343.65, 0.842230
2344.71, 0.842158
2345.77, 0.842014
2346.83, 0.842373
2347.9, 0.843020
2348.96, 0.843020
2350.02, 0.842589
2351.09, 0.842589
2352.16, 0.842445
2353.23, 0.842301
2354.29, 0.842373
2355.36, 0.842014
2356.43, 0.841295
2357.51, 0.841727
2358.58, 0.841727
2359.65, 0.841727
2360.73, 0.841295
2361.8, 0.841152
2362.88, 0.840433
2363.96, 0.840217
2365.03, 0.840361
2366.11, 0.840002
2367.19, 0.839427
2368.27, 0.838421
2369.36, 0.838062
2370.44, 0.837846
2371.53, 0.837630
2372.61, 0.837056
2373.7, 0.836481
2374.78, 0.836265
2375.87, 0.836193
2376.96, 0.836337
2378.05, 0.835762
2379.14, 0.835259
2380.24, 0.834181
2381.33, 0.833534
2382.42, 0.832959
2383.52, 0.832456
2384.61, 0.832097
2385.71, 0.831810
2386.81, 0.831235
2387.91, 0.830444
2389.01, 0.829366
2390.11, 0.829151
2391.22, 0.828432
2392.32, 0.827498
2393.42, 0.826564
2394.53, 0.825917
2395.64, 0.825701
2396.74, 0.825342
2397.85, 0.824551
2398.96, 0.824264
2400.07, 0.824048
2401.18, 0.823402
2402.3, 0.822539
2403.41, 0.822467
2404.52, 0.822180
2405.64, 0.822036
2406.76, 0.821533
2407.88, 0.821030
2408.99, 0.820886
2410.11, 0.820743
2411.23, 0.820743
2412.36, 0.820886
2413.48, 0.820886
2414.6, 0.821030
2415.73, 0.821461
2416.85, 0.821533
2417.98, 0.821174
2419.11, 0.821461
2420.24, 0.821892
2421.37, 0.821821
2422.5, 0.821749
2423.64, 0.821821
2424.77, 0.821892
2425.9, 0.822324
2427.04, 0.822467
2428.18, 0.822252
2429.31, 0.821821
2430.45, 0.822036
2431.59, 0.822324
2432.73, 0.822827
2433.88, 0.823258
2435.02, 0.823473
2436.16, 0.823689
2437.31, 0.824048
2438.45, 0.824120
2439.6, 0.824120
2440.75, 0.824120
2441.9, 0.824623
2443.05, 0.824551
2444.2, 0.825126
2445.35, 0.825198
2446.51, 0.825414
2447.67, 0.825486
2448.82, 0.825701
2449.98, 0.825917
2451.14, 0.826061
2452.3, 0.825701
2453.46, 0.825629
2454.62, 0.825917
2455.78, 0.826132
2456.94, 0.825989
2458.11, 0.825917
2459.28, 0.825917
2460.44, 0.826204
2461.61, 0.826564
2462.78, 0.826420
2463.95, 0.825845
2465.12, 0.825917
2466.3, 0.825917
2467.47, 0.825989
2468.65, 0.826132
2469.82, 0.825989
2471.0, 0.825773
2472.18, 0.825845
2473.36, 0.825701
2474.54, 0.825557
2475.72, 0.825342
2476.9, 0.825486
2478.08, 0.825126
2479.27, 0.824695
2480.46, 0.824264
2481.64, 0.824264
2482.83, 0.824695
2484.02, 0.824192
2485.21, 0.823473
2486.4, 0.822970
2487.6, 0.823042
2488.79, 0.823114
2489.99, 0.822683
2491.18, 0.821892
2492.38, 0.821605
2493.58, 0.821677
2494.78, 0.821461
2495.98, 0.820671
2497.18, 0.820096
2498.39, 0.820024
2499.59, 0.819952
2500.8, 0.819521
2502.01, 0.818731
2503.21, 0.818299
2504.42, 0.818299
2505.63, 0.818299
2506.84, 0.817868
2508.06, 0.818012
2509.27, 0.817581
2510.49, 0.817437
2511.7, 0.816934
2512.92, 0.816862
2514.14, 0.816503
2515.36, 0.816287
2516.58, 0.816215
2517.8, 0.815784
2519.03, 0.815784
2520.25, 0.815569
2521.48, 0.815137
2522.7, 0.814778
2523.93, 0.814419
2525.16, 0.813916
2526.39, 0.813269
2527.62, 0.813197
2528.86, 0.812982
2530.09, 0.812478
2531.33, 0.811185
2532.56, 0.810754
2533.8, 0.810826
2535.04, 0.810035
2536.28, 0.809748
2537.52, 0.810251
2538.76, 0.810610
2540.01, 0.810754
2541.25, 0.809891
2542.5, 0.808885
2543.75, 0.809748
2544.99, 0.810754
2546.24, 0.810179
2547.49, 0.809676
2548.75, 0.810395
2550.0, 0.810323
2551.26, 0.809676
2552.51, 0.809532
2553.77, 0.810826
2555.03, 0.812047
2556.29, 0.812407
2557.55, 0.812478
2558.81, 0.811832
2560.08, 0.808598
2561.34, 0.806011
2562.61, 0.806298
2563.88, 0.806873
2565.14, 0.809532
2566.41, 0.811975
2567.68, 0.810826
2568.96, 0.807376
2570.23, 0.808526
2571.51, 0.809820
2572.78, 0.805939
2574.06, 0.807448
2575.34, 0.808957
2576.62, 0.807304
2577.9, 0.809029
2579.18, 0.809891
2580.47, 0.807807
2581.75, 0.807161
2583.04, 0.802633
2584.32, 0.803208
2585.61, 0.806083
2586.9, 0.804574
2588.2, 0.805364
2589.49, 0.806658
2590.78, 0.807879
2592.08, 0.805292
2593.37, 0.794082
2594.67, 0.786392
2595.97, 0.796094
2597.27, 0.805077
2598.57, 0.807592
2599.88, 0.806514
2601.18, 0.804717
2602.49, 0.803208
2603.79, 0.799687
2605.1, 0.795519
2606.41, 0.798609
2607.72, 0.801699
2609.03, 0.802202
2610.35, 0.803352
2611.66, 0.804286
2612.98, 0.803639
2614.3, 0.803927
2615.62, 0.798609
2616.94, 0.796238
2618.26, 0.799615
2619.58, 0.796238
2620.91, 0.797962
2622.23, 0.803855
2623.56, 0.804717
2624.89, 0.801843
2626.22, 0.796956
2627.55, 0.799471
2628.88, 0.797172
2630.21, 0.792213
2631.55, 0.796884
2632.89, 0.799328
2634.22, 0.799256
2635.56, 0.801268
2636.9, 0.801484
2638.25, 0.801196
2639.59, 0.800118
2640.93, 0.799112
2642.28, 0.798537
2643.63, 0.798322
2644.98, 0.795878
2646.33, 0.796166
2647.68, 0.797244
2649.03, 0.797459
2650.39, 0.795950
2651.74, 0.793076
2653.1, 0.792716
2654.46, 0.792932
2655.82, 0.792860
2657.18, 0.794010
2658.54, 0.791423
2659.9, 0.789914
2661.27, 0.790057
2662.64, 0.789339
2664.01, 0.781649
2665.38, 0.776260
2666.74, 0.777122
2668.12, 0.781146
2669.49, 0.773816
2670.87, 0.773960
2672.24, 0.782799
2673.62, 0.783374
2675.0, 0.778559
2676.38, 0.774176
2677.76, 0.773888
2679.15, 0.773960
2680.54, 0.777481
2681.92, 0.776906
2683.31, 0.773960
2684.7, 0.772739
2686.09, 0.771517
2687.48, 0.770583
2688.88, 0.768858
2690.27, 0.767277
2691.67, 0.763396
2693.07, 0.755707
2694.47, 0.752761
2695.87, 0.752617
2697.27, 0.751108
2698.67, 0.744856
2700.08, 0.732639
2701.49, 0.720926
2702.9, 0.715105
2704.31, 0.709859
2705.72, 0.703032
2707.13, 0.694049
2708.54, 0.683988
2709.96, 0.675796
2711.38, 0.675580
2712.8, 0.682479
2714.22, 0.685857
2715.64, 0.686935
2717.06, 0.685713
2718.49, 0.681545
2719.91, 0.674430
2721.34, 0.676946
2722.77, 0.678024
2724.2, 0.674143
2725.63, 0.675796
2727.07, 0.676011
2728.5, 0.671700
2729.94, 0.664873
2731.38, 0.656537
2732.82, 0.648632
2734.26, 0.643745
2735.7, 0.644607
2737.15, 0.643817
2738.59, 0.637781
2740.04, 0.634690
2741.49, 0.636774
2742.94, 0.638499
2744.39, 0.636487
2745.84, 0.632463
2747.3, 0.627792
2748.76, 0.622402
2750.21, 0.615934
2751.67, 0.607598
2753.14, 0.596747
2754.6, 0.581009
2756.06, 0.569224
2757.53, 0.560025
2759.0, 0.549102
2760.46, 0.539544
2761.94, 0.530562
2763.41, 0.522297
2764.88, 0.511949
2766.36, 0.495780
2767.83, 0.475371
2769.31, 0.452950
2770.79, 0.433116
2772.27, 0.422983
2773.76, 0.422911
2775.24, 0.430601
2776.73, 0.442961
2778.22, 0.456040
2779.71, 0.466245
2781.2, 0.473000
2782.69, 0.476808
2784.18, 0.476736
2785.68, 0.471634
2787.18, 0.464735
2788.68, 0.457549
2790.18, 0.447488
2791.68, 0.434122
2793.19, 0.418743
2794.69, 0.401856
2796.2, 0.384106
2797.71, 0.365278
2799.22, 0.346593
2800.73, 0.328340
2802.24, 0.311452
2803.76, 0.299236
2805.28, 0.292624
2806.8, 0.290612
2808.32, 0.292912
2809.84, 0.298661
2811.36, 0.306997
2812.89, 0.316411
2814.42, 0.325753
2815.94, 0.335311
2817.48, 0.343934
2819.01, 0.351983
2820.54, 0.360822
2822.08, 0.370380
2823.61, 0.380441
2825.15, 0.390429
2826.69, 0.400634
2828.23, 0.410838
2829.78, 0.421187
2831.32, 0.431463
2832.87, 0.441524
2834.42, 0.451297
2835.97, 0.461430
2837.52, 0.471419
2839.08, 0.481048
2840.63, 0.490462
2842.19, 0.499373
2843.75, 0.507853
2845.31, 0.515255
2846.87, 0.522154
2848.44, 0.528549
2850.0, 0.534945
2851.57, 0.541269
2853.14, 0.547018
2854.71, 0.552049
2856.28, 0.557151
2857.86, 0.561678
2859.43, 0.565702
2861.01, 0.569583
2862.59, 0.573248
2864.17, 0.576410
2865.76, 0.579428
2867.34, 0.582231
2868.93, 0.585177
2870.52, 0.587549
2872.11, 0.590136
2873.7, 0.592723
2875.29, 0.595525
2876.89, 0.597609
2878.49, 0.599909
2880.08, 0.602209
2881.69, 0.604221
2883.29, 0.606089
2884.89, 0.608029
2886.5, 0.609754
2888.11, 0.611766
2889.72, 0.613491
2891.33, 0.614928
2892.94, 0.616365
2894.56, 0.618090
2896.17, 0.619384
2897.79, 0.620677
2899.42, 0.621755
2901.04, 0.622833
2902.66, 0.623767
2904.29, 0.624558
2905.92, 0.625205
2907.55, 0.626067
2909.18, 0.626786
2910.81, 0.627073
2912.45, 0.627145
2914.08, 0.627217
2915.72, 0.627576
2917.36, 0.627792
2919.01, 0.627935
2920.65, 0.627935
2922.3, 0.627720
2923.94, 0.627576
2925.59, 0.627648
2927.25, 0.627432
2928.9, 0.627289
2930.56, 0.627217
2932.21, 0.627145
2933.87, 0.626929
2935.53, 0.626642
2937.2, 0.626283
2938.86, 0.626067
2940.53, 0.625995
2942.2, 0.625564
2943.87, 0.625420
2945.54, 0.625348
2947.22, 0.625133
2948.89, 0.624773
2950.57, 0.624414
2952.25, 0.624055
2953.93, 0.623767
2955.62, 0.623552
2957.3, 0.623695
2958.99, 0.623695
2960.68, 0.623480
2962.37, 0.623480
2964.07, 0.623767
2965.76, 0.623767
2967.46, 0.623839
2969.16, 0.623911
2970.86, 0.624342
2972.56, 0.624845
2974.27, 0.625420
2975.98, 0.625779
2977.69, 0.626139
2979.4, 0.626570
2981.11, 0.627360
2982.83, 0.628367
2984.54, 0.629229
2986.26, 0.629948
2987.98, 0.630666
2989.71, 0.631385
2991.43, 0.632032
2993.16, 0.632822
2994.89, 0.633684
2996.62, 0.634403
2998.35, 0.635194
3000.09, 0.635912
3001.83, 0.636846
3003.57, 0.637421
3005.31, 0.638140
3007.05, 0.638858
3008.79, 0.639577
3010.54, 0.640224
3012.29, 0.640727
3014.04, 0.641230
3015.8, 0.641949
3017.55, 0.642523
3019.31, 0.643242
3021.07, 0.643961
3022.83, 0.644464
3024.59, 0.644823
3026.36, 0.645326
3028.13, 0.645901
3029.9, 0.646476
3031.67, 0.647195
3033.44, 0.647913
3035.22, 0.648344
3037.0, 0.648847
3038.78, 0.649279
3040.56, 0.649782
3042.34, 0.650428
3044.13, 0.651219
3045.92, 0.651578
3047.71, 0.652081
3049.5, 0.652872
3051.3, 0.653375
3053.09, 0.653662
3054.89, 0.654022
3056.69, 0.654596
3058.5, 0.655028
3060.3, 0.655531
3062.11, 0.656177
3063.92, 0.656609
3065.73, 0.657112
3067.55, 0.657543
3069.36, 0.657686
3071.18, 0.657974
3073.0, 0.658333
3074.82, 0.658621
3076.65, 0.658908
3078.48, 0.659267
3080.31, 0.659483
3082.14, 0.659483
3083.97, 0.659627
3085.8, 0.659555
3087.64, 0.659914
3089.48, 0.660345
3091.33, 0.660561
3093.17, 0.660345
3095.02, 0.660274
3096.87, 0.660561
3098.72, 0.660920
3100.57, 0.660920
3102.43, 0.660992
3104.28, 0.661064
3106.14, 0.661064
3108.01, 0.661064
3109.87, 0.661208
3111.74, 0.661495
3113.61, 0.661926
3115.48, 0.661926
3117.35, 0.662142
3119.23, 0.662429
3121.1, 0.662789
3122.98, 0.663076
3124.87, 0.663435
3126.75, 0.663723
3128.64, 0.664010
3130.53, 0.664154
3132.42, 0.664442
3134.31, 0.664801
3136.21, 0.665160
3138.11, 0.665376
3140.01, 0.665807
3141.91, 0.666166
3143.82, 0.666526
3145.73, 0.666597
3147.64, 0.666669
3149.55, 0.666957
3151.46, 0.667460
3153.38, 0.667604
3155.3, 0.667819
3157.22, 0.667963
3159.14, 0.668178
3161.07, 0.668466
3163.0, 0.668753
3164.93, 0.668897
3166.86, 0.669185
3168.8, 0.669185
3170.74, 0.669400
3172.68, 0.669688
3174.62, 0.669759
3176.56, 0.669831
3178.51, 0.670047
3180.46, 0.670334
3182.42, 0.670622
3184.37, 0.670765
3186.33, 0.670622
3188.29, 0.670478
3190.25, 0.670765
3192.21, 0.671053
3194.18, 0.670981
3196.15, 0.671053
3198.12, 0.671125
3200.09, 0.671340
3202.07, 0.671628
3204.05, 0.671628
3206.03, 0.671700
3208.02, 0.671843
3210.0, 0.671915
3211.99, 0.671700
3213.98, 0.671628
3215.98, 0.671628
3217.97, 0.671628
3219.97, 0.671843
3221.97, 0.671843
3223.98, 0.671700
3225.98, 0.671484
3227.99, 0.671412
3230.0, 0.671412
3232.02, 0.671340
3234.03, 0.671197
3236.05, 0.671197
3238.07, 0.671269
3240.1, 0.671125
3242.12, 0.670981
3244.15, 0.670765
3246.18, 0.670765
3248.22, 0.670622
3250.25, 0.670334
3252.29, 0.670119
3254.33, 0.669975
3256.38, 0.669975
3258.43, 0.669616
3260.47, 0.669256
3262.53, 0.669256
3264.58, 0.669041
3266.64, 0.668897
3268.7, 0.668897
3270.76, 0.668753
3272.82, 0.668538
3274.89, 0.668250
3276.96, 0.667891
3279.04, 0.667819
3281.11, 0.667819
3283.19, 0.667604
3285.27, 0.667316
3287.35, 0.666885
3289.44, 0.666382
3291.53, 0.666094
3293.62, 0.665807
3295.71, 0.665591
3297.81, 0.665160
3299.91, 0.664729
3302.01, 0.664226
3304.11, 0.663867
3306.22, 0.663435
3308.33, 0.663004
3310.44, 0.662573
3312.56, 0.662070
3314.68, 0.661495
3316.8, 0.661064
3318.92, 0.660417
3321.05, 0.659555
3323.18, 0.658764
3325.31, 0.658261
3327.44, 0.657471
3329.58, 0.656752
3331.72, 0.655890
3333.86, 0.655028
3336.01, 0.654165
3338.16, 0.653159
3340.31, 0.651937
3342.46, 0.650716
3344.61, 0.649350
3346.77, 0.648272
3348.94, 0.647195
3351.1, 0.646260
3353.27, 0.644895
3355.44, 0.643817
3357.61, 0.642667
3359.79, 0.641446
3361.97, 0.639865
3364.15, 0.637924
3366.33, 0.635697
3368.52, 0.633684
3370.71, 0.631816
3372.9, 0.630235
3375.1, 0.628726
3377.3, 0.627432
3379.5, 0.626498
3381.71, 0.626139
3383.91, 0.625779
3386.12, 0.625205
3388.34, 0.624558
3390.55, 0.623767
3392.77, 0.622618
3394.99, 0.621180
3397.22, 0.619240
3399.45, 0.616868
3401.68, 0.614281
3403.91, 0.611479
3406.15, 0.608748
3408.39, 0.606017
3410.63, 0.603287
3412.87, 0.600843
3415.12, 0.599118
3417.37, 0.598328
3419.63, 0.598615
3421.88, 0.600484
3424.14, 0.602999
3426.41, 0.605586
3428.67, 0.607814
3430.94, 0.609970
3433.21, 0.611623
3435.49, 0.612916
3437.77, 0.613994
3440.05, 0.615144
3442.33, 0.616006
3444.62, 0.616437
3446.91, 0.616868
3449.2, 0.617372
3451.5, 0.617875
3453.8, 0.618306
3456.1, 0.618665
3458.41, 0.619168
3460.72, 0.619456
3463.03, 0.619743
3465.34, 0.619743
3467.66, 0.619671
3469.98, 0.619312
3472.31, 0.619024
3474.63, 0.618737
3476.96, 0.618449
3479.3, 0.618018
3481.64, 0.617803
3483.97, 0.617659
3486.32, 0.617228
3488.66, 0.616509
3491.01, 0.615647
3493.36, 0.614425
3495.72, 0.612772
3498.08, 0.611407
3500.44, 0.610760
3502.81, 0.611120
3505.18, 0.612557
3507.55, 0.614641
3509.92, 0.617012
3512.3, 0.619599
3514.68, 0.622186
3517.06, 0.624342
3519.45, 0.626067
3521.84, 0.627289
3524.24, 0.628510
3526.64, 0.629373
3529.04, 0.630019
3531.44, 0.630738
3533.85, 0.631528
3536.26, 0.631888
3538.67, 0.632463
3541.09, 0.632966
3543.51, 0.633469
3545.93, 0.633900
3548.36, 0.634619
3550.79, 0.635122
3553.22, 0.635481
3555.66, 0.636056
3558.1, 0.636487
3560.54, 0.636774
3562.99, 0.637206
3565.44, 0.637709
3567.9, 0.638355
3570.35, 0.638787
3572.81, 0.639218
3575.28, 0.639865
3577.75, 0.640439
3580.22, 0.640727
3582.69, 0.641086
3585.17, 0.641517
3587.65, 0.642092
3590.14, 0.642523
3592.62, 0.643098
3595.11, 0.643673
3597.61, 0.644392
3600.11, 0.644967
3602.61, 0.645542
3605.11, 0.646117
3607.62, 0.646907
3610.14, 0.647410
3612.65, 0.648057
3615.17, 0.648776
3617.69, 0.649638
3620.22, 0.650428
3622.75, 0.651147
3625.28, 0.651937
3627.82, 0.652800
3630.36, 0.653590
3632.9, 0.654453
3635.45, 0.655315
3638.0, 0.656321
3640.56, 0.657255
3643.12, 0.658405
3645.68, 0.659339
3648.24, 0.660345
3650.81, 0.661351
3653.39, 0.662358
3655.96, 0.663364
3658.54, 0.664513
3661.13, 0.665591
3663.71, 0.666597
3666.3, 0.667675
3668.9, 0.668897
3671.5, 0.669903
3674.1, 0.670981
3676.7, 0.672059
3679.31, 0.673065
3681.93, 0.673999
3684.54, 0.675005
3687.17, 0.675796
3689.79, 0.676586
3692.42, 0.677233
3695.05, 0.678095
3697.69, 0.678670
3700.32, 0.679173
3702.97, 0.679533
3705.61, 0.679892
3708.27, 0.680108
3710.92, 0.680108
3713.58, 0.679892
3716.24, 0.679748
3718.91, 0.679389
3721.58, 0.678958
3724.25, 0.678455
3726.93, 0.677664
3729.61, 0.676874
3732.29, 0.676227
3734.98, 0.675365
3737.67, 0.674359
3740.37, 0.673353
3743.07, 0.672131
3745.78, 0.670909
3748.49, 0.669831
3751.2, 0.668538
3753.91, 0.667100
3756.63, 0.665663
3759.36, 0.664370
3762.09, 0.663004
3764.82, 0.661495
3767.55, 0.660058
3770.29, 0.658764
3773.04, 0.657327
3775.78, 0.655890
3778.54, 0.654381
3781.29, 0.652800
3784.05, 0.651147
3786.82, 0.649782
3789.59, 0.648272
3792.36, 0.646835
3795.13, 0.645470
3797.92, 0.644033
3800.7, 0.642667
3803.49, 0.641302
3806.28, 0.639865
3809.08, 0.638571
3811.88, 0.637277
3814.68, 0.636056
3817.49, 0.634906
3820.31, 0.633756
3823.12, 0.632678
3825.94, 0.631672
3828.77, 0.630522
3831.6, 0.629444
3834.43, 0.628510
3837.27, 0.627504
3840.11, 0.626642
3842.96, 0.625779
3845.81, 0.624773
3848.67, 0.623983
3851.53, 0.623121
3854.39, 0.622186
3857.26, 0.621396
3860.13, 0.620677
3863.01, 0.619959
3865.89, 0.619096
3868.77, 0.618306
3871.66, 0.617803
3874.55, 0.617156
3877.45, 0.616437
3880.35, 0.615647
3883.26, 0.614928
3886.17, 0.614281
3889.09, 0.613635
3892.01, 0.612772
3894.93, 0.612054
3897.86, 0.611407
3900.79, 0.610760
3903.73, 0.609970
3906.67, 0.609179
3909.62, 0.608604
3912.57, 0.608101
3915.52, 0.607454
3918.48, 0.606736
3921.45, 0.605945
3924.42, 0.605299
3927.39, 0.604436
3930.37, 0.603646
3933.35, 0.602927
3936.34, 0.602352
3939.33, 0.601490
3942.32, 0.600771
3945.32, 0.599981
3948.33, 0.599262
3951.34, 0.598328
3954.35, 0.597538
3957.37, 0.596819
3960.39, 0.596244
3963.42, 0.595597
3966.45, 0.595022
3969.49, 0.594376
3972.53, 0.593657
3975.58, 0.592866
3978.63, 0.592292
3981.68, 0.591860
3984.75, 0.591357
3987.81, 0.590854
3990.88, 0.590495
3993.95, 0.590064
3997.03, 0.589704
4000.12, 0.589345
4003.21, 0.588986
4006.3, 0.588627
4009.4, 0.588411
4012.5, 0.588052
4015.61, 0.587620
4018.72, 0.587333
4021.84, 0.587046
4024.96, 0.586686
4028.09, 0.586543
4031.22, 0.586327
4034.36, 0.586039
4037.5, 0.585824
4040.65, 0.585752
4043.8, 0.585680
4046.96, 0.585680
4050.12, 0.585608
4053.29, 0.585752
4056.46, 0.585896
4059.64, 0.586111
4062.82, 0.586543
4066.0, 0.586974
4069.19, 0.587333
4072.39, 0.587764
4075.59, 0.588267
4078.8, 0.588770
4082.01, 0.589273
4085.23, 0.589920
4088.45, 0.590639
4091.68, 0.591573
4094.91, 0.592435
4098.15, 0.593298
4101.39, 0.594160
4104.63, 0.595238
4107.89, 0.596244
4111.14, 0.597322
4114.41, 0.598328
4117.67, 0.599406
4120.95, 0.600412
4124.23, 0.601490
4127.51, 0.602568
4130.8, 0.603790
4134.09, 0.604867
4137.39, 0.605730
4140.7, 0.606736
4144.01, 0.607958
4147.32, 0.608820
4150.64, 0.609610
4153.97, 0.610401
4157.3, 0.611263
4160.64, 0.611910
4163.98, 0.612772
4167.33, 0.613419
4170.68, 0.613994
4174.04, 0.614353
4177.4, 0.614856
4180.77, 0.615288
4184.14, 0.615647
4187.52, 0.615934
4190.91, 0.616078
4194.3, 0.615791
4197.69, 0.615216
4201.1, 0.614138
4204.5, 0.612485
4207.92, 0.610257
4211.34, 0.607383
4214.76, 0.604293
4218.19, 0.601202
4221.62, 0.598544
4225.06, 0.596388
4228.51, 0.594807
4231.96, 0.593944
4235.42, 0.594016
4238.88, 0.594950
4242.35, 0.596819
4245.83, 0.599909
4249.31, 0.604077
4252.79, 0.609107
4256.28, 0.612197
4259.78, 0.610616
4263.29, 0.607023
4266.79, 0.604652
4270.31, 0.603502
4273.83, 0.603215
4277.35, 0.603430
4280.89, 0.604005
4284.42, 0.604724
4287.97, 0.605730
4291.52, 0.606880
4295.07, 0.608532
4298.63, 0.610113
4302.2, 0.611766
4305.78, 0.613635
4309.35, 0.615431
4312.94, 0.616940
4316.53, 0.618665
4320.13, 0.620030
4323.73, 0.621252
4327.34, 0.622330
4330.96, 0.623408
4334.58, 0.624270
4338.21, 0.624917
4341.84, 0.625564
4345.48, 0.626283
4349.12, 0.626714
4352.77, 0.627073
4356.43, 0.627432
4360.1, 0.627648
4363.76, 0.627935
4367.44, 0.628295
4371.12, 0.628798
4374.81, 0.629229
4378.51, 0.629373
4382.21, 0.629588
4385.92, 0.629948
4389.63, 0.630235
4393.35, 0.630451
4397.08, 0.630594
4400.81, 0.630522
4404.55, 0.630666
4408.29, 0.630882
4412.04, 0.630882
4415.8, 0.631025
4419.57, 0.631097
4423.34, 0.631097
4427.12, 0.631169
4430.9, 0.631241
4434.69, 0.631241
4438.49, 0.631313
4442.29, 0.631457
4446.1, 0.631457
4449.92, 0.631672
4453.74, 0.631744
4457.57, 0.631888
4461.41, 0.631888
4465.25, 0.631816
4469.1, 0.631744
4472.95, 0.631744
4476.82, 0.631744
4480.69, 0.631888
4484.56, 0.631888
4488.44, 0.631888
4492.33, 0.631888
4496.23, 0.631888
4500.13, 0.631888
4504.04, 0.631744
4507.96, 0.631816
4511.88, 0.631816
4515.81, 0.631600
4519.75, 0.631744
4523.69, 0.631816
4527.65, 0.631744
4531.6, 0.631672
4535.57, 0.631600
4539.54, 0.631672
4543.52, 0.631744
4547.5, 0.631600
4551.5, 0.631528
4555.5, 0.631385
4559.5, 0.631385
4563.52, 0.631385
4567.54, 0.631313
4571.56, 0.631169
4575.6, 0.631097
4579.64, 0.630882
4583.69, 0.630738
4587.75, 0.630594
4591.81, 0.630522
4595.88, 0.630451
4599.96, 0.630379
4604.04, 0.630235
4608.14, 0.630235
4612.24, 0.630163
4616.34, 0.630019
4620.46, 0.629876
4624.58, 0.629876
4628.71, 0.629732
4632.84, 0.629660
4636.99, 0.629516
4641.14, 0.629444
4645.3, 0.629516
4649.47, 0.629516
4653.64, 0.629444
4657.82, 0.629373
4662.01, 0.629229
4666.21, 0.629157
4670.41, 0.629157
4674.62, 0.629085
4678.84, 0.628941
4683.07, 0.628941
4687.3, 0.628941
4691.54, 0.628941
4695.79, 0.628870
4700.05, 0.628798
4704.31, 0.628582
4708.59, 0.628367
4712.87, 0.628079
4717.15, 0.627720
4721.45, 0.627360
4725.76, 0.627073
4730.07, 0.626642
4734.39, 0.626211
4738.72, 0.625708
4743.05, 0.625205
4747.39, 0.624773
4751.75, 0.624270
4756.1, 0.623983
4760.47, 0.623480
4764.85, 0.623121
4769.23, 0.622618
4773.62, 0.622114
4778.02, 0.621611
4782.43, 0.621180
4786.85, 0.620821
4791.27, 0.620318
4795.7, 0.619671
4800.14, 0.619240
4804.59, 0.618737
4809.05, 0.618234
4813.51, 0.617587
4817.99, 0.616940
4822.47, 0.616222
4826.96, 0.615431
4831.46, 0.614856
4835.96, 0.614210
4840.48, 0.613491
4845.0, 0.612772
4849.54, 0.612126
4854.08, 0.611479
4858.63, 0.610688
4863.18, 0.609826
4867.75, 0.609035
4872.33, 0.608389
4876.91, 0.607598
4881.5, 0.606808
4886.1, 0.606017
4890.71, 0.605299
4895.33, 0.604652
4899.96, 0.603861
4904.59, 0.603287
4909.24, 0.602640
4913.89, 0.601993
4918.55, 0.601562
4923.22, 0.601059
4927.9, 0.600556
4932.59, 0.599909
4937.29, 0.599334
4942.0, 0.598759
4946.71, 0.598041
4951.44, 0.597394
4956.17, 0.596603
4960.91, 0.596028
4965.67, 0.595310
4970.43, 0.594735
4975.2, 0.594016
4979.98, 0.593226
4984.76, 0.592435
4989.56, 0.591788
4994.37, 0.590998
4999.18, 0.590208
5004.01, 0.589489
5008.84, 0.588770
5013.69, 0.587764
5018.54, 0.586543
5023.4, 0.585968
5028.28, 0.585321
5033.16, 0.584315
5038.05, 0.583237
5042.95, 0.582015
5047.86, 0.580578
5052.78, 0.579069
5057.71, 0.577488
5062.65, 0.575548
5067.6, 0.573463
5072.56, 0.571236
5077.53, 0.568721
5082.5, 0.566349
5087.49, 0.564696
5092.49, 0.563043
5097.5, 0.561606
5102.51, 0.560600
5107.54, 0.559594
5112.58, 0.558732
5117.62, 0.558013
5122.68, 0.557366
5127.75, 0.557007
5132.82, 0.556504
5137.91, 0.556073
5143.01, 0.555426
5148.12, 0.554851
5153.23, 0.555210
5158.36, 0.555354
5163.5, 0.554995
5168.65, 0.554348
5173.81, 0.553486
5178.98, 0.552408
5184.15, 0.551114
5189.34, 0.549461
5194.54, 0.547665
5199.75, 0.546084
5204.98, 0.545150
5210.21, 0.543353
5215.45, 0.542419
5220.7, 0.542706
5225.96, 0.542203
5231.23, 0.541053
5236.52, 0.539904
5241.81, 0.538969
5247.12, 0.537963
5252.44, 0.536670
5257.76, 0.535017
5263.1, 0.533364
5268.45, 0.531568
5273.81, 0.529484
5279.18, 0.527615
5284.56, 0.525747
5289.95, 0.522800
5295.36, 0.520788
5300.77, 0.518848
5306.2, 0.516045
5311.63, 0.512668
5317.08, 0.508643
5322.54, 0.504116
5328.01, 0.499086
5333.49, 0.493624
5338.98, 0.488019
5344.49, 0.481192
5350.0, 0.474006
5355.53, 0.468113
5361.07, 0.461214
5366.62, 0.452519
5372.18, 0.442674
5377.75, 0.432325
5383.34, 0.422336
5388.93, 0.412994
5394.54, 0.404371
5400.16, 0.396682
5405.79, 0.389495
5411.44, 0.383099
5417.09, 0.376632
5422.76, 0.371673
5428.43, 0.370595
5434.12, 0.369014
5439.83, 0.366787
5445.54, 0.364559
5451.26, 0.362259
5457.0, 0.359385
5462.75, 0.356079
5468.52, 0.354354
5474.29, 0.352342
5480.08, 0.349180
5485.88, 0.345803
5491.69, 0.340413
5497.51, 0.333155
5503.35, 0.324100
5509.2, 0.313608
5515.06, 0.301392
5520.93, 0.288744
5526.82, 0.276887
5532.71, 0.267041
5538.63, 0.259640
5544.55, 0.255256
5550.49, 0.253603
5556.44, 0.254897
5562.4, 0.258274
5568.37, 0.262730
5574.36, 0.266898
5580.36, 0.272790
5586.37, 0.280264
5592.4, 0.286588
5598.44, 0.290756
5604.49, 0.294349
5610.56, 0.296864
5616.63, 0.298373
5622.73, 0.299236
5628.83, 0.298877
5634.95, 0.296649
5641.08, 0.293846
5647.23, 0.293702
5653.39, 0.293343
5659.56, 0.293199
5665.74, 0.293774
5671.94, 0.293199
5678.15, 0.293846
5684.38, 0.295068
5690.62, 0.294780
5696.87, 0.294637
5703.14, 0.292840
5709.42, 0.289391
5715.72, 0.287307
5722.03, 0.284935
5728.35, 0.281845
5734.69, 0.277821
5741.03, 0.273365
5747.4, 0.268982
5753.78, 0.266179
5760.17, 0.260861
5766.58, 0.255831
5773.0, 0.255543
5779.44, 0.254609
5785.88, 0.252525
5792.35, 0.249794
5798.83, 0.246129
5805.32, 0.242464
5811.83, 0.237434
5818.35, 0.230679
5824.89, 0.226511
5831.45, 0.224499
5838.01, 0.221912
5844.59, 0.218893
5851.19, 0.215444
5857.8, 0.211707
5864.43, 0.208330
5871.07, 0.204952
5877.73, 0.198700
5884.4, 0.195682
5891.09, 0.193454
5897.79, 0.190220
5904.5, 0.189430
5911.23, 0.187274
5917.98, 0.184543
5924.75, 0.182028
5931.53, 0.177644
5938.32, 0.174554
5945.13, 0.174195
5951.96, 0.171895
5958.8, 0.168158
5965.65, 0.162841
5972.53, 0.158385
5979.42, 0.154217
5986.32, 0.149043
5993.24, 0.145665
6000.18, 0.143869
6007.13, 0.142000
6014.1, 0.141210
6021.08, 0.142504
6028.09, 0.144731
6035.1, 0.147390
6042.14, 0.148756
6049.19, 0.152061
6056.25, 0.160757
6063.34, 0.167584
6070.44, 0.172111
6077.55, 0.178363
6084.69, 0.184974
6091.84, 0.189717
6099.0, 0.193454
6106.19, 0.195682
6113.39, 0.198413
6120.61, 0.204737
6127.84, 0.210557
6135.09, 0.215013
6142.36, 0.219181
6149.65, 0.223780
6156.95, 0.227589
6164.27, 0.232979
6171.61, 0.238943
6178.97, 0.243183
6186.34, 0.249794
6193.73, 0.261292
6201.14, 0.272575
6208.57, 0.284432
6216.01, 0.297224
6223.47, 0.311021
6230.95, 0.324316
6238.45, 0.336964
6245.97, 0.348462
6253.5, 0.359169
6261.06, 0.368511
6268.63, 0.376847
6276.21, 0.384106
6283.82, 0.390717
6291.45, 0.396466
6299.1, 0.402071
6306.76, 0.407102
6314.44, 0.412276
6322.14, 0.416875
6329.86, 0.420971
6337.6, 0.421187
6345.35, 0.423271
6353.13, 0.431247
6360.92, 0.434841
6368.74, 0.435200
6376.57, 0.439080
6384.43, 0.442386
6392.3, 0.443967
6400.19, 0.442961
6408.1, 0.435415
6416.03, 0.433834
6423.98, 0.441452
6431.95, 0.444686
6439.94, 0.447201
6447.95, 0.448494
6455.98, 0.449572
6464.03, 0.449860
6472.1, 0.448638
6480.19, 0.446698
6488.31, 0.443177
6496.44, 0.444901
6504.59, 0.453166
6512.76, 0.455034
6520.95, 0.453956
6529.16, 0.456902
6537.4, 0.457980
6545.65, 0.456974
6553.92, 0.456184
6562.22, 0.455250
6570.54, 0.452088
6578.88, 0.454243
6587.23, 0.456327
6595.61, 0.456759
6604.02, 0.458052
6612.44, 0.457262
6620.89, 0.455681
6629.35, 0.449716
6637.84, 0.445548
6646.35, 0.450794
6654.88, 0.454172
6663.44, 0.451944
6672.01, 0.448135
6680.61, 0.444901
6689.23, 0.445332
6697.88, 0.444542
6706.54, 0.440087
6715.23, 0.437356
6723.94, 0.436350
6732.67, 0.435344
6741.42, 0.432972
6750.2, 0.429595
6759.0, 0.426720
6767.82, 0.422408
6776.67, 0.417594
6785.54, 0.412348
6794.44, 0.410335
6803.35, 0.411054
6812.29, 0.409258
6821.26, 0.405377
6830.24, 0.403724
6839.25, 0.403724
6848.29, 0.400275
6857.35, 0.393448
6866.43, 0.391292
6875.54, 0.394238
6884.67, 0.393160
6893.82, 0.390358
6903.0, 0.386693
6912.2, 0.384537
6921.43, 0.382525
6930.69, 0.379938
6939.96, 0.377207
6949.27, 0.372967
6958.59, 0.367433
6967.95, 0.366356
6977.33, 0.364918
6986.73, 0.360894
6996.16, 0.356942
7005.61, 0.353133
7015.09, 0.348102
7024.6, 0.342497
7034.13, 0.335742
7043.69, 0.327478
7053.27, 0.322447
7062.88, 0.318136
7072.52, 0.312459
7082.18, 0.306422
7091.87, 0.300386
7101.58, 0.294637
7111.32, 0.288385
7121.09, 0.283067
7130.88, 0.278827
7140.71, 0.275090
7150.56, 0.273365
7160.43, 0.273222
7170.33, 0.273509
7180.27, 0.275521
7190.23, 0.276815
7200.21, 0.276527
7210.23, 0.276096
7220.27, 0.275809
7230.34, 0.274012
7240.44, 0.271138
7250.56, 0.267401
7260.72, 0.263017
7270.9, 0.257843
7281.12, 0.252813
7291.36, 0.248285
7301.63, 0.244117
7311.93, 0.241458
7322.25, 0.240237
7332.61, 0.239805
7343.0, 0.240812
7353.41, 0.243183
7363.86, 0.245698
7374.33, 0.248213
7384.83, 0.250729
7395.37, 0.253100
7405.93, 0.255256
7416.53, 0.257124
7427.15, 0.258777
7437.81, 0.259855
7448.5, 0.260214
7459.22, 0.260071
7469.96, 0.259855
7480.74, 0.259424
7491.55, 0.258777
7502.39, 0.257556
7513.27, 0.255903
7524.17, 0.254250
7535.11, 0.252453
7546.08, 0.250872
7557.08, 0.249866
7568.11, 0.249291
7579.17, 0.249004
7590.27, 0.249004
7601.4, 0.248645
7612.56, 0.247710
7623.76, 0.246417
7634.98, 0.244692
7646.24, 0.242752
7657.54, 0.240596
7668.87, 0.238368
7680.23, 0.236428
7691.62, 0.234775
7703.05, 0.233050
7714.51, 0.230966
7726.01, 0.229026
7737.54, 0.227517
7749.11, 0.226583
7760.71, 0.226439
7772.35, 0.226942
7784.02, 0.227948
7795.72, 0.228811
7807.46, 0.229817
7819.23, 0.230607
7831.04, 0.230895
7842.89, 0.230751
7854.77, 0.230104
7866.69, 0.229457
7878.65, 0.228954
7890.64, 0.228379
7902.67, 0.227876
7914.74, 0.227373
7926.84, 0.226726
7938.98, 0.225649
7951.16, 0.224355
7963.37, 0.223205
7975.62, 0.222558
7987.91, 0.222055
8000.24, 0.221912
8012.6, 0.221624
8025.01, 0.221049
8037.45, 0.220187
8049.93, 0.219397
8062.45, 0.218390
8075.01, 0.217241
8087.61, 0.215588
8100.24, 0.213647
8112.91, 0.211132
8125.63, 0.208402
8138.39, 0.205383
8151.18, 0.202365
8164.02, 0.199347
8176.9, 0.196185
8189.81, 0.192807
8202.77, 0.189214
8215.77, 0.185405
8228.82, 0.181669
8241.9, 0.177572
8255.02, 0.173620
8268.19, 0.169811
8281.39, 0.166362
8294.65, 0.163200
8307.94, 0.160397
8321.28, 0.157882
8334.66, 0.155583
8348.08, 0.152995
8361.54, 0.150408
8375.05, 0.147749
8388.6, 0.144803
8402.2, 0.141929
8415.84, 0.139485
8429.52, 0.137186
8443.25, 0.135102
8457.02, 0.133018
8470.84, 0.130934
8484.7, 0.128562
8498.61, 0.125975
8512.57, 0.123244
8526.57, 0.120585
8540.62, 0.118070
8554.71, 0.115627
8568.85, 0.113399
8583.04, 0.111100
8597.27, 0.108944
8611.55, 0.106860
8625.88, 0.104704
8640.26, 0.102764
8654.68, 0.100895
8669.16, 0.0992420
8683.68, 0.0976610
8698.25, 0.0962240
8712.87, 0.0953620
8727.53, 0.0944270
8742.25, 0.0934930
8757.02, 0.0923430
8771.83, 0.0911220
8786.7, 0.0903310
8801.62, 0.0893250
8816.59, 0.0883910
8831.61, 0.0873130
8846.68, 0.0861630
8861.8, 0.0849420
8876.97, 0.0839360
8892.2, 0.0829290
8907.48, 0.0819950
8922.81, 0.0807020
8938.2, 0.0789050
8953.63, 0.0763180
8969.13, 0.0735150
8984.67, 0.0707130
9000.27, 0.0678380
9015.92, 0.0648920
9031.63, 0.0621610
9047.39, 0.0595740
9063.21, 0.0568430
9079.08, 0.0540410
9095.01, 0.0511660
9111.0, 0.0482200
9127.04, 0.0453450
9143.13, 0.0424710
9159.28, 0.0396680
9175.49, 0.0369370
9191.76, 0.0345660
9208.09, 0.0323380
9224.47, 0.0303980
9240.92, 0.0283860
9257.42, 0.0261580
9273.98, 0.0240740
9290.6, 0.0226370
9307.28, 0.0212710
9324.02, 0.0197620
9340.82, 0.0182530
9357.68, 0.0168880
9374.6, 0.0154500
9391.58, 0.0139410
9408.62, 0.0124320
9425.73, 0.0112110
9442.9, 0.00984500
9460.13, 0.00876700
9477.42, 0.00761700
9494.78, 0.00668300
9512.2, 0.00560500
9529.69, 0.00467100
9547.24, 0.00395200
9564.86, 0.00359300
9582.54, 0.00330600
9600.28, 0.00309000
9618.1, 0.00294600
9635.97, 0.00323400
9653.92, 0.00366500
9671.93, 0.00416800
9690.01, 0.00474300
9708.16, 0.00574900
9726.37, 0.00704300
9744.65, 0.00898300
9763.0, 0.0114980
9781.43, 0.0148040
9799.92, 0.0191870
9818.48, 0.0244330
9837.1, 0.0304700
9855.8, 0.0382310
9874.58, 0.0470700
9893.42, 0.0569870
9912.34, 0.0674790
9931.33, 0.0776830
9950.39, 0.0873850
9969.52, 0.0994580
9988.74, 0.114765
10008.0, 0.130934
10027.4, 0.146456
10046.8, 0.161906
10066.3, 0.177141
10085.9, 0.192376
10105.6, 0.207180
10125.3, 0.221840
10145.1, 0.235494
10165.0, 0.248716
10185.0, 0.260574
10205.0, 0.270635
10225.2, 0.278468
10245.4, 0.284145
10265.7, 0.287307
10286.0, 0.288097
10306.5, 0.286588
10327.0, 0.283426
10347.6, 0.279186
10368.3, 0.274300
10389.1, 0.268982
10409.9, 0.264167
10430.9, 0.260502
10451.9, 0.257627
10473.0, 0.255184
10494.2, 0.253819
10515.5, 0.253244
10536.9, 0.253100
10558.4, 0.253747
10579.9, 0.255040
10601.5, 0.256262
10623.3, 0.257196
10645.1, 0.257556
10667.0, 0.257412
10689.0, 0.257196
10711.1, 0.256765
10733.2, 0.256046
10755.5, 0.255040
10777.9, 0.253962
10800.3, 0.252669
10822.9, 0.251016
10845.5, 0.249076
10868.2, 0.246920
10891.1, 0.244980
10914.0, 0.242608
10937.0, 0.239877
10960.2, 0.237650
10983.4, 0.236644
11006.7, 0.237290
11030.1, 0.239015
11053.6, 0.240309
11077.3, 0.240524
11101.0, 0.239518
11124.8, 0.237578
11148.7, 0.235278
11172.7, 0.233338
11196.9, 0.230751
11221.1, 0.227445
11245.4, 0.223205
11269.9, 0.217528
11294.4, 0.209479
11319.1, 0.198413
11343.9, 0.183178
11368.8, 0.164134
11393.7, 0.142791
11418.8, 0.121663
11444.0, 0.103482
11469.4, 0.0883190
11494.8, 0.0753120
11520.3, 0.0643890
11546.0, 0.0554060
11571.8, 0.0493700
11597.7, 0.0474290
11623.7, 0.0511660
11649.8, 0.0623770
11676.0, 0.0807020
11702.4, 0.102764
11728.9, 0.124250
11755.5, 0.142216
11782.2, 0.157020
11809.0, 0.168230
11836.0, 0.176854
11863.0, 0.183968
11890.3, 0.189933
11917.6, 0.194388
11945.0, 0.197622
11972.6, 0.198844
12000.4, 0.198269
12028.2, 0.195754
12056.2, 0.190651
12084.3, 0.181812
12112.5, 0.168805
12140.9, 0.154002
12169.4, 0.143222
12198.0, 0.141929
12226.8, 0.151558
12255.7, 0.166793
12284.7, 0.180447
12313.9, 0.188639
12343.2, 0.190867
12372.7, 0.187274
12402.3, 0.179153
12432.0, 0.168302
12461.9, 0.157595
12491.9, 0.148827
12522.1, 0.141354
12552.4, 0.134886
12582.9, 0.129712
12613.5, 0.125328
12644.3, 0.121735
12675.2, 0.118861
12706.3, 0.116561
12737.5, 0.114405
12768.9, 0.112896
12800.4, 0.111459
12832.1, 0.110093
12863.9, 0.109159
12895.9, 0.108656
12928.1, 0.107866
12960.4, 0.107794
12992.9, 0.108297
13025.5, 0.109016
13058.3, 0.109016
13091.3, 0.109087
13124.4, 0.109159
13157.8, 0.109159
13191.2, 0.109087
13224.9, 0.109519
13258.7, 0.110597
13292.7, 0.112034
13326.9, 0.113758
13361.2, 0.116130
13395.7, 0.118070
13430.4, 0.119220
13465.3, 0.120298
13500.4, 0.121807
13535.7, 0.123172
13571.1, 0.125688
13606.7, 0.128131
13642.5, 0.130287
13678.5, 0.132443
13714.7, 0.135317
13751.1, 0.138407
13787.6, 0.141426
13824.4, 0.144444
13861.4, 0.147390
13898.5, 0.149977
13935.9, 0.152636
13973.5, 0.154433
14011.2, 0.156445
14049.2, 0.157882
14087.4, 0.158744
14125.8, 0.159751
14164.3, 0.160828
14203.2, 0.161332
14242.2, 0.161763
14281.4, 0.161691
14320.9, 0.161906
14360.5, 0.161763
14400.4, 0.161547
14440.5, 0.161475
14480.9, 0.161547
14521.4, 0.161475
14562.2, 0.161906
14603.3, 0.162553
14644.5, 0.162625
14686.0, 0.162266
14727.7, 0.162050
14769.7, 0.161403
14811.9, 0.161116
14854.3, 0.160182
14897.0, 0.159248
14939.9, 0.156589
14983.1, 0.155223
15026.5, 0.156948
15070.2, 0.157020
15114.2, 0.155798
15158.3, 0.154864
15202.8, 0.153786
15247.5, 0.152780
15292.5, 0.151846
15337.7, 0.150911
15383.2, 0.149330
15429.0, 0.147462
15475.1, 0.145162
15521.4, 0.143150
15568.0, 0.140707
15614.9, 0.137545
15662.1, 0.134671
15709.6, 0.132874
15757.3, 0.130862
15805.4, 0.128850
15853.7, 0.127412
15902.3, 0.125328
15951.2, 0.121951
16000.5, 0.119651
16050.0, 0.116777
16099.8, 0.113615
16150.0, 0.110740
16200.5, 0.107794
16251.3, 0.105063
16302.4, 0.102835
16353.8, 0.0996020
16405.5, 0.0957930
16457.6, 0.0912650
16510.0, 0.0855880
16562.8, 0.0784740
16615.9, 0.0709280
16669.3, 0.0619460
16723.1, 0.0523160
16777.2, 0.0429020
16831.7, 0.0353560
16886.5, 0.0310450
16941.7, 0.0317630
16997.2, 0.0347810
17053.1, 0.0394530
17109.4, 0.0436210
17166.1, 0.0462800
17223.1, 0.0475010
17280.5, 0.0487230
17338.3, 0.0482920
17396.5, 0.0469260
17455.1, 0.0452730
17514.0, 0.0435490
17573.4, 0.0408900
17633.2, 0.0382310
17693.4, 0.0342070
17754.0, 0.0304700
17815.0, 0.0273800
17876.4, 0.0249360
17938.3, 0.0218460
18000.5, 0.0184690
18063.3, 0.0149470
18126.4, 0.0120730
18190.0, 0.00963000
18254.1, 0.00797700
18318.6, 0.00632400
18383.5, 0.00661100
18449.0, 0.00790500
18514.9, 0.0115700
18581.2, 0.0182530
18648.0, 0.0284580
18715.4, 0.0430460
18783.2, 0.0615860
18851.5, 0.0815640
18920.3, 0.100248
18989.6, 0.114477
19059.4, 0.125903
19129.7, 0.134096
19200.6, 0.140779
19272.0, 0.143007
19343.9, 0.143725
19416.3, 0.143725
19489.3, 0.143150
19562.8, 0.138048
19637.0, 0.130502
19711.6, 0.119076
19786.8, 0.104632
19862.6, 0.0896130
19939.0, 0.0761740
20016.0, 0.0633110
20093.6, 0.0546160
20171.8, 0.0472140
20250.6, 0.0401710
20330.0, 0.0334880
20410.0, 0.0278110
20490.7, 0.0242900
20572.0, 0.0316910
20654.0, 0.0493700
20736.6, 0.0703530
20819.9, 0.0826420
20903.8, 0.0823550
20988.5, 0.0706410
21073.8, 0.0583520
21159.8, 0.0469980
21246.5, 0.0391650
21334.0, 0.0339190
21422.1, 0.0296070
21511.0, 0.0231400
21600.7, 0.0208400
21691.0, 0.0245050
21782.1, 0.0398120
21874.0, 0.0642450
21966.7, 0.0921280
22060.2, 0.118717
22154.5, 0.141497
22249.6, 0.156804
22345.5, 0.168158
22442.2, 0.176063
22539.8, 0.183393
22638.2, 0.184902
22737.5, 0.183968
22837.7, 0.181453
22938.7, 0.177357
23040.7, 0.163990
23143.5, 0.143294
23247.3, 0.115771
23352.1, 0.0895410
23457.7, 0.0708570
23564.4, 0.0577060
23672.0, 0.0418960
23780.5, 0.0341350
23890.1, 0.0412490
24000.7, 0.0679820
24112.3, 0.103195
24225.0, 0.137761
24338.7, 0.160287
24453.5, 0.182107
24569.4, 0.198040
24686.4, 0.210688
24804.5, 0.220094
24923.8, 0.227026
25044.2, 0.231526
25165.8, 0.234854
25288.6, 0.237477
25412.5, 0.240356
25537.7, 0.243193
25664.1, 0.245219
25791.8, 0.246115
25920.8, 0.245177
26051.1, 0.243300
26182.6, 0.240058
26315.5, 0.233233
26449.8, 0.222014
26585.4, 0.203713
26722.5, 0.175324
26860.9, 0.144739
27000.8, 0.120530
27142.1, 0.102550
27285.0, 0.0875770
27429.4, 0.0743960
27575.3, 0.0622380
27722.7, 0.0505500
27871.8, 0.0443640
28022.4, 0.0583350
28174.7, 0.0991370
28328.7, 0.141774
28484.4, 0.161461
28641.7, 0.151329
28800.9, 0.122087
28961.8, 0.0947220
29124.5, 0.0763360
29289.0, 0.0626650
29455.4, 0.0514670
29623.8, 0.0412080
29794.0, 0.0322920
29966.3, 0.0275780
30140.5, 0.0326760
30316.7, 0.0564790
30495.1, 0.0932500
30675.5, 0.122876
30858.1, 0.135524
31042.8, 0.145805
31229.8, 0.168499
31419.1, 0.193731
31610.7, 0.209344
31804.6, 0.217193
32000.9, 0.221523
32199.7, 0.224978
32400.9, 0.227538
32604.8, 0.228988
32811.1, 0.229116
33020.1, 0.228071
33231.8, 0.225661
33446.2, 0.217577
33663.4, 0.201410
33883.4, 0.181041
34106.3, 0.162442
34332.1, 0.147981
34561.0, 0.137060
34792.9, 0.128720
35028.0, 0.122279
35266.3, 0.116414
35507.8, 0.111103
35752.7, 0.107050
36001.0, 0.104896
36252.8, 0.103040
36508.1, 0.0998840
36767.0, 0.0964070
37029.7, 0.0932080
37296.1, 0.0905420
37566.3, 0.0880670
37840.5, 0.0863820
38118.8, 0.0848040
38401.2, 0.0827780
38687.8, 0.0798770
38978.6, 0.0778510
39273.9, 0.0764430
39573.7, 0.0748650
39878.1, 0.0723270
40187.3, 0.0695110
40501.2, 0.0704280
40820.0, 0.0750350
41144.0, 0.0764860
41473.2, 0.0740760
41807.6, 0.0711750
42147.5, 0.0697030
42493.0, 0.0686150
42844.2, 0.0672500
43201.2, 0.0659280
43564.3, 0.0638380
43933.5, 0.0618750
44309.0, 0.0595930
44691.0, 0.0570340
45079.6, 0.0541330
45475.0, 0.0501230
45877.5, 0.0456440
46287.1, 0.0503360
46704.2, 0.0740760
47128.7, 0.0891130
47561.1, 0.0825220
48001.5, 0.0739480
48450.1, 0.0687860
48907.2, 0.0649680
49373.0, 0.0617690
49847.7, 0.0590170
50331.5, 0.0553910
50825.0, 0.0504430
51328.2, 0.0433410
51841.5, 0.0363020
52365.1, 0.0611290
52899.4, 0.123516
53444.8, 0.142904
54001.5, 0.115923
54570.1, 0.0946580
55150.6, 0.0848250
55743.6, 0.0801760
56349.5, 0.0771260
56968.7, 0.0751210
57601.7, 0.0738200
58248.9, 0.0719210
58910.9, 0.0705990
59588.1, 0.0694260
60281.0, 0.0684660
60990.2, 0.0679330
61716.3, 0.0664180
62459.8, 0.0646060
63221.6, 0.0597640
64002.1, 0.0570120
64802.1, 0.0577800
65622.1, 0.0669300
66463.4, 0.0750990
67326.6, 0.0733930
68212.4, 0.0709620
69121.9, 0.0691270
70056.0, 0.0683810
71015.7, 0.0657570
72002.0, 0.0636460
73016.3, 0.0603820
74059.4, 0.0572470
75132.7, 0.0665250
76237.6, 0.0777660
77375.5, 0.0760810
78547.9, 0.0748010
79756.3, 0.0754620
81002.5, 0.0761230
82288.5, 0.0743320
83615.7, 0.0754410
84986.5, 0.0768270
86402.9, 0.0794080
87867.4, 0.0807940
89382.4, 0.0802400
90950.5, 0.0781070
92574.6, 0.0794720
94257.2, 0.0801540
96002.7, 0.0809220
97814.1, 0.0825860
99695.1, 0.0855290
101650.0, 0.0867660
103683.0, 0.0880460
105799.0, 0.0881310
108003.0, 0.0886650
110301.0, 0.0904990
112699.0, 0.0930160
115204.0, 0.0955750
117822.0, 0.0987750
120562.0, 0.100182
123433.0, 0.0990730
126443.0, 0.0977720
129604.0, 0.103339
132926.0, 0.107626
136424.0, 0.107541
140111.0, 0.105216
144003.0, 0.110250
148118.0, 0.113769
152474.0, 0.121383
157095.0, 0.121383
162004.0, 0.122130
167231.0, 0.131941
172805.0, 0.138383
178764.0, 0.142371
185148.0, 0.144568
192005.0, 0.173917
199390.0, 0.139044
207366.0, 0.0977720
216006.0, 0.0935700
