Database of Origin, USGS Spectral Database
Sample Description, See USGS database for additional info
Date Added,2016-08-10 05:07:00.931547

Data ID,USGS_mas04          
Sample ID, agnite_gds65.13523
Mineral Name, mascagnite
Material Class,Sulfate

Wavelength
1469.02, 0.588117
1469.43, 0.587236
1469.85, 0.586355
1470.27, 0.585526
1470.68, 0.584801
1471.1, 0.584490
1471.52, 0.583712
1471.94, 0.582935
1472.35, 0.582209
1472.77, 0.581276
1473.19, 0.580655
1473.61, 0.580033
1474.03, 0.579255
1474.45, 0.578685
1474.87, 0.577960
1475.29, 0.577286
1475.71, 0.576871
1476.13, 0.576198
1476.55, 0.575368
1476.97, 0.574695
1477.39, 0.573606
1477.81, 0.572881
1478.23, 0.572259
1478.65, 0.571429
1479.07, 0.570808
1479.5, 0.570186
1479.92, 0.569149
1480.34, 0.568579
1480.76, 0.568424
1481.19, 0.567854
1481.61, 0.566817
1482.03, 0.566040
1482.46, 0.565677
1482.88, 0.564796
1483.31, 0.564174
1483.73, 0.563397
1484.16, 0.562464
1484.58, 0.561686
1485.01, 0.561116
1485.43, 0.560753
1485.86, 0.559769
1486.28, 0.558680
1486.71, 0.557955
1487.14, 0.556763
1487.56, 0.556141
1487.99, 0.555882
1488.42, 0.555260
1488.84, 0.554172
1489.27, 0.553239
1489.7, 0.552565
1490.13, 0.551788
1490.56, 0.550958
1490.98, 0.550077
1491.41, 0.549404
1491.84, 0.548937
1492.27, 0.547849
1492.7, 0.546709
1493.13, 0.545776
1493.56, 0.545154
1493.99, 0.544480
1494.42, 0.543496
1494.85, 0.542614
1495.29, 0.542044
1495.72, 0.541319
1496.15, 0.540334
1496.58, 0.539246
1497.01, 0.538468
1497.44, 0.537846
1497.88, 0.537121
1498.31, 0.536292
1498.74, 0.535152
1499.18, 0.534530
1499.61, 0.533856
1500.04, 0.532819
1500.48, 0.531679
1500.91, 0.530643
1501.35, 0.529762
1501.78, 0.529243
1502.22, 0.528570
1502.65, 0.527533
1503.09, 0.526393
1503.53, 0.525357
1503.96, 0.524527
1504.4, 0.523750
1504.83, 0.522662
1505.27, 0.521625
1505.71, 0.520537
1506.15, 0.519397
1506.58, 0.518619
1507.02, 0.517790
1507.46, 0.516805
1507.9, 0.515665
1508.34, 0.514577
1508.78, 0.513540
1509.21, 0.512711
1509.66, 0.511675
1510.09, 0.510534
1510.53, 0.509498
1510.97, 0.508150
1511.42, 0.506907
1511.86, 0.506129
1512.3, 0.505300
1512.74, 0.504108
1513.18, 0.503123
1513.62, 0.502139
1514.06, 0.501050
1514.51, 0.499962
1514.95, 0.498511
1515.39, 0.497423
1515.83, 0.496231
1516.28, 0.495039
1516.72, 0.493691
1517.16, 0.492603
1517.61, 0.491722
1518.05, 0.490737
1518.5, 0.489493
1518.94, 0.488198
1519.39, 0.487213
1519.83, 0.486228
1520.28, 0.484881
1520.73, 0.483430
1521.17, 0.482186
1521.62, 0.481201
1522.07, 0.480009
1522.51, 0.478817
1522.96, 0.477521
1523.41, 0.476226
1523.85, 0.474567
1524.3, 0.473220
1524.75, 0.472080
1525.2, 0.470784
1525.65, 0.469437
1526.1, 0.468504
1526.55, 0.467519
1527.0, 0.466016
1527.45, 0.464928
1527.9, 0.463477
1528.35, 0.462026
1528.8, 0.460574
1529.25, 0.459382
1529.7, 0.458242
1530.15, 0.456843
1530.6, 0.455547
1531.05, 0.454615
1531.51, 0.453371
1531.96, 0.451920
1532.41, 0.450935
1532.87, 0.449536
1533.32, 0.448085
1533.77, 0.446892
1534.23, 0.445804
1534.68, 0.444664
1535.14, 0.443524
1535.59, 0.442280
1536.05, 0.441036
1536.5, 0.439637
1536.96, 0.438497
1537.41, 0.437460
1537.87, 0.436216
1538.32, 0.435128
1538.78, 0.434092
1539.24, 0.432796
1539.7, 0.431448
1540.15, 0.430256
1540.61, 0.429272
1541.07, 0.428132
1541.53, 0.427095
1541.98, 0.425799
1542.44, 0.424556
1542.9, 0.423623
1543.36, 0.422586
1543.82, 0.421602
1544.28, 0.420669
1544.74, 0.419425
1545.2, 0.418077
1545.66, 0.417300
1546.12, 0.416419
1546.59, 0.415020
1547.05, 0.414087
1547.51, 0.412998
1547.97, 0.412325
1548.43, 0.411236
1548.9, 0.410044
1549.36, 0.408852
1549.82, 0.407868
1550.29, 0.406935
1550.75, 0.406106
1551.21, 0.405380
1551.68, 0.404551
1552.14, 0.403411
1552.61, 0.402530
1553.07, 0.401649
1553.54, 0.400871
1554.0, 0.399938
1554.47, 0.398954
1554.93, 0.398332
1555.4, 0.397503
1555.87, 0.396518
1556.34, 0.395481
1556.8, 0.394497
1557.27, 0.394082
1557.74, 0.393771
1558.21, 0.392787
1558.68, 0.391905
1559.14, 0.391335
1559.61, 0.390973
1560.08, 0.390454
1560.55, 0.389677
1561.02, 0.389107
1561.49, 0.388485
1561.96, 0.388019
1562.43, 0.387345
1562.9, 0.386878
1563.38, 0.386775
1563.85, 0.386412
1564.32, 0.385790
1564.79, 0.385479
1565.26, 0.385324
1565.74, 0.384805
1566.21, 0.384443
1566.68, 0.384183
1567.16, 0.383924
1567.63, 0.384028
1568.1, 0.384183
1568.58, 0.383873
1569.05, 0.383821
1569.53, 0.384028
1570.0, 0.383665
1570.48, 0.383613
1570.96, 0.383924
1571.43, 0.384235
1571.91, 0.384287
1572.39, 0.384132
1572.86, 0.384183
1573.34, 0.384598
1573.82, 0.384805
1574.3, 0.385116
1574.77, 0.385531
1575.25, 0.385842
1575.73, 0.385997
1576.21, 0.386360
1576.69, 0.386723
1577.17, 0.387241
1577.65, 0.387863
1578.13, 0.388381
1578.61, 0.388796
1579.09, 0.389055
1579.57, 0.389729
1580.05, 0.390610
1580.54, 0.391024
1581.02, 0.391439
1581.5, 0.391854
1581.98, 0.392268
1582.47, 0.393046
1582.95, 0.393875
1583.43, 0.394549
1583.92, 0.395326
1584.4, 0.395792
1584.88, 0.396311
1585.37, 0.396777
1585.85, 0.397555
1586.34, 0.398436
1586.82, 0.399265
1587.31, 0.400042
1587.8, 0.400820
1588.28, 0.401493
1588.77, 0.402374
1589.26, 0.403100
1589.74, 0.403618
1590.23, 0.404344
1590.72, 0.405380
1591.21, 0.406365
1591.7, 0.407453
1592.19, 0.408282
1592.67, 0.408852
1593.16, 0.409423
1593.65, 0.410096
1594.14, 0.411029
1594.63, 0.412221
1595.12, 0.412998
1595.61, 0.413620
1596.11, 0.414398
1596.6, 0.415434
1597.09, 0.416315
1597.58, 0.417248
1598.08, 0.418181
1598.57, 0.418751
1599.06, 0.419736
1599.55, 0.420565
1600.05, 0.421342
1600.54, 0.422327
1601.04, 0.423156
1601.53, 0.423726
1602.03, 0.424504
1602.52, 0.425489
1603.02, 0.426421
1603.51, 0.427147
1604.01, 0.428080
1604.5, 0.428753
1605.0, 0.429583
1605.5, 0.430516
1606.0, 0.431293
1606.49, 0.431915
1606.99, 0.432589
1607.49, 0.433470
1607.99, 0.434040
1608.49, 0.434662
1608.99, 0.435335
1609.49, 0.436165
1609.99, 0.436994
1610.49, 0.437719
1610.99, 0.438238
1611.49, 0.439015
1611.99, 0.440000
1612.49, 0.440673
1612.99, 0.441243
1613.49, 0.441710
1614.0, 0.442539
1614.5, 0.443576
1615.0, 0.444042
1615.51, 0.444509
1616.01, 0.445130
1616.51, 0.445856
1617.02, 0.446478
1617.52, 0.446944
1618.03, 0.447359
1618.53, 0.448292
1619.04, 0.448862
1619.54, 0.449328
1620.05, 0.449847
1620.55, 0.450468
1621.06, 0.451039
1621.57, 0.451453
1622.08, 0.452179
1622.58, 0.452801
1623.09, 0.453267
1623.6, 0.453837
1624.11, 0.454200
1624.62, 0.454615
1625.13, 0.454874
1625.64, 0.455236
1626.15, 0.455703
1626.66, 0.456273
1627.17, 0.456895
1627.68, 0.457258
1628.19, 0.457465
1628.7, 0.457828
1629.21, 0.458346
1629.72, 0.458864
1630.24, 0.459538
1630.75, 0.459849
1631.26, 0.460160
1631.78, 0.460419
1632.29, 0.460834
1632.8, 0.461145
1633.32, 0.461248
1633.83, 0.461456
1634.35, 0.461715
1634.86, 0.462077
1635.38, 0.462233
1635.9, 0.462440
1636.41, 0.463062
1636.93, 0.463580
1637.45, 0.463839
1637.96, 0.464254
1638.48, 0.464461
1639.0, 0.465187
1639.52, 0.465394
1640.04, 0.465602
1640.56, 0.465912
1641.08, 0.466223
1641.59, 0.466483
1642.11, 0.466638
1642.63, 0.467104
1643.16, 0.467882
1643.68, 0.468193
1644.2, 0.468348
1644.72, 0.468918
1645.24, 0.469437
1645.76, 0.469903
1646.29, 0.470214
1646.81, 0.470680
1647.33, 0.471147
1647.86, 0.471665
1648.38, 0.472235
1648.9, 0.472650
1649.43, 0.473116
1649.95, 0.473790
1650.48, 0.474308
1651.0, 0.474723
1651.53, 0.474982
1652.06, 0.475397
1652.58, 0.476174
1653.11, 0.476692
1653.64, 0.477055
1654.17, 0.477521
1654.69, 0.478092
1655.22, 0.478610
1655.75, 0.478973
1656.28, 0.479802
1656.81, 0.480320
1657.34, 0.480631
1657.87, 0.481357
1658.4, 0.482289
1658.93, 0.483067
1659.46, 0.483274
1659.99, 0.483792
1660.52, 0.484518
1661.05, 0.485192
1661.59, 0.485814
1662.12, 0.486487
1662.65, 0.487109
1663.19, 0.487576
1663.72, 0.488198
1664.26, 0.488923
1664.79, 0.489493
1665.32, 0.490063
1665.86, 0.490685
1666.39, 0.491359
1666.93, 0.492084
1667.47, 0.492758
1668.0, 0.493173
1668.54, 0.493743
1669.08, 0.494676
1669.61, 0.495712
1670.15, 0.496334
1670.69, 0.496697
1671.23, 0.497267
1671.77, 0.497785
1672.31, 0.498511
1672.85, 0.499081
1673.39, 0.499755
1673.93, 0.500273
1674.47, 0.500998
1675.01, 0.501776
1675.55, 0.502398
1676.09, 0.503071
1676.64, 0.503797
1677.18, 0.504367
1677.72, 0.504730
1678.26, 0.505248
1678.81, 0.506026
1679.35, 0.506388
1679.89, 0.506751
1680.44, 0.507321
1680.98, 0.507891
1681.53, 0.508461
1682.07, 0.509135
1682.62, 0.509653
1683.17, 0.510120
1683.71, 0.510742
1684.26, 0.511312
1684.81, 0.511986
1685.36, 0.512556
1685.9, 0.513022
1686.45, 0.513540
1687.0, 0.514110
1687.55, 0.514577
1688.1, 0.514940
1688.65, 0.515665
1689.2, 0.516287
1689.75, 0.516805
1690.3, 0.517220
1690.85, 0.517686
1691.41, 0.518308
1691.96, 0.518619
1692.51, 0.518982
1693.06, 0.519604
1693.61, 0.520174
1694.17, 0.520744
1694.72, 0.521262
1695.28, 0.521988
1695.83, 0.522402
1696.39, 0.522662
1696.94, 0.523076
1697.5, 0.523594
1698.05, 0.524216
1698.61, 0.524683
1699.17, 0.525097
1699.72, 0.525357
1700.28, 0.525719
1700.84, 0.526445
1701.4, 0.526911
1701.95, 0.527274
1702.51, 0.527585
1703.07, 0.527844
1703.63, 0.528311
1704.19, 0.528777
1704.75, 0.529295
1705.31, 0.529606
1705.88, 0.529917
1706.44, 0.530384
1707.0, 0.530954
1707.56, 0.531317
1708.12, 0.531679
1708.69, 0.531938
1709.25, 0.532249
1709.81, 0.532664
1710.38, 0.532923
1710.94, 0.533597
1711.51, 0.534011
1712.07, 0.534167
1712.64, 0.534426
1713.2, 0.534737
1713.77, 0.535100
1714.34, 0.535670
1714.9, 0.535929
1715.47, 0.536188
1716.04, 0.536551
1716.61, 0.536965
1717.18, 0.537484
1717.74, 0.537795
1718.31, 0.538002
1718.88, 0.538468
1719.45, 0.538831
1720.02, 0.538987
1720.59, 0.539401
1721.17, 0.539764
1721.74, 0.540230
1722.31, 0.540852
1722.88, 0.540956
1723.45, 0.541112
1724.03, 0.541422
1724.6, 0.541630
1725.18, 0.542044
1725.75, 0.542355
1726.33, 0.542666
1726.9, 0.543029
1727.48, 0.543340
1728.05, 0.543547
1728.63, 0.543755
1729.2, 0.544014
1729.78, 0.544169
1730.36, 0.544428
1730.94, 0.544791
1731.51, 0.544947
1732.09, 0.545206
1732.67, 0.545517
1733.25, 0.545724
1733.83, 0.545776
1734.41, 0.545983
1734.99, 0.546605
1735.57, 0.546760
1736.15, 0.547071
1736.73, 0.547279
1737.32, 0.547434
1737.9, 0.547797
1738.48, 0.548056
1739.07, 0.548263
1739.65, 0.548523
1740.23, 0.548834
1740.82, 0.548989
1741.4, 0.549196
1741.99, 0.549404
1742.57, 0.549404
1743.16, 0.549455
1743.74, 0.549663
1744.33, 0.549818
1744.92, 0.550077
1745.51, 0.550285
1746.09, 0.550440
1746.68, 0.550596
1747.27, 0.550907
1747.86, 0.551217
1748.45, 0.551269
1749.04, 0.551477
1749.63, 0.551373
1750.22, 0.551580
1750.81, 0.551736
1751.4, 0.551891
1751.99, 0.552047
1752.59, 0.551995
1753.18, 0.552047
1753.77, 0.552099
1754.37, 0.552202
1754.96, 0.552513
1755.56, 0.552669
1756.15, 0.552617
1756.74, 0.552617
1757.34, 0.552720
1757.94, 0.552772
1758.53, 0.552980
1759.13, 0.553291
1759.73, 0.553239
1760.32, 0.553239
1760.92, 0.553446
1761.52, 0.553394
1762.12, 0.553602
1762.72, 0.553653
1763.32, 0.553653
1763.92, 0.553809
1764.52, 0.553602
1765.12, 0.553653
1765.72, 0.553602
1766.32, 0.553653
1766.92, 0.553498
1767.53, 0.553342
1768.13, 0.553602
1768.73, 0.553602
1769.34, 0.553653
1769.94, 0.553964
1770.55, 0.553964
1771.15, 0.553757
1771.76, 0.553861
1772.36, 0.553602
1772.97, 0.553653
1773.57, 0.553809
1774.18, 0.553757
1774.79, 0.553861
1775.4, 0.553861
1776.0, 0.553550
1776.61, 0.553342
1777.22, 0.553602
1777.83, 0.553550
1778.44, 0.553342
1779.05, 0.553342
1779.66, 0.553342
1780.27, 0.553187
1780.88, 0.552928
1781.5, 0.552928
1782.11, 0.553239
1782.72, 0.552928
1783.33, 0.552565
1783.95, 0.552409
1784.56, 0.552358
1785.18, 0.552409
1785.79, 0.552565
1786.41, 0.552617
1787.02, 0.552202
1787.64, 0.552254
1788.26, 0.551736
1788.87, 0.551373
1789.49, 0.551321
1790.11, 0.551580
1790.73, 0.551477
1791.35, 0.551373
1791.96, 0.551425
1792.58, 0.551373
1793.21, 0.551166
1793.83, 0.551062
1794.45, 0.551114
1795.07, 0.550699
1795.69, 0.550544
1796.31, 0.550492
1796.93, 0.550181
1797.56, 0.549663
1798.18, 0.549611
1798.8, 0.549870
1799.43, 0.549974
1800.05, 0.549715
1800.68, 0.549455
1801.3, 0.549196
1801.93, 0.548885
1802.56, 0.548885
1803.18, 0.549041
1803.81, 0.548834
1804.44, 0.548678
1805.07, 0.548367
1805.7, 0.547642
1806.33, 0.547434
1806.95, 0.547693
1807.58, 0.547745
1808.22, 0.547849
1808.85, 0.547745
1809.48, 0.547538
1810.11, 0.546709
1810.74, 0.546294
1811.38, 0.546553
1812.01, 0.546294
1812.64, 0.545828
1813.28, 0.546190
1813.91, 0.546190
1814.55, 0.545465
1815.18, 0.544325
1815.82, 0.544480
1816.45, 0.545154
1817.09, 0.545206
1817.73, 0.544843
1818.36, 0.544480
1819.0, 0.544480
1819.64, 0.542770
1820.28, 0.540645
1820.92, 0.541422
1821.56, 0.541889
1822.2, 0.542563
1822.84, 0.543444
1823.48, 0.543703
1824.12, 0.543599
1824.76, 0.543236
1825.41, 0.540904
1826.05, 0.537743
1826.69, 0.539712
1827.34, 0.541889
1827.98, 0.540852
1828.63, 0.539920
1829.27, 0.540075
1829.92, 0.539764
1830.56, 0.538106
1831.21, 0.537898
1831.86, 0.539246
1832.5, 0.539194
1833.15, 0.539816
1833.8, 0.539609
1834.45, 0.537587
1835.1, 0.536292
1835.75, 0.534581
1836.4, 0.534219
1837.05, 0.534115
1837.7, 0.533286
1838.35, 0.536136
1839.01, 0.535307
1839.66, 0.532405
1840.31, 0.533649
1840.96, 0.533234
1841.62, 0.529658
1842.27, 0.531524
1842.93, 0.534737
1843.58, 0.535203
1844.24, 0.534996
1844.9, 0.534996
1845.55, 0.534271
1846.21, 0.530332
1846.87, 0.525978
1847.53, 0.526445
1848.18, 0.527430
1848.84, 0.530280
1849.5, 0.531317
1850.16, 0.530695
1850.82, 0.530746
1851.48, 0.531109
1852.14, 0.529399
1852.81, 0.526704
1853.47, 0.523698
1854.13, 0.524631
1854.8, 0.527740
1855.46, 0.527585
1856.12, 0.524268
1856.79, 0.523232
1857.45, 0.525305
1858.12, 0.526134
1858.79, 0.523750
1859.45, 0.519552
1860.12, 0.519811
1860.79, 0.522040
1861.46, 0.523232
1862.12, 0.523024
1862.79, 0.522402
1863.46, 0.520900
1864.13, 0.519759
1864.8, 0.520070
1865.48, 0.520278
1866.15, 0.519604
1866.82, 0.516702
1867.49, 0.512607
1868.16, 0.513437
1868.84, 0.515147
1869.51, 0.514110
1870.19, 0.510534
1870.86, 0.507477
1871.54, 0.510794
1872.21, 0.510120
1872.89, 0.505870
1873.56, 0.507321
1874.24, 0.509912
1874.92, 0.509446
1875.6, 0.509291
1876.28, 0.507528
1876.96, 0.505663
1877.64, 0.507373
1878.32, 0.508202
1879.0, 0.507788
1879.68, 0.506751
1880.36, 0.505455
1881.04, 0.504523
1881.73, 0.504212
1882.41, 0.503901
1883.09, 0.502398
1883.78, 0.499858
1884.46, 0.500169
1885.15, 0.500584
1885.83, 0.499910
1886.52, 0.498925
1887.21, 0.498511
1887.89, 0.498252
1888.58, 0.497526
1889.27, 0.495401
1889.96, 0.492862
1890.65, 0.493587
1891.34, 0.493432
1892.03, 0.492084
1892.72, 0.491773
1893.41, 0.491048
1894.1, 0.490737
1894.79, 0.490582
1895.49, 0.489908
1896.18, 0.488768
1896.87, 0.487472
1897.57, 0.485969
1898.26, 0.484777
1898.96, 0.481408
1899.65, 0.479180
1900.35, 0.480320
1901.05, 0.481719
1901.74, 0.481149
1902.44, 0.477988
1903.14, 0.477677
1903.84, 0.478713
1904.54, 0.475759
1905.24, 0.472961
1905.94, 0.473168
1906.64, 0.472909
1907.34, 0.474049
1908.04, 0.474308
1908.75, 0.473427
1909.45, 0.472494
1910.15, 0.471043
1910.86, 0.469437
1911.56, 0.468504
1912.27, 0.468245
1912.97, 0.465394
1913.68, 0.463839
1914.39, 0.464928
1915.09, 0.464772
1915.8, 0.463529
1916.51, 0.462907
1917.22, 0.462440
1917.93, 0.461766
1918.64, 0.460315
1919.35, 0.456947
1920.06, 0.453526
1920.77, 0.453267
1921.48, 0.455651
1922.19, 0.455807
1922.91, 0.454355
1923.62, 0.452231
1924.33, 0.451660
1925.05, 0.451505
1925.76, 0.450520
1926.48, 0.448758
1927.19, 0.447566
1927.91, 0.446011
1928.63, 0.444871
1929.35, 0.444560
1930.07, 0.443420
1930.78, 0.442228
1931.5, 0.441140
1932.22, 0.440103
1932.94, 0.438704
1933.66, 0.437149
1934.39, 0.436424
1935.11, 0.435646
1935.83, 0.433884
1936.55, 0.432485
1937.28, 0.431552
1938.0, 0.429894
1938.73, 0.428287
1939.45, 0.427251
1940.18, 0.426473
1940.9, 0.425074
1941.63, 0.423675
1942.36, 0.422379
1943.09, 0.420928
1943.81, 0.419321
1944.54, 0.417611
1945.27, 0.416212
1946.0, 0.415020
1946.73, 0.413569
1947.47, 0.411962
1948.2, 0.410355
1948.93, 0.408904
1949.66, 0.407298
1950.4, 0.405639
1951.13, 0.403981
1951.86, 0.402322
1952.6, 0.400405
1953.34, 0.398798
1954.07, 0.397140
1954.81, 0.395171
1955.55, 0.393046
1956.29, 0.391335
1957.02, 0.389936
1957.76, 0.388278
1958.5, 0.386360
1959.24, 0.384494
1959.98, 0.382525
1960.72, 0.380400
1961.47, 0.378431
1962.21, 0.376358
1962.95, 0.374285
1963.7, 0.372212
1964.44, 0.370139
1965.18, 0.368169
1965.93, 0.366148
1966.67, 0.363920
1967.42, 0.361743
1968.17, 0.359618
1968.92, 0.357338
1969.66, 0.355057
1970.41, 0.352881
1971.16, 0.350549
1971.91, 0.348165
1972.66, 0.345936
1973.41, 0.343604
1974.16, 0.341220
1974.92, 0.338940
1975.67, 0.336763
1976.42, 0.334327
1977.18, 0.331684
1977.93, 0.329248
1978.69, 0.326813
1979.44, 0.324325
1980.2, 0.321889
1980.95, 0.319298
1981.71, 0.316914
1982.47, 0.314374
1983.23, 0.311628
1983.99, 0.309036
1984.74, 0.306497
1985.51, 0.303646
1986.27, 0.300848
1987.03, 0.298257
1987.79, 0.295821
1988.55, 0.293178
1989.32, 0.290327
1990.08, 0.287580
1990.84, 0.284989
1991.61, 0.282139
1992.37, 0.279185
1993.14, 0.276386
1993.9, 0.273639
1994.67, 0.270996
1995.44, 0.268457
1996.21, 0.265866
1996.98, 0.263222
1997.75, 0.260528
1998.52, 0.257988
1999.29, 0.255397
2000.06, 0.252857
2000.83, 0.250318
2001.6, 0.248038
2002.38, 0.245757
2003.15, 0.243477
2003.93, 0.241352
2004.7, 0.239124
2005.48, 0.237102
2006.25, 0.235185
2007.03, 0.233060
2007.81, 0.231194
2008.58, 0.229484
2009.36, 0.227877
2010.14, 0.226426
2010.92, 0.225079
2011.7, 0.223524
2012.48, 0.222073
2013.26, 0.220725
2014.05, 0.219430
2014.83, 0.218290
2015.61, 0.217253
2016.4, 0.216009
2017.18, 0.214921
2017.97, 0.213884
2018.75, 0.213055
2019.54, 0.212278
2020.32, 0.211293
2021.11, 0.210360
2021.9, 0.209427
2022.69, 0.208598
2023.48, 0.207873
2024.27, 0.207303
2025.06, 0.206681
2025.85, 0.205903
2026.64, 0.204970
2027.44, 0.204297
2028.23, 0.203571
2029.02, 0.202897
2029.82, 0.202431
2030.61, 0.201757
2031.41, 0.201187
2032.2, 0.200617
2033.0, 0.200047
2033.8, 0.199529
2034.6, 0.199010
2035.4, 0.198544
2036.2, 0.198129
2037.0, 0.197818
2037.8, 0.197300
2038.6, 0.196886
2039.4, 0.196523
2040.2, 0.196160
2041.01, 0.195901
2041.81, 0.195486
2042.61, 0.195020
2043.42, 0.194450
2044.22, 0.194087
2045.03, 0.193932
2045.84, 0.193672
2046.65, 0.193569
2047.46, 0.193517
2048.26, 0.193206
2049.07, 0.192947
2049.88, 0.192895
2050.69, 0.192636
2051.51, 0.192377
2052.32, 0.192169
2053.13, 0.192066
2053.94, 0.191962
2054.76, 0.191703
2055.57, 0.191444
2056.39, 0.191237
2057.2, 0.191081
2058.02, 0.190770
2058.84, 0.190718
2059.66, 0.190615
2060.48, 0.190356
2061.29, 0.189889
2062.11, 0.189734
2062.94, 0.189423
2063.76, 0.189112
2064.58, 0.189060
2065.4, 0.188904
2066.22, 0.188490
2067.05, 0.188231
2067.87, 0.188023
2068.7, 0.187712
2069.52, 0.187298
2070.35, 0.186935
2071.18, 0.186469
2072.0, 0.186054
2072.83, 0.185743
2073.66, 0.185225
2074.49, 0.184758
2075.32, 0.184240
2076.15, 0.183670
2076.98, 0.183100
2077.82, 0.182478
2078.65, 0.181856
2079.48, 0.181234
2080.32, 0.180509
2081.15, 0.179990
2081.99, 0.179576
2082.83, 0.178747
2083.66, 0.177814
2084.5, 0.177140
2085.34, 0.176622
2086.18, 0.176000
2087.02, 0.175223
2087.86, 0.174341
2088.7, 0.173564
2089.54, 0.172890
2090.39, 0.172320
2091.23, 0.171543
2092.07, 0.170714
2092.92, 0.169884
2093.76, 0.169055
2094.61, 0.168433
2095.45, 0.167656
2096.3, 0.166930
2097.15, 0.166153
2098.0, 0.165168
2098.85, 0.164339
2099.7, 0.163717
2100.55, 0.162992
2101.4, 0.162111
2102.25, 0.161333
2103.1, 0.160452
2103.96, 0.159778
2104.81, 0.158897
2105.67, 0.157913
2106.52, 0.156928
2107.38, 0.156047
2108.24, 0.155218
2109.09, 0.154389
2109.95, 0.153559
2110.81, 0.152782
2111.67, 0.151953
2112.53, 0.151072
2113.39, 0.150346
2114.25, 0.149724
2115.12, 0.148895
2115.98, 0.147910
2116.84, 0.147081
2117.71, 0.146459
2118.58, 0.145837
2119.44, 0.145371
2120.31, 0.144749
2121.18, 0.144023
2122.04, 0.143298
2122.91, 0.142780
2123.78, 0.142365
2124.65, 0.141950
2125.52, 0.141380
2126.4, 0.140862
2127.27, 0.140447
2128.14, 0.140344
2129.02, 0.140085
2129.89, 0.139774
2130.77, 0.139566
2131.64, 0.139359
2132.52, 0.139100
2133.4, 0.138996
2134.27, 0.138893
2135.15, 0.138737
2136.03, 0.138685
2136.91, 0.138737
2137.79, 0.138634
2138.68, 0.138737
2139.56, 0.138893
2140.44, 0.138893
2141.33, 0.138945
2142.21, 0.139048
2143.1, 0.139048
2143.99, 0.139048
2144.87, 0.139255
2145.76, 0.139515
2146.65, 0.139722
2147.54, 0.139826
2148.43, 0.140188
2149.32, 0.140447
2150.21, 0.140707
2151.1, 0.140914
2151.99, 0.141277
2152.89, 0.141847
2153.78, 0.142210
2154.68, 0.142624
2155.57, 0.142935
2156.47, 0.143298
2157.37, 0.143920
2158.27, 0.144594
2159.16, 0.145164
2160.06, 0.145682
2160.96, 0.146096
2161.86, 0.146718
2162.77, 0.147392
2163.67, 0.148118
2164.57, 0.148791
2165.48, 0.149465
2166.38, 0.150139
2167.29, 0.150761
2168.2, 0.151642
2169.1, 0.152316
2170.01, 0.153145
2170.92, 0.154026
2171.83, 0.154855
2172.74, 0.155632
2173.65, 0.156513
2174.56, 0.157343
2175.47, 0.158224
2176.39, 0.159260
2177.3, 0.160089
2178.22, 0.161022
2179.13, 0.162111
2180.05, 0.163199
2180.96, 0.164132
2181.88, 0.165116
2182.8, 0.166101
2183.72, 0.167293
2184.64, 0.168330
2185.56, 0.169211
2186.48, 0.170195
2187.41, 0.171232
2188.33, 0.172320
2189.25, 0.173409
2190.18, 0.174393
2191.1, 0.175689
2192.03, 0.176881
2192.96, 0.177866
2193.89, 0.178850
2194.82, 0.179990
2195.74, 0.181079
2196.68, 0.182063
2197.61, 0.183048
2198.54, 0.184344
2199.47, 0.185536
2200.4, 0.186469
2201.34, 0.187609
2202.28, 0.188801
2203.21, 0.189785
2204.15, 0.190926
2205.08, 0.191910
2206.02, 0.192999
2206.96, 0.194191
2207.9, 0.195227
2208.84, 0.196160
2209.78, 0.197197
2210.73, 0.198181
2211.67, 0.199321
2212.61, 0.200565
2213.56, 0.201550
2214.5, 0.202431
2215.45, 0.203467
2216.4, 0.204452
2217.35, 0.205540
2218.3, 0.206681
2219.24, 0.207665
2220.2, 0.208546
2221.15, 0.209583
2222.1, 0.210723
2223.05, 0.211760
2224.0, 0.212900
2224.96, 0.213936
2225.91, 0.214817
2226.87, 0.215698
2227.83, 0.216631
2228.79, 0.217616
2229.74, 0.218652
2230.7, 0.219689
2231.66, 0.220414
2232.63, 0.221555
2233.59, 0.222643
2234.55, 0.223472
2235.51, 0.224457
2236.48, 0.225649
2237.44, 0.226634
2238.41, 0.227515
2239.38, 0.228655
2240.34, 0.229639
2241.31, 0.230469
2242.28, 0.231505
2243.25, 0.232438
2244.22, 0.233423
2245.19, 0.234459
2246.17, 0.235496
2247.14, 0.236480
2248.12, 0.237361
2249.09, 0.238450
2250.07, 0.239486
2251.04, 0.240523
2252.02, 0.241611
2253.0, 0.242544
2253.98, 0.243581
2254.96, 0.244513
2255.94, 0.245550
2256.92, 0.246638
2257.91, 0.247467
2258.89, 0.248452
2259.88, 0.249540
2260.86, 0.250525
2261.85, 0.251354
2262.83, 0.252443
2263.82, 0.253583
2264.81, 0.254464
2265.8, 0.255345
2266.79, 0.256330
2267.78, 0.257418
2268.78, 0.258299
2269.77, 0.259232
2270.76, 0.260165
2271.76, 0.261149
2272.75, 0.262082
2273.75, 0.263119
2274.75, 0.264155
2275.75, 0.264933
2276.75, 0.265762
2277.75, 0.266747
2278.75, 0.267731
2279.75, 0.268664
2280.75, 0.269493
2281.76, 0.270323
2282.76, 0.271204
2283.77, 0.272136
2284.77, 0.273069
2285.78, 0.274002
2286.79, 0.274831
2287.8, 0.275661
2288.81, 0.276645
2289.82, 0.277630
2290.83, 0.278459
2291.84, 0.279340
2292.86, 0.280169
2293.87, 0.280999
2294.89, 0.281776
2295.91, 0.282553
2296.92, 0.283383
2297.94, 0.284264
2298.96, 0.285093
2299.98, 0.285922
2301.0, 0.286699
2302.02, 0.287425
2303.04, 0.288202
2304.07, 0.289032
2305.09, 0.289861
2306.12, 0.290638
2307.15, 0.291571
2308.17, 0.292400
2309.2, 0.293022
2310.23, 0.293748
2311.26, 0.294525
2312.29, 0.295199
2313.32, 0.296080
2314.35, 0.297013
2315.39, 0.297583
2316.42, 0.298257
2317.46, 0.298982
2318.5, 0.299863
2319.53, 0.300641
2320.57, 0.301211
2321.61, 0.301988
2322.65, 0.302817
2323.69, 0.303491
2324.73, 0.304372
2325.78, 0.305201
2326.82, 0.305979
2327.86, 0.306756
2328.91, 0.307689
2329.96, 0.308622
2331.01, 0.309606
2332.05, 0.310436
2333.1, 0.311368
2334.15, 0.312457
2335.21, 0.313441
2336.26, 0.314063
2337.31, 0.315048
2338.36, 0.316292
2339.42, 0.317432
2340.48, 0.318261
2341.53, 0.319090
2342.59, 0.320282
2343.65, 0.321526
2344.71, 0.322615
2345.77, 0.323599
2346.83, 0.324532
2347.9, 0.325621
2348.96, 0.326605
2350.02, 0.327694
2351.09, 0.328782
2352.16, 0.330129
2353.23, 0.331373
2354.29, 0.332306
2355.36, 0.333187
2356.43, 0.334224
2357.51, 0.335208
2358.58, 0.336297
2359.65, 0.337489
2360.73, 0.338525
2361.8, 0.339510
2362.88, 0.340546
2363.96, 0.341635
2365.03, 0.342775
2366.11, 0.343759
2367.19, 0.344744
2368.27, 0.345729
2369.36, 0.346765
2370.44, 0.347854
2371.53, 0.348994
2372.61, 0.350082
2373.7, 0.351067
2374.78, 0.352103
2375.87, 0.353140
2376.96, 0.354228
2378.05, 0.355161
2379.14, 0.356146
2380.24, 0.357286
2381.33, 0.358582
2382.42, 0.359722
2383.52, 0.360758
2384.61, 0.362002
2385.71, 0.363090
2386.81, 0.364231
2387.91, 0.365423
2389.01, 0.366718
2390.11, 0.367858
2391.22, 0.368999
2392.32, 0.370191
2393.42, 0.371383
2394.53, 0.372678
2395.64, 0.373870
2396.74, 0.374958
2397.85, 0.376254
2398.96, 0.377343
2400.07, 0.378586
2401.18, 0.379882
2402.3, 0.380970
2403.41, 0.382162
2404.52, 0.383406
2405.64, 0.384598
2406.76, 0.385635
2407.88, 0.386878
2408.99, 0.388019
2410.11, 0.389055
2411.23, 0.390351
2412.36, 0.391595
2413.48, 0.392631
2414.6, 0.393564
2415.73, 0.394704
2416.85, 0.395689
2417.98, 0.396570
2419.11, 0.397658
2420.24, 0.398643
2421.37, 0.399524
2422.5, 0.400560
2423.64, 0.401338
2424.77, 0.402271
2425.9, 0.403100
2427.04, 0.403774
2428.18, 0.404603
2429.31, 0.405276
2430.45, 0.405847
2431.59, 0.406572
2432.73, 0.407194
2433.88, 0.407764
2435.02, 0.408282
2436.16, 0.408852
2437.31, 0.409423
2438.45, 0.410096
2439.6, 0.410563
2440.75, 0.410822
2441.9, 0.411081
2443.05, 0.411444
2444.2, 0.411807
2445.35, 0.412066
2446.51, 0.412169
2447.67, 0.412584
2448.82, 0.413160
2449.98, 0.413318
2451.14, 0.413108
2452.3, 0.413422
2453.46, 0.413632
2454.62, 0.414051
2455.78, 0.413842
2456.94, 0.413265
2458.11, 0.413318
2459.28, 0.413632
2460.44, 0.413475
2461.61, 0.413475
2462.78, 0.413475
2463.95, 0.413213
2465.12, 0.412689
2466.3, 0.412689
2467.47, 0.412636
2468.65, 0.412427
2469.82, 0.411903
2471.0, 0.411431
2472.18, 0.411221
2473.36, 0.410749
2474.54, 0.410330
2475.72, 0.410278
2476.9, 0.409911
2478.08, 0.409387
2479.27, 0.408863
2480.46, 0.408286
2481.64, 0.407552
2482.83, 0.406923
2484.02, 0.406347
2485.21, 0.405980
2486.4, 0.405928
2487.6, 0.405666
2488.79, 0.404932
2489.99, 0.404303
2491.18, 0.403569
2492.38, 0.402678
2493.58, 0.401997
2494.78, 0.401473
2495.98, 0.400949
2497.18, 0.400372
2498.39, 0.399953
2499.59, 0.399376
2500.8, 0.398433
2502.01, 0.397699
2503.21, 0.397175
2504.42, 0.396179
2505.63, 0.395393
2506.84, 0.394816
2508.06, 0.394292
2509.27, 0.393611
2510.49, 0.392458
2511.7, 0.391829
2512.92, 0.391043
2514.14, 0.390361
2515.36, 0.389051
2516.58, 0.387950
2517.8, 0.387112
2519.03, 0.386378
2520.25, 0.385644
2521.48, 0.384649
2522.7, 0.383600
2523.93, 0.382971
2525.16, 0.382185
2526.39, 0.380875
2527.62, 0.379722
2528.86, 0.378726
2530.09, 0.377625
2531.33, 0.376420
2532.56, 0.375424
2533.8, 0.374795
2535.04, 0.373223
2536.28, 0.372332
2537.52, 0.371755
2538.76, 0.370917
2540.01, 0.369397
2541.25, 0.368139
2542.5, 0.366671
2543.75, 0.365571
2544.99, 0.364837
2546.24, 0.363841
2547.49, 0.362321
2548.75, 0.361325
2550.0, 0.359805
2551.26, 0.358233
2552.51, 0.357028
2553.77, 0.356608
2555.03, 0.356032
2556.29, 0.355141
2557.55, 0.353831
2558.81, 0.352101
2560.08, 0.349428
2561.34, 0.347122
2562.61, 0.345969
2563.88, 0.345183
2565.14, 0.345287
2566.41, 0.345130
2567.68, 0.343348
2568.96, 0.340937
2570.23, 0.340046
2571.51, 0.339470
2572.78, 0.336692
2574.06, 0.335749
2575.34, 0.335172
2576.62, 0.333285
2577.9, 0.332551
2579.18, 0.331922
2580.47, 0.329931
2581.75, 0.328411
2583.04, 0.325843
2584.32, 0.324637
2585.61, 0.324166
2586.9, 0.322069
2588.2, 0.321073
2589.49, 0.320811
2590.78, 0.320444
2592.08, 0.318086
2593.37, 0.312792
2594.67, 0.308966
2595.97, 0.311220
2597.27, 0.313054
2598.57, 0.312740
2599.88, 0.311010
2601.18, 0.308966
2602.49, 0.307184
2603.79, 0.304773
2605.1, 0.302258
2606.41, 0.301733
2607.72, 0.301576
2609.03, 0.300633
2610.35, 0.300056
2611.66, 0.298851
2612.98, 0.297226
2614.3, 0.295863
2615.62, 0.292928
2616.94, 0.290884
2618.26, 0.290779
2619.58, 0.288788
2620.91, 0.288211
2622.23, 0.288526
2623.56, 0.287268
2624.89, 0.284804
2626.22, 0.281765
2627.55, 0.281188
2628.88, 0.279406
2630.21, 0.276786
2631.55, 0.276786
2632.89, 0.275947
2634.22, 0.274689
2635.56, 0.274008
2636.9, 0.272907
2638.25, 0.271492
2639.59, 0.269762
2640.93, 0.268085
2642.28, 0.266460
2643.63, 0.264783
2644.98, 0.262425
2646.33, 0.261010
2647.68, 0.260381
2649.03, 0.259018
2650.39, 0.257131
2651.74, 0.254773
2653.1, 0.253148
2654.46, 0.251785
2655.82, 0.250423
2657.18, 0.249322
2658.54, 0.247225
2659.9, 0.245286
2661.27, 0.243609
2662.64, 0.241879
2664.01, 0.238577
2665.38, 0.235695
2666.74, 0.234332
2668.12, 0.233860
2669.49, 0.230768
2670.87, 0.229353
2672.24, 0.229825
2673.62, 0.227990
2675.0, 0.225265
2676.38, 0.222592
2677.76, 0.221124
2679.15, 0.219919
2680.54, 0.219290
2681.92, 0.217770
2683.31, 0.215569
2684.7, 0.213682
2686.09, 0.211900
2687.48, 0.210223
2688.88, 0.208493
2690.27, 0.206606
2691.67, 0.204353
2693.07, 0.201522
2694.47, 0.199478
2695.87, 0.198221
2697.27, 0.197068
2698.67, 0.195286
2700.08, 0.193084
2701.49, 0.190935
2702.9, 0.189258
2704.31, 0.187581
2705.72, 0.185642
2707.13, 0.183388
2708.54, 0.180872
2709.96, 0.178147
2711.38, 0.176784
2712.8, 0.175998
2714.22, 0.174111
2715.64, 0.172120
2717.06, 0.170023
2718.49, 0.167717
2719.91, 0.164782
2721.34, 0.163262
2722.77, 0.161952
2724.2, 0.159698
2725.63, 0.158493
2727.07, 0.157392
2728.5, 0.155872
2729.94, 0.154195
2731.38, 0.152360
2732.82, 0.150578
2734.26, 0.148587
2735.7, 0.147172
2737.15, 0.145442
2738.59, 0.142874
2740.04, 0.140987
2741.49, 0.139834
2742.94, 0.138838
2744.39, 0.137738
2745.84, 0.136532
2747.3, 0.135117
2748.76, 0.133545
2750.21, 0.131920
2751.67, 0.130452
2753.14, 0.128880
2754.6, 0.126574
2756.06, 0.125316
2757.53, 0.124687
2759.0, 0.123429
2760.46, 0.121857
2761.94, 0.120337
2763.41, 0.119184
2764.88, 0.118083
2766.36, 0.116721
2767.83, 0.115410
2769.31, 0.114257
2770.79, 0.112999
2772.27, 0.112161
2773.76, 0.111113
2775.24, 0.110012
2776.73, 0.108806
2778.22, 0.107653
2779.71, 0.106395
2781.2, 0.105033
2782.69, 0.103827
2784.18, 0.102727
2785.68, 0.101469
2787.18, 0.100368
2788.68, 0.0994770
2790.18, 0.0985860
2791.68, 0.0974860
2793.19, 0.0964900
2794.69, 0.0955460
2796.2, 0.0944980
2797.71, 0.0932930
2799.22, 0.0922440
2800.73, 0.0913010
2802.24, 0.0900430
2803.76, 0.0887850
2805.28, 0.0880510
2806.8, 0.0872650
2808.32, 0.0863740
2809.84, 0.0853260
2811.36, 0.0841210
2812.89, 0.0830200
2814.42, 0.0821290
2815.94, 0.0811330
2817.48, 0.0800850
2819.01, 0.0790370
2820.54, 0.0780930
2822.08, 0.0772020
2823.61, 0.0762060
2825.15, 0.0754730
2826.69, 0.0745820
2828.23, 0.0733240
2829.78, 0.0723800
2831.32, 0.0714370
2832.87, 0.0705460
2834.42, 0.0698120
2835.97, 0.0687640
2837.52, 0.0678730
2839.08, 0.0671920
2840.63, 0.0664580
2842.19, 0.0654620
2843.75, 0.0643610
2845.31, 0.0634700
2846.87, 0.0628410
2848.44, 0.0620030
2850.0, 0.0609550
2851.57, 0.0601160
2853.14, 0.0593820
2854.71, 0.0586490
2856.28, 0.0579670
2857.86, 0.0572330
2859.43, 0.0562900
2861.01, 0.0553990
2862.59, 0.0547700
2864.17, 0.0542460
2865.76, 0.0533550
2867.34, 0.0524120
2868.93, 0.0515210
2870.52, 0.0507870
2872.11, 0.0501050
2873.7, 0.0495290
2875.29, 0.0488480
2876.89, 0.0481140
2878.49, 0.0474850
2880.08, 0.0469080
2881.69, 0.0460700
2883.29, 0.0452310
2884.89, 0.0443930
2886.5, 0.0437110
2888.11, 0.0429770
2889.72, 0.0424010
2891.33, 0.0418770
2892.94, 0.0410910
2894.56, 0.0404620
2896.17, 0.0396230
2897.79, 0.0387850
2899.42, 0.0380510
2901.04, 0.0373170
2902.66, 0.0366880
2904.29, 0.0361120
2905.92, 0.0356400
2907.55, 0.0349590
2909.18, 0.0341720
2910.81, 0.0337010
2912.45, 0.0332810
2914.08, 0.0323900
2915.72, 0.0314990
2917.36, 0.0307660
2919.01, 0.0301890
2920.65, 0.0294550
2922.3, 0.0286690
2923.94, 0.0282500
2925.59, 0.0277260
2927.25, 0.0268870
2928.9, 0.0262580
2930.56, 0.0255770
2932.21, 0.0249480
2933.87, 0.0243710
2935.53, 0.0237950
2937.2, 0.0232180
2938.86, 0.0226940
2940.53, 0.0221180
2942.2, 0.0214890
2943.87, 0.0210170
2945.54, 0.0203880
2947.22, 0.0197590
2948.89, 0.0191830
2950.57, 0.0186590
2952.25, 0.0182390
2953.93, 0.0177680
2955.62, 0.0171390
2957.3, 0.0164570
2958.99, 0.0160380
2960.68, 0.0157760
2962.37, 0.0153570
2964.07, 0.0149900
2965.76, 0.0146230
2967.46, 0.0140990
2969.16, 0.0137320
2970.86, 0.0133650
2972.56, 0.0130500
2974.27, 0.0127360
2975.98, 0.0123690
2977.69, 0.0120020
2979.4, 0.0116350
2981.11, 0.0113730
2982.83, 0.0111110
2984.54, 0.0107970
2986.26, 0.0105350
2987.98, 0.0106400
2989.71, 0.0104300
2991.43, 0.0101150
2993.16, 0.00974900
2994.89, 0.00959100
2996.62, 0.00959100
2998.35, 0.00959100
3000.09, 0.00969600
3001.83, 0.00964400
3003.57, 0.00948600
3005.31, 0.00943400
3007.05, 0.00964400
3008.79, 0.00980100
3010.54, 0.00985300
3012.29, 0.0100110
3014.04, 0.0101680
3015.8, 0.0102730
3017.55, 0.0104300
3019.31, 0.0108490
3021.07, 0.0112680
3022.83, 0.0114780
3024.59, 0.0115830
3026.36, 0.0117400
3028.13, 0.0120550
3029.9, 0.0122640
3031.67, 0.0124220
3033.44, 0.0128410
3035.22, 0.0131550
3037.0, 0.0133130
3038.78, 0.0135220
3040.56, 0.0138890
3042.34, 0.0140990
3044.13, 0.0143610
3045.92, 0.0146230
3047.71, 0.0150420
3049.5, 0.0154090
3051.3, 0.0155660
3053.09, 0.0158810
3054.89, 0.0162480
3056.69, 0.0165620
3058.5, 0.0169810
3060.3, 0.0174530
3062.11, 0.0177680
3063.92, 0.0180300
3065.73, 0.0183440
3067.55, 0.0186060
3069.36, 0.0190250
3071.18, 0.0194970
3073.0, 0.0198640
3074.82, 0.0201260
3076.65, 0.0205450
3078.48, 0.0209120
3080.31, 0.0213840
3082.14, 0.0218560
3083.97, 0.0221700
3085.8, 0.0224850
3087.64, 0.0228510
3089.48, 0.0232180
3091.33, 0.0237420
3093.17, 0.0241090
3095.02, 0.0243190
3096.87, 0.0246330
3098.72, 0.0250000
3100.57, 0.0252100
3102.43, 0.0254720
3104.28, 0.0257340
3106.14, 0.0260490
3108.01, 0.0263110
3109.87, 0.0265200
3111.74, 0.0266250
3113.61, 0.0267820
3115.48, 0.0270440
3117.35, 0.0272020
3119.23, 0.0273060
3121.1, 0.0274640
3122.98, 0.0273590
3124.87, 0.0275160
3126.75, 0.0277260
3128.64, 0.0278310
3130.53, 0.0280400
3132.42, 0.0281970
3134.31, 0.0283020
3136.21, 0.0283020
3138.11, 0.0283020
3140.01, 0.0281450
3141.91, 0.0280400
3143.82, 0.0281450
3145.73, 0.0284070
3147.64, 0.0283550
3149.55, 0.0281970
3151.46, 0.0281970
3153.38, 0.0281450
3155.3, 0.0279880
3157.22, 0.0280400
3159.14, 0.0280400
3161.07, 0.0280400
3163.0, 0.0278830
3164.93, 0.0277780
3166.86, 0.0278310
3168.8, 0.0277780
3170.74, 0.0277780
3172.68, 0.0278310
3174.62, 0.0277780
3176.56, 0.0277780
3178.51, 0.0277260
3180.46, 0.0276730
3182.42, 0.0275680
3184.37, 0.0274110
3186.33, 0.0273590
3188.29, 0.0273590
3190.25, 0.0274110
3192.21, 0.0274110
3194.18, 0.0273060
3196.15, 0.0272020
3198.12, 0.0270970
3200.09, 0.0268350
3202.07, 0.0268350
3204.05, 0.0269920
3206.03, 0.0270970
3208.02, 0.0270440
3210.0, 0.0270440
3211.99, 0.0270440
3213.98, 0.0269400
3215.98, 0.0268870
3217.97, 0.0269400
3219.97, 0.0269920
3221.97, 0.0269920
3223.98, 0.0270970
3225.98, 0.0269920
3227.99, 0.0268870
3230.0, 0.0270440
3232.02, 0.0273060
3234.03, 0.0272540
3236.05, 0.0272540
3238.07, 0.0272540
3240.1, 0.0273060
3242.12, 0.0273060
3244.15, 0.0274640
3246.18, 0.0277780
3248.22, 0.0278830
3250.25, 0.0279350
3252.29, 0.0280930
3254.33, 0.0283020
3256.38, 0.0284070
3258.43, 0.0285640
3260.47, 0.0288260
3262.53, 0.0289310
3264.58, 0.0290360
3266.64, 0.0291930
3268.7, 0.0293500
3270.76, 0.0294550
3272.82, 0.0296130
3274.89, 0.0298220
3276.96, 0.0299790
3279.04, 0.0301890
3281.11, 0.0302410
3283.19, 0.0302410
3285.27, 0.0304510
3287.35, 0.0306610
3289.44, 0.0306610
3291.53, 0.0307130
3293.62, 0.0309230
3295.71, 0.0311850
3297.81, 0.0312900
3299.91, 0.0310800
3302.01, 0.0310800
3304.11, 0.0312900
3306.22, 0.0313950
3308.33, 0.0315520
3310.44, 0.0315520
3312.56, 0.0314990
3314.68, 0.0316040
3316.8, 0.0316040
3318.92, 0.0316040
3321.05, 0.0317610
3323.18, 0.0317610
3325.31, 0.0317090
3327.44, 0.0317090
3329.58, 0.0318140
3331.72, 0.0318140
3333.86, 0.0319190
3336.01, 0.0320760
3338.16, 0.0321280
3340.31, 0.0320760
3342.46, 0.0320760
3344.61, 0.0321810
3346.77, 0.0320760
3348.94, 0.0319190
3351.1, 0.0319710
3353.27, 0.0320760
3355.44, 0.0319710
3357.61, 0.0319190
3359.79, 0.0319190
3361.97, 0.0317610
3364.15, 0.0317090
3366.33, 0.0318140
3368.52, 0.0317610
3370.71, 0.0317610
3372.9, 0.0318140
3375.1, 0.0317610
3377.3, 0.0317610
3379.5, 0.0318660
3381.71, 0.0319710
3383.91, 0.0319190
3386.12, 0.0318140
3388.34, 0.0317090
3390.55, 0.0317090
3392.77, 0.0316040
3394.99, 0.0314990
3397.22, 0.0314990
3399.45, 0.0314470
3401.68, 0.0314990
3403.91, 0.0315520
3406.15, 0.0314470
3408.39, 0.0314990
3410.63, 0.0314470
3412.87, 0.0312900
3415.12, 0.0312370
3417.37, 0.0311850
3419.63, 0.0312900
3421.88, 0.0312900
3424.14, 0.0312900
3426.41, 0.0313420
3428.67, 0.0312900
3430.94, 0.0312900
3433.21, 0.0313420
3435.49, 0.0313420
3437.77, 0.0311320
3440.05, 0.0311320
3442.33, 0.0311850
3444.62, 0.0310280
3446.91, 0.0309230
3449.2, 0.0309230
3451.5, 0.0308700
3453.8, 0.0309230
3456.1, 0.0310280
3458.41, 0.0310800
3460.72, 0.0310280
3463.03, 0.0309750
3465.34, 0.0309230
3467.66, 0.0309750
3469.98, 0.0310280
3472.31, 0.0310800
3474.63, 0.0311850
3476.96, 0.0311320
3479.3, 0.0309750
3481.64, 0.0310800
3483.97, 0.0312370
3486.32, 0.0312900
3488.66, 0.0312900
3491.01, 0.0312900
3493.36, 0.0311850
3495.72, 0.0311850
3498.08, 0.0312900
3500.44, 0.0312370
3502.81, 0.0312900
3505.18, 0.0314990
3507.55, 0.0315520
3509.92, 0.0316570
3512.3, 0.0316570
3514.68, 0.0316570
3517.06, 0.0316040
3519.45, 0.0317090
3521.84, 0.0318660
3524.24, 0.0319190
3526.64, 0.0320230
3529.04, 0.0320230
3531.44, 0.0320760
3533.85, 0.0321810
3536.26, 0.0322860
3538.67, 0.0322860
3541.09, 0.0323380
3543.51, 0.0324430
3545.93, 0.0324950
3548.36, 0.0326520
3550.79, 0.0329140
3553.22, 0.0329670
3555.66, 0.0330190
3558.1, 0.0332290
3560.54, 0.0334390
3562.99, 0.0335430
3565.44, 0.0336480
3567.9, 0.0337010
3570.35, 0.0339100
3572.81, 0.0341720
3575.28, 0.0342250
3577.75, 0.0343300
3580.22, 0.0345920
3582.69, 0.0346960
3585.17, 0.0347490
3587.65, 0.0349590
3590.14, 0.0351160
3592.62, 0.0352730
3595.11, 0.0355350
3597.61, 0.0358500
3600.11, 0.0360590
3602.61, 0.0361120
3605.11, 0.0363740
3607.62, 0.0365830
3610.14, 0.0367410
3612.65, 0.0369500
3615.17, 0.0370550
3617.69, 0.0371600
3620.22, 0.0373690
3622.75, 0.0377360
3625.28, 0.0380510
3627.82, 0.0381560
3630.36, 0.0384700
3632.9, 0.0387850
3635.45, 0.0389420
3638.0, 0.0391510
3640.56, 0.0393090
3643.12, 0.0395710
3645.68, 0.0398850
3648.24, 0.0402520
3650.81, 0.0405140
3653.39, 0.0406710
3655.96, 0.0410380
3658.54, 0.0413530
3661.13, 0.0415100
3663.71, 0.0419290
3666.3, 0.0421910
3668.9, 0.0425060
3671.5, 0.0428200
3674.1, 0.0430820
3676.7, 0.0433970
3679.31, 0.0437640
3681.93, 0.0440780
3684.54, 0.0442880
3687.17, 0.0446020
3689.79, 0.0450740
3692.42, 0.0454410
3695.05, 0.0457030
3697.69, 0.0460170
3700.32, 0.0462790
3702.97, 0.0465940
3705.61, 0.0469080
3708.27, 0.0473800
3710.92, 0.0477990
3713.58, 0.0481140
3716.24, 0.0483760
3718.91, 0.0488480
3721.58, 0.0491620
3724.25, 0.0493720
3726.93, 0.0497910
3729.61, 0.0502100
3732.29, 0.0506820
3734.98, 0.0509960
3737.67, 0.0514160
3740.37, 0.0518870
3743.07, 0.0520970
3745.78, 0.0524640
3748.49, 0.0528830
3751.2, 0.0532500
3753.91, 0.0536170
3756.63, 0.0539840
3759.36, 0.0544030
3762.09, 0.0549270
3764.82, 0.0553990
3767.55, 0.0558710
3770.29, 0.0562380
3773.04, 0.0566040
3775.78, 0.0570240
3778.54, 0.0574950
3781.29, 0.0580200
3784.05, 0.0584390
3786.82, 0.0588580
3789.59, 0.0592250
3792.36, 0.0596970
3795.13, 0.0602210
3797.92, 0.0607450
3800.7, 0.0612170
3803.49, 0.0616880
3806.28, 0.0622130
3809.08, 0.0627370
3811.88, 0.0632610
3814.68, 0.0637320
3817.49, 0.0640990
3820.31, 0.0645190
3823.12, 0.0650430
3825.94, 0.0656720
3828.77, 0.0663010
3831.6, 0.0668250
3834.43, 0.0673490
3837.27, 0.0678730
3840.11, 0.0683970
3842.96, 0.0690260
3845.81, 0.0696030
3848.67, 0.0701270
3851.53, 0.0706510
3854.39, 0.0712800
3857.26, 0.0719090
3860.13, 0.0725380
3863.01, 0.0730620
3865.89, 0.0736910
3868.77, 0.0742670
3871.66, 0.0748440
3874.55, 0.0754730
3877.45, 0.0762590
3880.35, 0.0768350
3883.26, 0.0773070
3886.17, 0.0779880
3889.09, 0.0787220
3892.01, 0.0792460
3894.93, 0.0798230
3897.86, 0.0804520
3900.79, 0.0810810
3903.73, 0.0817620
3906.67, 0.0823910
3909.62, 0.0829150
3912.57, 0.0833870
3915.52, 0.0841210
3918.48, 0.0848020
3921.45, 0.0854310
3924.42, 0.0860600
3927.39, 0.0865840
3930.37, 0.0872650
3933.35, 0.0879990
3936.34, 0.0886280
3939.33, 0.0891520
3942.32, 0.0897810
3945.32, 0.0904620
3948.33, 0.0911960
3951.34, 0.0918770
3954.35, 0.0925060
3957.37, 0.0931350
3960.39, 0.0937120
3963.42, 0.0943930
3966.45, 0.0950220
3969.49, 0.0957040
3972.53, 0.0964900
3975.58, 0.0971710
3978.63, 0.0976950
3981.68, 0.0983240
3984.75, 0.0990050
3987.81, 0.0996870
3990.88, 0.100421
3993.95, 0.101259
3997.03, 0.101993
4000.12, 0.102674
4003.21, 0.103408
4006.3, 0.104194
4009.4, 0.104876
4012.5, 0.105557
4015.61, 0.106238
4018.72, 0.107077
4021.84, 0.107863
4024.96, 0.108492
4028.09, 0.109278
4031.22, 0.110064
4034.36, 0.110798
4037.5, 0.111375
4040.65, 0.112108
4043.8, 0.112842
4046.96, 0.113628
4050.12, 0.114362
4053.29, 0.115096
4056.46, 0.115777
4059.64, 0.116354
4062.82, 0.116983
4066.0, 0.117664
4069.19, 0.118398
4072.39, 0.119079
4075.59, 0.119708
4078.8, 0.120337
4082.01, 0.121018
4085.23, 0.121490
4088.45, 0.121962
4091.68, 0.122591
4094.91, 0.123167
4098.15, 0.123639
4101.39, 0.124215
4104.63, 0.124740
4107.89, 0.125264
4111.14, 0.125631
4114.41, 0.125997
4117.67, 0.126522
4120.95, 0.126941
4124.23, 0.127465
4127.51, 0.127937
4130.8, 0.128356
4134.09, 0.128828
4137.39, 0.129247
4140.7, 0.129719
4144.01, 0.130033
4147.32, 0.130452
4150.64, 0.130977
4153.97, 0.131448
4157.3, 0.131868
4160.64, 0.132287
4163.98, 0.132654
4167.33, 0.133125
4170.68, 0.133545
4174.04, 0.133807
4177.4, 0.134174
4180.77, 0.134541
4184.14, 0.134803
4187.52, 0.135065
4190.91, 0.135484
4194.3, 0.135956
4197.69, 0.136270
4201.1, 0.136742
4204.5, 0.137161
4207.92, 0.137580
4211.34, 0.138000
4214.76, 0.138419
4218.19, 0.138786
4221.62, 0.139100
4225.06, 0.139310
4228.51, 0.139415
4231.96, 0.139467
4235.42, 0.139624
4238.88, 0.139729
4242.35, 0.139886
4245.83, 0.139939
4249.31, 0.139834
4252.79, 0.139520
4256.28, 0.139205
4259.78, 0.139258
4263.29, 0.139415
4266.79, 0.139415
4270.31, 0.139310
4273.83, 0.139258
4277.35, 0.139205
4280.89, 0.138995
4284.42, 0.138733
4287.97, 0.138524
4291.52, 0.138262
4295.07, 0.138000
4298.63, 0.137738
4302.2, 0.137423
4305.78, 0.137109
4309.35, 0.136847
4312.94, 0.136585
4316.53, 0.136270
4320.13, 0.135956
4323.73, 0.135536
4327.34, 0.135169
4330.96, 0.134803
4334.58, 0.134488
4338.21, 0.134069
4341.84, 0.133702
4345.48, 0.133335
4349.12, 0.133021
4352.77, 0.132759
4356.43, 0.132444
4360.1, 0.132025
4363.76, 0.131605
4367.44, 0.131186
4371.12, 0.130714
4374.81, 0.130190
4378.51, 0.129771
4382.21, 0.129299
4385.92, 0.128775
4389.63, 0.128304
4393.35, 0.127832
4397.08, 0.127203
4400.81, 0.126574
4404.55, 0.125997
4408.29, 0.125368
4412.04, 0.124792
4415.8, 0.124268
4419.57, 0.123586
4423.34, 0.122958
4427.12, 0.122276
4430.9, 0.121595
4434.69, 0.120861
4438.49, 0.120127
4442.29, 0.119394
4446.1, 0.118765
4449.92, 0.118136
4453.74, 0.117402
4457.57, 0.116616
4461.41, 0.115830
4465.25, 0.115043
4469.1, 0.114310
4472.95, 0.113576
4476.82, 0.112895
4480.69, 0.112161
4484.56, 0.111375
4488.44, 0.110641
4492.33, 0.110012
4496.23, 0.109331
4500.13, 0.108597
4504.04, 0.107915
4507.96, 0.107234
4511.88, 0.106553
4515.81, 0.105976
4519.75, 0.105400
4523.69, 0.104876
4527.65, 0.104351
4531.6, 0.103827
4535.57, 0.103251
4539.54, 0.102779
4543.52, 0.102360
4547.5, 0.101993
4551.5, 0.101521
4555.5, 0.101050
4559.5, 0.100525
4563.52, 0.100054
4567.54, 0.0996340
4571.56, 0.0991100
4575.6, 0.0986390
4579.64, 0.0982190
4583.69, 0.0976950
4587.75, 0.0971190
4591.81, 0.0965420
4595.88, 0.0960180
4599.96, 0.0954410
4604.04, 0.0948650
4608.14, 0.0943410
4612.24, 0.0937640
4616.34, 0.0932400
4620.46, 0.0927680
4624.58, 0.0922440
4628.71, 0.0918250
4632.84, 0.0914060
4636.99, 0.0910390
4641.14, 0.0905670
4645.3, 0.0900950
4649.47, 0.0896760
4653.64, 0.0892040
4657.82, 0.0887850
4662.01, 0.0884180
4666.21, 0.0878420
4670.41, 0.0872650
4674.62, 0.0866890
4678.84, 0.0861120
4683.07, 0.0854830
4687.3, 0.0847500
4691.54, 0.0838590
4695.79, 0.0828100
4700.05, 0.0818140
4704.31, 0.0808190
4708.59, 0.0797700
4712.87, 0.0785650
4717.15, 0.0772550
4721.45, 0.0759440
4725.76, 0.0746860
4730.07, 0.0736910
4734.39, 0.0725900
4738.72, 0.0715940
4743.05, 0.0707030
4747.39, 0.0700220
4751.75, 0.0693410
4756.1, 0.0686070
4760.47, 0.0679780
4764.85, 0.0675060
4769.23, 0.0669820
4773.62, 0.0665100
4778.02, 0.0659340
4782.43, 0.0652520
4786.85, 0.0646230
4791.27, 0.0639950
4795.7, 0.0634180
4800.14, 0.0628410
4804.59, 0.0621600
4809.05, 0.0614790
4813.51, 0.0607970
4817.99, 0.0601680
4822.47, 0.0595920
4826.96, 0.0589110
4831.46, 0.0582290
4835.96, 0.0575480
4840.48, 0.0569190
4845.0, 0.0562900
4849.54, 0.0556610
4854.08, 0.0550850
4858.63, 0.0545080
4863.18, 0.0540360
4867.75, 0.0536690
4872.33, 0.0533550
4876.91, 0.0530930
4881.5, 0.0529360
4886.1, 0.0529360
4890.71, 0.0529880
4895.33, 0.0532500
4899.96, 0.0536690
4904.59, 0.0541410
4909.24, 0.0545600
4913.89, 0.0550850
4918.55, 0.0556610
4923.22, 0.0561850
4927.9, 0.0567090
4932.59, 0.0572860
4937.29, 0.0578620
4942.0, 0.0583340
4946.71, 0.0586490
4951.44, 0.0590150
4956.17, 0.0593820
4960.91, 0.0596970
4965.67, 0.0599590
4970.43, 0.0602210
4975.2, 0.0604310
4979.98, 0.0606930
4984.76, 0.0609550
4989.56, 0.0611640
4994.37, 0.0612690
4999.18, 0.0612690
5004.01, 0.0614260
5008.84, 0.0615840
5013.69, 0.0617410
5018.54, 0.0618460
5023.4, 0.0618980
5028.28, 0.0618980
5033.16, 0.0619500
5038.05, 0.0620550
5042.95, 0.0622130
5047.86, 0.0621600
5052.78, 0.0621600
5057.71, 0.0623170
5062.65, 0.0622650
5067.6, 0.0622650
5072.56, 0.0623700
5077.53, 0.0623700
5082.5, 0.0623170
5087.49, 0.0623170
5092.49, 0.0623170
5097.5, 0.0623170
5102.51, 0.0622650
5107.54, 0.0622130
5112.58, 0.0621600
5117.62, 0.0620550
5122.68, 0.0619500
5127.75, 0.0618980
5132.82, 0.0617930
5137.91, 0.0616360
5143.01, 0.0614260
5148.12, 0.0613740
5153.23, 0.0614790
5158.36, 0.0614790
5163.5, 0.0612690
5168.65, 0.0611120
5173.81, 0.0610590
5178.98, 0.0609550
5184.15, 0.0608500
5189.34, 0.0606400
5194.54, 0.0603780
5199.75, 0.0602210
5204.98, 0.0600640
5210.21, 0.0598540
5215.45, 0.0597490
5220.7, 0.0594870
5225.96, 0.0591730
5231.23, 0.0590150
5236.52, 0.0587530
5241.81, 0.0584390
5247.12, 0.0582820
5252.44, 0.0580720
5257.76, 0.0578100
5263.1, 0.0574430
5268.45, 0.0571290
5273.81, 0.0568140
5279.18, 0.0565520
5284.56, 0.0562380
5289.95, 0.0558710
5295.36, 0.0556090
5300.77, 0.0553470
5306.2, 0.0549270
5311.63, 0.0545080
5317.08, 0.0541410
5322.54, 0.0537220
5328.01, 0.0534070
5333.49, 0.0530410
5338.98, 0.0526210
5344.49, 0.0521500
5350.0, 0.0517300
5355.53, 0.0513110
5361.07, 0.0508390
5366.62, 0.0505250
5372.18, 0.0501050
5377.75, 0.0497390
5383.34, 0.0493190
5388.93, 0.0489000
5394.54, 0.0484810
5400.16, 0.0480610
5405.79, 0.0475900
5411.44, 0.0471700
5417.09, 0.0466990
5422.76, 0.0462270
5428.43, 0.0459130
5434.12, 0.0456500
5439.83, 0.0452310
5445.54, 0.0448120
5451.26, 0.0443930
5457.0, 0.0439730
5462.75, 0.0436060
5468.52, 0.0432400
5474.29, 0.0428200
5480.08, 0.0424530
5485.88, 0.0421390
5491.69, 0.0417200
5497.51, 0.0414050
5503.35, 0.0410910
5509.2, 0.0407760
5515.06, 0.0405140
5520.93, 0.0401470
5526.82, 0.0398330
5532.71, 0.0396760
5538.63, 0.0393090
5544.55, 0.0389940
5550.49, 0.0387320
5556.44, 0.0385750
5562.4, 0.0383130
5568.37, 0.0380510
5574.36, 0.0377360
5580.36, 0.0374220
5586.37, 0.0372650
5592.4, 0.0371070
5598.44, 0.0369500
5604.49, 0.0366880
5610.56, 0.0365830
5616.63, 0.0364780
5622.73, 0.0363210
5628.83, 0.0361640
5634.95, 0.0359540
5641.08, 0.0357450
5647.23, 0.0356400
5653.39, 0.0355350
5659.56, 0.0354830
5665.74, 0.0354300
5671.94, 0.0353250
5678.15, 0.0351680
5684.38, 0.0351160
5690.62, 0.0351160
5696.87, 0.0349590
5703.14, 0.0348540
5709.42, 0.0348010
5715.72, 0.0348540
5722.03, 0.0349060
5728.35, 0.0348010
5734.69, 0.0346440
5741.03, 0.0345920
5747.4, 0.0345920
5753.78, 0.0346960
5760.17, 0.0344870
5766.58, 0.0342770
5773.0, 0.0343820
5779.44, 0.0343820
5785.88, 0.0343820
5792.35, 0.0342770
5798.83, 0.0341720
5805.32, 0.0341200
5811.83, 0.0340150
5818.35, 0.0337530
5824.89, 0.0337530
5831.45, 0.0337530
5838.01, 0.0337010
5844.59, 0.0337010
5851.19, 0.0336480
5857.8, 0.0336480
5864.43, 0.0335960
5871.07, 0.0334910
5877.73, 0.0333860
5884.4, 0.0334910
5891.09, 0.0334910
5897.79, 0.0334390
5904.5, 0.0336480
5911.23, 0.0337010
5917.98, 0.0337010
5924.75, 0.0335960
5931.53, 0.0333340
5938.32, 0.0333860
5945.13, 0.0335960
5951.96, 0.0337010
5958.8, 0.0338580
5965.65, 0.0338050
5972.53, 0.0339100
5979.42, 0.0340680
5986.32, 0.0341720
5993.24, 0.0344340
6000.18, 0.0346440
6007.13, 0.0348010
6014.1, 0.0350110
6021.08, 0.0353250
6028.09, 0.0355870
6035.1, 0.0356400
6042.14, 0.0353780
6049.19, 0.0353780
6056.25, 0.0357970
6063.34, 0.0359540
6070.44, 0.0358500
6077.55, 0.0358500
6084.69, 0.0359020
6091.84, 0.0359020
6099.0, 0.0357970
6106.19, 0.0356400
6113.39, 0.0354300
6120.61, 0.0354830
6127.84, 0.0354300
6135.09, 0.0352210
6142.36, 0.0351160
6149.65, 0.0349590
6156.95, 0.0348010
6164.27, 0.0345390
6171.61, 0.0343300
6178.97, 0.0341200
6186.34, 0.0338050
6193.73, 0.0336480
6201.14, 0.0334910
6208.57, 0.0331240
6216.01, 0.0327570
6223.47, 0.0324430
6230.95, 0.0320760
6238.45, 0.0316040
6245.97, 0.0311320
6253.5, 0.0307130
6261.06, 0.0303990
6268.63, 0.0300840
6276.21, 0.0296130
6283.82, 0.0291930
6291.45, 0.0287220
6299.1, 0.0283550
6306.76, 0.0282500
6314.44, 0.0281450
6322.14, 0.0279880
6329.86, 0.0277260
6337.6, 0.0273060
6345.35, 0.0268350
6353.13, 0.0265200
6360.92, 0.0261010
6368.74, 0.0255240
6376.57, 0.0251050
6384.43, 0.0246860
6392.3, 0.0240570
6400.19, 0.0235330
6408.1, 0.0228510
6416.03, 0.0221700
6423.98, 0.0215940
6431.95, 0.0210690
6439.94, 0.0204930
6447.95, 0.0199690
6455.98, 0.0193400
6464.03, 0.0187110
6472.1, 0.0179770
6480.19, 0.0174010
6488.31, 0.0166670
6496.44, 0.0159860
6504.59, 0.0154610
6512.76, 0.0148850
6520.95, 0.0143080
6529.16, 0.0138370
6537.4, 0.0132600
6545.65, 0.0126310
6553.92, 0.0120020
6562.22, 0.0114780
6570.54, 0.0109540
6578.88, 0.0104300
6587.23, 0.00995800
6595.61, 0.00953900
6604.02, 0.00906700
6612.44, 0.00859500
6620.89, 0.00807100
6629.35, 0.00760000
6637.84, 0.00718000
6646.35, 0.00681400
6654.88, 0.00644700
6663.44, 0.00608000
6672.01, 0.00571300
6680.61, 0.00555600
6689.23, 0.00539800
6697.88, 0.00524100
6706.54, 0.00508400
6715.23, 0.00497900
6723.94, 0.00503200
6732.67, 0.00529400
6741.42, 0.00550300
6750.2, 0.00581800
6759.0, 0.00628900
6767.82, 0.00691800
6776.67, 0.00765200
6785.54, 0.00875300
6794.44, 0.0100110
6803.35, 0.0112680
6812.29, 0.0127360
6821.26, 0.0144660
6830.24, 0.0164570
6839.25, 0.0183960
6848.29, 0.0203360
6857.35, 0.0222750
6866.43, 0.0246330
6875.54, 0.0270970
6884.67, 0.0294550
6893.82, 0.0317090
6903.0, 0.0341200
6912.2, 0.0367930
6921.43, 0.0394140
6930.69, 0.0421910
6939.96, 0.0452310
6949.27, 0.0482190
6958.59, 0.0513630
6967.95, 0.0550850
6977.33, 0.0588060
6986.73, 0.0623170
6996.16, 0.0657770
7005.61, 0.0690260
7015.09, 0.0717510
7024.6, 0.0741620
7034.13, 0.0759440
7043.69, 0.0768880
7053.27, 0.0776740
7062.88, 0.0777790
7072.52, 0.0771500
7082.18, 0.0757870
7091.87, 0.0740050
7101.58, 0.0718560
7111.32, 0.0694980
7121.09, 0.0668770
7130.88, 0.0642570
7140.71, 0.0616360
7150.56, 0.0591200
7160.43, 0.0567090
7170.33, 0.0545080
7180.27, 0.0526210
7190.23, 0.0508920
7200.21, 0.0492670
7210.23, 0.0479040
7220.27, 0.0468040
7230.34, 0.0458080
7240.44, 0.0449690
7250.56, 0.0442880
7260.72, 0.0436590
7270.9, 0.0430820
7281.12, 0.0427150
7291.36, 0.0424010
7301.63, 0.0420860
7311.93, 0.0419290
7322.25, 0.0417200
7332.61, 0.0415620
7343.0, 0.0415100
7353.41, 0.0415620
7363.86, 0.0417200
7374.33, 0.0419290
7384.83, 0.0420860
7395.37, 0.0422960
7405.93, 0.0424530
7416.53, 0.0426630
7427.15, 0.0430300
7437.81, 0.0433970
7448.5, 0.0436590
7459.22, 0.0440260
7469.96, 0.0443930
7480.74, 0.0448120
7491.55, 0.0451790
7502.39, 0.0455460
7513.27, 0.0459130
7524.17, 0.0463320
7535.11, 0.0466460
7546.08, 0.0471180
7557.08, 0.0476420
7568.11, 0.0480610
7579.17, 0.0482190
7590.27, 0.0484810
7601.4, 0.0488480
7612.56, 0.0492670
7623.76, 0.0496340
7634.98, 0.0498960
7646.24, 0.0500010
7657.54, 0.0501580
7668.87, 0.0503150
7680.23, 0.0504720
7691.62, 0.0506300
7703.05, 0.0506820
7714.51, 0.0506300
7726.01, 0.0503680
7737.54, 0.0501050
7749.11, 0.0498430
7760.71, 0.0495810
7772.35, 0.0492670
7784.02, 0.0490050
7795.72, 0.0485330
7807.46, 0.0479040
7819.23, 0.0473800
7831.04, 0.0467510
7842.89, 0.0460170
7854.77, 0.0452840
7866.69, 0.0446550
7878.65, 0.0439210
7890.64, 0.0431350
7902.67, 0.0423490
7914.74, 0.0414580
7926.84, 0.0404620
7938.98, 0.0393610
7951.16, 0.0382600
7963.37, 0.0371070
7975.62, 0.0359540
7987.91, 0.0346440
8000.24, 0.0333340
8012.6, 0.0320760
8025.01, 0.0306080
8037.45, 0.0291410
8049.93, 0.0277260
8062.45, 0.0264150
8075.01, 0.0251580
8087.61, 0.0239520
8100.24, 0.0229560
8112.91, 0.0218560
8125.63, 0.0207030
8138.39, 0.0197070
8151.18, 0.0188160
8164.02, 0.0177680
8176.9, 0.0165620
8189.81, 0.0153570
8202.77, 0.0142040
8215.77, 0.0130500
8228.82, 0.0118970
8241.9, 0.0109020
8255.02, 0.00985300
8268.19, 0.00885800
8281.39, 0.00796700
8294.65, 0.00702300
8307.94, 0.00602700
8321.28, 0.00524100
8334.66, 0.00461200
8348.08, 0.00398300
8361.54, 0.00335400
8375.05, 0.00288300
8388.6, 0.00262100
8402.2, 0.00235900
8415.84, 0.00220100
8429.52, 0.00220100
8443.25, 0.00225400
8457.02, 0.00262100
8470.84, 0.00330200
8484.7, 0.00419300
8498.61, 0.00566000
8512.57, 0.00754700
8526.57, 0.0100630
8540.62, 0.0135750
8554.71, 0.0180300
8568.85, 0.0231660
8583.04, 0.0290360
8597.27, 0.0361640
8611.55, 0.0440780
8625.88, 0.0527780
8640.26, 0.0621600
8654.68, 0.0721710
8669.16, 0.0826010
8683.68, 0.0932400
8698.25, 0.104037
8712.87, 0.115096
8727.53, 0.126259
8742.25, 0.137109
8757.02, 0.147486
8771.83, 0.157497
8786.7, 0.167088
8801.62, 0.176103
8816.59, 0.184436
8831.61, 0.191826
8846.68, 0.198011
8861.8, 0.203357
8876.97, 0.207655
8892.2, 0.211061
8907.48, 0.213734
8922.81, 0.215936
8938.2, 0.217613
8953.63, 0.219133
8969.13, 0.220391
8984.67, 0.221544
9000.27, 0.222592
9015.92, 0.223431
9031.63, 0.223850
9047.39, 0.224164
9063.21, 0.224164
9079.08, 0.223745
9095.01, 0.222697
9111.0, 0.221072
9127.04, 0.218504
9143.13, 0.215359
9159.28, 0.211533
9175.49, 0.207131
9191.76, 0.201994
9208.09, 0.196281
9224.47, 0.189940
9240.92, 0.183336
9257.42, 0.176522
9273.98, 0.169394
9290.6, 0.162109
9307.28, 0.155191
9324.02, 0.148639
9340.82, 0.142402
9357.68, 0.135956
9374.6, 0.130138
9391.58, 0.124844
9408.62, 0.120023
9425.73, 0.115725
9442.9, 0.111689
9460.13, 0.107863
9477.42, 0.104351
9494.78, 0.101207
9512.2, 0.0984290
9529.69, 0.0959130
9547.24, 0.0937120
9564.86, 0.0915630
9582.54, 0.0897810
9600.28, 0.0879990
9618.1, 0.0866890
9635.97, 0.0859550
9653.92, 0.0850120
9671.93, 0.0838590
9690.01, 0.0828630
9708.16, 0.0821810
9726.37, 0.0818670
9744.65, 0.0815000
9763.0, 0.0812380
9781.43, 0.0810280
9799.92, 0.0809230
9818.48, 0.0810810
9837.1, 0.0812380
9855.8, 0.0812900
9874.58, 0.0814480
9893.42, 0.0818670
9912.34, 0.0821290
9931.33, 0.0824960
9950.39, 0.0829680
9969.52, 0.0833870
9988.74, 0.0841210
10008.0, 0.0849070
10027.4, 0.0856410
10046.8, 0.0862170
10066.3, 0.0867940
10085.9, 0.0875270
10105.6, 0.0883140
10125.3, 0.0890470
10145.1, 0.0896760
10165.0, 0.0900430
10185.0, 0.0901480
10205.0, 0.0893090
10225.2, 0.0865320
10245.4, 0.0822860
10265.7, 0.0817100
10286.0, 0.0865320
10306.5, 0.0920870
10327.0, 0.0958610
10347.6, 0.0986390
10368.3, 0.100630
10389.1, 0.101993
10409.9, 0.102936
10430.9, 0.103880
10451.9, 0.105452
10473.0, 0.107496
10494.2, 0.109383
10515.5, 0.111008
10536.9, 0.112108
10558.4, 0.113314
10579.9, 0.114624
10601.5, 0.115987
10623.3, 0.117035
10645.1, 0.117926
10667.0, 0.118922
10689.0, 0.119760
10711.1, 0.120442
10733.2, 0.121333
10755.5, 0.122067
10777.9, 0.122643
10800.3, 0.123062
10822.9, 0.123849
10845.5, 0.124635
10868.2, 0.125106
10891.1, 0.125368
10914.0, 0.125788
10937.0, 0.126312
10960.2, 0.126836
10983.4, 0.127360
11006.7, 0.127779
11030.1, 0.128199
11053.6, 0.128618
11077.3, 0.128880
11101.0, 0.129142
11124.8, 0.129614
11148.7, 0.130295
11172.7, 0.130819
11196.9, 0.131501
11221.1, 0.132234
11245.4, 0.132706
11269.9, 0.132968
11294.4, 0.133702
11319.1, 0.134488
11343.9, 0.135327
11368.8, 0.135694
11393.7, 0.136165
11418.8, 0.136585
11444.0, 0.137161
11469.4, 0.137738
11494.8, 0.138209
11520.3, 0.138838
11546.0, 0.139310
11571.8, 0.139572
11597.7, 0.139939
11623.7, 0.140411
11649.8, 0.140935
11676.0, 0.141249
11702.4, 0.141616
11728.9, 0.141983
11755.5, 0.142140
11782.2, 0.142035
11809.0, 0.142035
11836.0, 0.142088
11863.0, 0.142088
11890.3, 0.141931
11917.6, 0.141983
11945.0, 0.141931
11972.6, 0.141721
12000.4, 0.141406
12028.2, 0.141197
12056.2, 0.140987
12084.3, 0.140725
12112.5, 0.140358
12140.9, 0.140149
12169.4, 0.139624
12198.0, 0.139048
12226.8, 0.138471
12255.7, 0.138104
12284.7, 0.137738
12313.9, 0.137423
12343.2, 0.136899
12372.7, 0.136270
12402.3, 0.135798
12432.0, 0.135222
12461.9, 0.134436
12491.9, 0.133859
12522.1, 0.133178
12552.4, 0.132392
12582.9, 0.131710
12613.5, 0.130662
12644.3, 0.129823
12675.2, 0.129404
12706.3, 0.128985
12737.5, 0.128251
12768.9, 0.127308
12800.4, 0.126469
12832.1, 0.125735
12863.9, 0.125159
12895.9, 0.124373
12928.1, 0.123691
12960.4, 0.122958
12992.9, 0.122276
13025.5, 0.121542
13058.3, 0.120861
13091.3, 0.120127
13124.4, 0.119236
13157.8, 0.118293
13191.2, 0.117402
13224.9, 0.116459
13258.7, 0.115463
13292.7, 0.114519
13326.9, 0.113523
13361.2, 0.112580
13395.7, 0.111637
13430.4, 0.110379
13465.3, 0.109173
13500.4, 0.108020
13535.7, 0.107286
13571.1, 0.106186
13606.7, 0.104666
13642.5, 0.103251
13678.5, 0.101836
13714.7, 0.100316
13751.1, 0.0987430
13787.6, 0.0972760
13824.4, 0.0955460
13861.4, 0.0937640
13898.5, 0.0924020
13935.9, 0.0909860
13973.5, 0.0895190
14011.2, 0.0878940
14049.2, 0.0858500
14087.4, 0.0841730
14125.8, 0.0830720
14164.3, 0.0820770
14203.2, 0.0807140
14242.2, 0.0795610
14281.4, 0.0779880
14320.9, 0.0765210
14360.5, 0.0755770
14400.4, 0.0744240
14440.5, 0.0734290
14480.9, 0.0725380
14521.4, 0.0712270
14562.2, 0.0698120
14603.3, 0.0685540
14644.5, 0.0674010
14686.0, 0.0663530
14727.7, 0.0649380
14769.7, 0.0631040
14811.9, 0.0615840
14854.3, 0.0599060
14897.0, 0.0581240
14939.9, 0.0564470
14983.1, 0.0545600
15026.5, 0.0528830
15070.2, 0.0509440
15114.2, 0.0485860
15158.3, 0.0457550
15202.8, 0.0427150
15247.5, 0.0399900
15292.5, 0.0375270
15337.7, 0.0346960
15383.2, 0.0317090
15429.0, 0.0284590
15475.1, 0.0245810
15521.4, 0.0207550
15568.0, 0.0173480
15614.9, 0.0141510
15662.1, 0.0112160
15709.6, 0.00906700
15757.3, 0.00875300
15805.4, 0.0124740
15853.7, 0.0222750
15902.3, 0.0390470
15951.2, 0.0624750
16000.5, 0.0902530
16050.0, 0.112685
16099.8, 0.123639
16150.0, 0.128146
16200.5, 0.131972
16251.3, 0.134331
16302.4, 0.129614
16353.8, 0.116039
16405.5, 0.0996340
16457.6, 0.0865320
16510.0, 0.0780930
16562.8, 0.0726950
16615.9, 0.0692360
16669.3, 0.0669820
16723.1, 0.0657240
16777.2, 0.0653050
16831.7, 0.0647810
16886.5, 0.0642570
16941.7, 0.0642570
16997.2, 0.0639420
17053.1, 0.0635750
17109.4, 0.0634700
17166.1, 0.0629460
17223.1, 0.0624220
17280.5, 0.0623700
17338.3, 0.0623170
17396.5, 0.0620030
17455.1, 0.0617930
17514.0, 0.0620550
17573.4, 0.0618980
17633.2, 0.0613220
17693.4, 0.0611640
17754.0, 0.0610590
17815.0, 0.0606400
17876.4, 0.0602730
17938.3, 0.0601160
18000.5, 0.0597490
18063.3, 0.0590680
18126.4, 0.0587010
18190.0, 0.0588060
18254.1, 0.0590680
18318.6, 0.0594870
18383.5, 0.0589630
18449.0, 0.0585440
18514.9, 0.0576000
18581.2, 0.0564470
18648.0, 0.0562900
18715.4, 0.0562380
18783.2, 0.0561850
18851.5, 0.0561330
18920.3, 0.0553470
18989.6, 0.0547180
19059.4, 0.0550320
19129.7, 0.0558180
19200.6, 0.0551890
19272.0, 0.0536170
19343.9, 0.0526740
19416.3, 0.0522540
19489.3, 0.0519400
19562.8, 0.0512060
19637.0, 0.0504200
19711.6, 0.0514160
19786.8, 0.0517830
19862.6, 0.0514160
19939.0, 0.0514160
20016.0, 0.0508390
20093.6, 0.0500530
20171.8, 0.0493720
20250.6, 0.0489520
20330.0, 0.0477470
20410.0, 0.0464890
20490.7, 0.0459650
20572.0, 0.0457030
20654.0, 0.0455460
20736.6, 0.0450740
20819.9, 0.0438680
20903.8, 0.0433440
20988.5, 0.0434490
21073.8, 0.0437640
21159.8, 0.0428200
21246.5, 0.0409860
21334.0, 0.0409860
21422.1, 0.0413000
21511.0, 0.0399900
21600.7, 0.0376840
21691.0, 0.0367410
21782.1, 0.0362690
21874.0, 0.0355870
21966.7, 0.0345390
22060.2, 0.0336480
22154.5, 0.0335960
22249.6, 0.0337010
22345.5, 0.0329670
22442.2, 0.0313950
22539.8, 0.0321280
22638.2, 0.0317610
22737.5, 0.0321810
22837.7, 0.0323900
22938.7, 0.0314990
23040.7, 0.0296650
23143.5, 0.0287220
23247.3, 0.0280400
23352.1, 0.0294550
23457.7, 0.0306610
23564.4, 0.0313420
23672.0, 0.0285120
23780.5, 0.0264680
23890.1, 0.0246860
24000.7, 0.0241090
24112.3, 0.0251580
24225.0, 0.0263110
24338.7, 0.0266250
24453.5, 0.0262060
24569.4, 0.0257340
24686.4, 0.0243190
24804.5, 0.0245290
