Database of Origin, USGS Spectral Database
Sample Description, See USGS database for additional info
Date Added,2016-08-03 21:06:18.435128

Data ID,USGS_bio02          
Sample ID, biotite_hs28.3604
Mineral Name, biotite
Material Class,Phyllosilicate

Wavelength
1538.32, 0.234707
1538.78, 0.234754
1539.24, 0.234945
1539.7, 0.234993
1540.15, 0.235231
1540.61, 0.235326
1541.07, 0.235564
1541.53, 0.235993
1541.98, 0.236232
1542.44, 0.236279
1542.9, 0.236422
1543.36, 0.236660
1543.82, 0.237184
1544.28, 0.237375
1544.74, 0.237280
1545.2, 0.237280
1545.66, 0.237566
1546.12, 0.237804
1546.59, 0.238328
1547.05, 0.238566
1547.51, 0.238566
1547.97, 0.238661
1548.43, 0.238947
1548.9, 0.239090
1549.36, 0.239186
1549.82, 0.239233
1550.29, 0.239519
1550.75, 0.239662
1551.21, 0.240091
1551.68, 0.240329
1552.14, 0.240520
1552.61, 0.240329
1553.07, 0.240424
1553.54, 0.240663
1554.0, 0.240996
1554.47, 0.241330
1554.93, 0.241473
1555.4, 0.241330
1555.87, 0.241520
1556.34, 0.241711
1556.8, 0.241997
1557.27, 0.242235
1557.74, 0.242521
1558.21, 0.242711
1558.68, 0.243045
1559.14, 0.242997
1559.61, 0.243045
1560.08, 0.243283
1560.55, 0.243617
1561.02, 0.243950
1561.49, 0.244046
1561.96, 0.243998
1562.43, 0.244188
1562.9, 0.244522
1563.38, 0.244903
1563.85, 0.244998
1564.32, 0.245237
1564.79, 0.245189
1565.26, 0.245380
1565.74, 0.245713
1566.21, 0.246094
1566.68, 0.246237
1567.16, 0.246476
1567.63, 0.246714
1568.1, 0.246809
1568.58, 0.247000
1569.05, 0.247619
1569.53, 0.247857
1570.0, 0.247619
1570.48, 0.247476
1570.96, 0.247810
1571.43, 0.248238
1571.91, 0.248334
1572.39, 0.248524
1572.86, 0.248620
1573.34, 0.248572
1573.82, 0.248763
1574.3, 0.248858
1574.77, 0.249239
1575.25, 0.249763
1575.73, 0.250001
1576.21, 0.250049
1576.69, 0.250335
1577.17, 0.250287
1577.65, 0.250478
1578.13, 0.250764
1578.61, 0.251097
1579.09, 0.251145
1579.57, 0.251193
1580.05, 0.251193
1580.54, 0.251669
1581.02, 0.252288
1581.5, 0.252384
1581.98, 0.252336
1582.47, 0.252622
1582.95, 0.252765
1583.43, 0.252908
1583.92, 0.253051
1584.4, 0.253337
1584.88, 0.253527
1585.37, 0.253623
1585.85, 0.253813
1586.34, 0.254051
1586.82, 0.254051
1587.31, 0.254432
1587.8, 0.254575
1588.28, 0.254623
1588.77, 0.254671
1589.26, 0.255100
1589.74, 0.255528
1590.23, 0.255624
1590.72, 0.255814
1591.21, 0.256148
1591.7, 0.256052
1592.19, 0.256148
1592.67, 0.256195
1593.16, 0.256624
1593.65, 0.256910
1594.14, 0.257101
1594.63, 0.257339
1595.12, 0.257577
1595.61, 0.257815
1596.11, 0.258101
1596.6, 0.258101
1597.09, 0.258387
1597.58, 0.258673
1598.08, 0.259007
1598.57, 0.259149
1599.06, 0.259245
1599.55, 0.259340
1600.05, 0.259483
1600.54, 0.259817
1601.04, 0.259959
1601.53, 0.260198
1602.03, 0.260531
1602.52, 0.260627
1603.02, 0.260865
1603.51, 0.261151
1604.01, 0.261246
1604.5, 0.261484
1605.0, 0.261770
1605.5, 0.261865
1606.0, 0.262104
1606.49, 0.262199
1606.99, 0.262437
1607.49, 0.262723
1607.99, 0.263152
1608.49, 0.263295
1608.99, 0.263676
1609.49, 0.263914
1609.99, 0.264057
1610.49, 0.264105
1610.99, 0.264248
1611.49, 0.264391
1611.99, 0.264819
1612.49, 0.265153
1612.99, 0.265486
1613.49, 0.265582
1614.0, 0.265582
1614.5, 0.265582
1615.0, 0.265963
1615.51, 0.266011
1616.01, 0.266296
1616.51, 0.266630
1617.02, 0.266868
1617.52, 0.266964
1618.03, 0.267202
1618.53, 0.267297
1619.04, 0.267583
1619.54, 0.267916
1620.05, 0.268059
1620.55, 0.268345
1621.06, 0.268631
1621.57, 0.268822
1622.08, 0.269203
1622.58, 0.269441
1623.09, 0.269536
1623.6, 0.269441
1624.11, 0.269679
1624.62, 0.269775
1625.13, 0.270203
1625.64, 0.270442
1626.15, 0.270823
1626.66, 0.271252
1627.17, 0.271395
1627.68, 0.271442
1628.19, 0.271538
1628.7, 0.271728
1629.21, 0.271919
1629.72, 0.272109
1630.24, 0.272395
1630.75, 0.272491
1631.26, 0.272633
1631.78, 0.273015
1632.29, 0.273348
1632.8, 0.273396
1633.32, 0.273682
1633.83, 0.273825
1634.35, 0.274111
1634.86, 0.274349
1635.38, 0.274539
1635.9, 0.274444
1636.41, 0.274682
1636.93, 0.274920
1637.45, 0.275206
1637.96, 0.275349
1638.48, 0.275778
1639.0, 0.276016
1639.52, 0.276159
1640.04, 0.276207
1640.56, 0.276302
1641.08, 0.276683
1641.59, 0.276922
1642.11, 0.277017
1642.63, 0.277208
1643.16, 0.277493
1643.68, 0.277732
1644.2, 0.277922
1644.72, 0.278017
1645.24, 0.278351
1645.76, 0.278446
1646.29, 0.278685
1646.81, 0.279161
1647.33, 0.279304
1647.86, 0.279542
1648.38, 0.279828
1648.9, 0.279971
1649.43, 0.280066
1649.95, 0.280352
1650.48, 0.280305
1651.0, 0.280638
1651.53, 0.281019
1652.06, 0.281162
1652.58, 0.281162
1653.11, 0.281210
1653.64, 0.281400
1654.17, 0.281686
1654.69, 0.281829
1655.22, 0.282163
1655.75, 0.282496
1656.28, 0.282877
1656.81, 0.283211
1657.34, 0.283306
1657.87, 0.283259
1658.4, 0.283497
1658.93, 0.283640
1659.46, 0.283783
1659.99, 0.284116
1660.52, 0.284402
1661.05, 0.284640
1661.59, 0.284831
1662.12, 0.284879
1662.65, 0.285165
1663.19, 0.285212
1663.72, 0.285403
1664.26, 0.285784
1664.79, 0.286165
1665.32, 0.286260
1665.86, 0.286546
1666.39, 0.286689
1666.93, 0.287023
1667.47, 0.287213
1668.0, 0.287452
1668.54, 0.287547
1669.08, 0.287833
1669.61, 0.288023
1670.15, 0.288214
1670.69, 0.288595
1671.23, 0.288881
1671.77, 0.288976
1672.31, 0.289357
1672.85, 0.289548
1673.39, 0.289643
1673.93, 0.289596
1674.47, 0.289834
1675.01, 0.290120
1675.55, 0.290453
1676.09, 0.290691
1676.64, 0.290977
1677.18, 0.291168
1677.72, 0.291501
1678.26, 0.291692
1678.81, 0.292026
1679.35, 0.292121
1679.89, 0.292359
1680.44, 0.292502
1680.98, 0.292836
1681.53, 0.292883
1682.07, 0.293121
1682.62, 0.293360
1683.17, 0.293503
1683.71, 0.293550
1684.26, 0.293884
1684.81, 0.294170
1685.36, 0.294408
1685.9, 0.294646
1686.45, 0.294932
1687.0, 0.295027
1687.55, 0.295266
1688.1, 0.295361
1688.65, 0.295742
1689.2, 0.295933
1689.75, 0.296028
1690.3, 0.296218
1690.85, 0.296600
1691.41, 0.296743
1691.96, 0.297219
1692.51, 0.297553
1693.06, 0.297696
1693.61, 0.297696
1694.17, 0.297886
1694.72, 0.298172
1695.28, 0.298410
1695.83, 0.298648
1696.39, 0.298839
1696.94, 0.298887
1697.5, 0.299077
1698.05, 0.299268
1698.61, 0.299601
1699.17, 0.299649
1699.72, 0.299840
1700.28, 0.300078
1700.84, 0.300268
1701.4, 0.300507
1701.95, 0.300793
1702.51, 0.300983
1703.07, 0.301317
1703.63, 0.301460
1704.19, 0.301412
1704.75, 0.301603
1705.31, 0.301984
1705.88, 0.302222
1706.44, 0.302460
1707.0, 0.302698
1707.56, 0.303127
1708.12, 0.303223
1708.69, 0.303270
1709.25, 0.303508
1709.81, 0.303842
1710.38, 0.304033
1710.94, 0.304271
1711.51, 0.304461
1712.07, 0.304700
1712.64, 0.304890
1713.2, 0.304938
1713.77, 0.305271
1714.34, 0.305652
1714.9, 0.305795
1715.47, 0.306034
1716.04, 0.306081
1716.61, 0.306367
1717.18, 0.306748
1717.74, 0.306844
1718.31, 0.306796
1718.88, 0.307082
1719.45, 0.307320
1720.02, 0.307511
1720.59, 0.307654
1721.17, 0.307892
1721.74, 0.308130
1722.31, 0.308321
1722.88, 0.308511
1723.45, 0.308988
1724.03, 0.309131
1724.6, 0.309274
1725.18, 0.309512
1725.75, 0.309702
1726.33, 0.309893
1726.9, 0.310131
1727.48, 0.310322
1728.05, 0.310655
1728.63, 0.310846
1729.2, 0.310989
1729.78, 0.311370
1730.36, 0.311561
1730.94, 0.311561
1731.51, 0.311799
1732.09, 0.311990
1732.67, 0.312275
1733.25, 0.312609
1733.83, 0.312752
1734.41, 0.312800
1734.99, 0.313133
1735.57, 0.313514
1736.15, 0.313848
1736.73, 0.314181
1737.32, 0.314467
1737.9, 0.314420
1738.48, 0.314658
1739.07, 0.314848
1739.65, 0.314991
1740.23, 0.315182
1740.82, 0.315468
1741.4, 0.315563
1741.99, 0.315801
1742.57, 0.316039
1743.16, 0.316421
1743.74, 0.316754
1744.33, 0.316897
1744.92, 0.316849
1745.51, 0.317231
1746.09, 0.317517
1746.68, 0.317802
1747.27, 0.317945
1747.86, 0.318326
1748.45, 0.318565
1749.04, 0.318660
1749.63, 0.318708
1750.22, 0.318898
1750.81, 0.319375
1751.4, 0.319756
1751.99, 0.319899
1752.59, 0.320185
1753.18, 0.320232
1753.77, 0.320518
1754.37, 0.320756
1754.96, 0.321090
1755.56, 0.321281
1756.15, 0.321519
1756.74, 0.321757
1757.34, 0.322091
1757.94, 0.322281
1758.53, 0.322567
1759.13, 0.322853
1759.73, 0.322996
1760.32, 0.323044
1760.92, 0.323282
1761.52, 0.323425
1762.12, 0.323711
1762.72, 0.323901
1763.32, 0.324378
1763.92, 0.324568
1764.52, 0.324568
1765.12, 0.324949
1765.72, 0.325283
1766.32, 0.325235
1766.92, 0.325235
1767.53, 0.325569
1768.13, 0.326093
1768.73, 0.326379
1769.34, 0.326474
1769.94, 0.326474
1770.55, 0.326712
1771.15, 0.326998
1771.76, 0.327141
1772.36, 0.327332
1772.97, 0.327903
1773.57, 0.328046
1774.18, 0.328094
1774.79, 0.328428
1775.4, 0.328761
1776.0, 0.328856
1776.61, 0.328999
1777.22, 0.328952
1777.83, 0.329333
1778.44, 0.329619
1779.05, 0.329857
1779.66, 0.330048
1780.27, 0.330238
1780.88, 0.330476
1781.5, 0.330667
1782.11, 0.330858
1782.72, 0.331191
1783.33, 0.331429
1783.95, 0.331620
1784.56, 0.331763
1785.18, 0.332049
1785.79, 0.332144
1786.41, 0.332335
1787.02, 0.332430
1787.64, 0.332620
1788.26, 0.332716
1788.87, 0.332954
1789.49, 0.333145
1790.11, 0.333383
1790.73, 0.333621
1791.35, 0.333764
1791.96, 0.333955
1792.58, 0.334240
1793.21, 0.334479
1793.83, 0.334717
1794.45, 0.334860
1795.07, 0.335003
1795.69, 0.335289
1796.31, 0.335479
1796.93, 0.335622
1797.56, 0.335813
1798.18, 0.336003
1798.8, 0.336385
1799.43, 0.336575
1800.05, 0.336623
1800.68, 0.336909
1801.3, 0.337147
1801.93, 0.337337
1802.56, 0.337671
1803.18, 0.337814
1803.81, 0.337909
1804.44, 0.338052
1805.07, 0.338290
1805.7, 0.338624
1806.33, 0.338957
1806.95, 0.338910
1807.58, 0.339196
1808.22, 0.339482
1808.85, 0.339624
1809.48, 0.339815
1810.11, 0.340101
1810.74, 0.340339
1811.38, 0.340577
1812.01, 0.340720
1812.64, 0.340959
1813.28, 0.341244
1813.91, 0.341483
1814.55, 0.341530
1815.18, 0.341769
1815.82, 0.342054
1816.45, 0.342197
1817.09, 0.342388
1817.73, 0.342817
1818.36, 0.343055
1819.0, 0.343389
1819.64, 0.343627
1820.28, 0.344103
1820.92, 0.344294
1821.56, 0.344437
1822.2, 0.344627
1822.84, 0.344723
1823.48, 0.344723
1824.12, 0.344866
1824.76, 0.345009
1825.41, 0.345485
1826.05, 0.345914
1826.69, 0.345914
1827.34, 0.346152
1827.98, 0.346581
1828.63, 0.346819
1829.27, 0.347010
1829.92, 0.347248
1830.56, 0.347534
1831.21, 0.347772
1831.86, 0.347867
1832.5, 0.348010
1833.15, 0.348153
1833.8, 0.348296
1834.45, 0.348677
1835.1, 0.349059
1835.75, 0.349535
1836.4, 0.349773
1837.05, 0.349821
1837.7, 0.350059
1838.35, 0.349916
1839.01, 0.350107
1839.66, 0.350869
1840.31, 0.350917
1840.96, 0.351107
1841.62, 0.351679
1842.27, 0.351822
1842.93, 0.351536
1843.58, 0.351774
1844.24, 0.352060
1844.9, 0.352298
1845.55, 0.352632
1846.21, 0.353013
1846.87, 0.353537
1847.53, 0.353823
1848.18, 0.353776
1848.84, 0.353823
1849.5, 0.353918
1850.16, 0.354204
1850.82, 0.354490
1851.48, 0.354490
1852.14, 0.354490
1852.81, 0.354967
1853.47, 0.355634
1854.13, 0.355967
1854.8, 0.355824
1855.46, 0.355920
1856.12, 0.356110
1856.79, 0.356253
1857.45, 0.356063
1858.12, 0.356253
1858.79, 0.356825
1859.45, 0.357587
1860.12, 0.357683
1860.79, 0.357635
1861.46, 0.357683
1862.12, 0.357921
1862.79, 0.358159
1863.46, 0.358350
1864.13, 0.358493
1864.8, 0.358588
1865.48, 0.358540
1866.15, 0.358921
1866.82, 0.359350
1867.49, 0.359827
1868.16, 0.360017
1868.84, 0.359970
1869.51, 0.360160
1870.19, 0.360541
1870.86, 0.361018
1871.54, 0.361018
1872.21, 0.361065
1872.89, 0.361590
1873.56, 0.361542
1874.24, 0.361351
1874.92, 0.361542
1875.6, 0.361732
1876.28, 0.361971
1876.96, 0.362447
1877.64, 0.362400
1878.32, 0.362542
1879.0, 0.362781
1879.68, 0.363067
1880.36, 0.363257
1881.04, 0.363352
1881.73, 0.363305
1882.41, 0.363543
1883.09, 0.363829
1883.78, 0.364210
1884.46, 0.364448
1885.15, 0.364544
1885.83, 0.364544
1886.52, 0.365020
1887.21, 0.365115
1887.89, 0.365115
1888.58, 0.365211
1889.27, 0.365592
1889.96, 0.366116
1890.65, 0.366402
1891.34, 0.366354
1892.03, 0.366497
1892.72, 0.366640
1893.41, 0.366878
1894.1, 0.367069
1894.79, 0.367117
1895.49, 0.367355
1896.18, 0.367831
1896.87, 0.368212
1897.57, 0.368308
1898.26, 0.368594
1898.96, 0.368975
1899.65, 0.369308
1900.35, 0.369261
1901.05, 0.369118
1901.74, 0.369308
1902.44, 0.369785
1903.14, 0.370023
1903.84, 0.369928
1904.54, 0.370309
1905.24, 0.370690
1905.94, 0.371024
1906.64, 0.371166
1907.34, 0.371405
1908.04, 0.371548
1908.75, 0.371786
1909.45, 0.371976
1910.15, 0.372358
1910.86, 0.372501
1911.56, 0.372644
1912.27, 0.372882
1912.97, 0.373454
1913.68, 0.373835
1914.39, 0.373835
1915.09, 0.373978
1915.8, 0.374359
1916.51, 0.374406
1917.22, 0.374549
1917.93, 0.374692
1918.64, 0.374931
1919.35, 0.375502
1920.06, 0.376122
1920.77, 0.376169
1921.48, 0.376074
1922.19, 0.376026
1922.91, 0.376265
1923.62, 0.376598
1924.33, 0.377170
1925.05, 0.377551
1925.76, 0.377694
1926.48, 0.377742
1927.19, 0.377885
1927.91, 0.378123
1928.63, 0.378647
1929.35, 0.378742
1930.07, 0.378885
1930.78, 0.379123
1931.5, 0.379409
1932.22, 0.379552
1932.94, 0.379886
1933.66, 0.380172
1934.39, 0.380410
1935.11, 0.380600
1935.83, 0.380886
1936.55, 0.380934
1937.28, 0.381029
1938.0, 0.381268
1938.73, 0.381553
1939.45, 0.381744
1940.18, 0.382030
1940.9, 0.382173
1941.63, 0.382506
1942.36, 0.382792
1943.09, 0.383078
1943.81, 0.383269
1944.54, 0.383555
1945.27, 0.383793
1946.0, 0.383983
1946.73, 0.384031
1947.47, 0.384174
1948.2, 0.384555
1948.93, 0.384793
1949.66, 0.384841
1950.4, 0.385079
1951.13, 0.385127
1951.86, 0.385175
1952.6, 0.385651
1953.34, 0.385985
1954.07, 0.386270
1954.81, 0.386270
1955.55, 0.386461
1956.29, 0.386747
1957.02, 0.386842
1957.76, 0.386985
1958.5, 0.387366
1959.24, 0.387509
1959.98, 0.387557
1960.72, 0.387700
1961.47, 0.388033
1962.21, 0.388272
1962.95, 0.388319
1963.7, 0.388510
1964.44, 0.388748
1965.18, 0.388939
1965.93, 0.389034
1966.67, 0.389272
1967.42, 0.389606
1968.17, 0.389939
1968.92, 0.389939
1969.66, 0.389939
1970.41, 0.390130
1971.16, 0.390416
1971.91, 0.390511
1972.66, 0.390845
1973.41, 0.391035
1974.16, 0.391178
1974.92, 0.391369
1975.67, 0.391702
1976.42, 0.391845
1977.18, 0.392083
1977.93, 0.392179
1978.69, 0.392417
1979.44, 0.392703
1980.2, 0.392893
1980.95, 0.393036
1981.71, 0.393274
1982.47, 0.393274
1983.23, 0.393465
1983.99, 0.393656
1984.74, 0.393846
1985.51, 0.394037
1986.27, 0.394418
1987.03, 0.394704
1987.79, 0.394894
1988.55, 0.394894
1989.32, 0.395085
1990.08, 0.395276
1990.84, 0.395704
1991.61, 0.395990
1992.37, 0.396133
1993.14, 0.396229
1993.9, 0.396419
1994.67, 0.396562
1995.44, 0.396705
1996.21, 0.397039
1996.98, 0.397277
1997.75, 0.397420
1998.52, 0.397706
1999.29, 0.397944
2000.06, 0.398182
2000.83, 0.398277
2001.6, 0.398659
2002.38, 0.398849
2003.15, 0.399087
2003.93, 0.399326
2004.7, 0.399612
2005.48, 0.399897
2006.25, 0.400279
2007.03, 0.400564
2007.81, 0.400755
2008.58, 0.400898
2009.36, 0.401089
2010.14, 0.401184
2010.92, 0.401517
2011.7, 0.401803
2012.48, 0.402041
2013.26, 0.402375
2014.05, 0.402661
2014.83, 0.402613
2015.61, 0.402709
2016.4, 0.403280
2017.18, 0.403804
2017.97, 0.403947
2018.75, 0.404043
2019.54, 0.404233
2020.32, 0.404757
2021.11, 0.404996
2021.9, 0.405186
2022.69, 0.405424
2023.48, 0.405567
2024.27, 0.405806
2025.06, 0.406139
2025.85, 0.406282
2026.64, 0.406330
2027.44, 0.406425
2028.23, 0.406711
2029.02, 0.407044
2029.82, 0.407330
2030.61, 0.407664
2031.41, 0.407902
2032.2, 0.407950
2033.0, 0.408236
2033.8, 0.408474
2034.6, 0.408617
2035.4, 0.408807
2036.2, 0.409093
2037.0, 0.409331
2037.8, 0.409570
2038.6, 0.409713
2039.4, 0.409951
2040.2, 0.409998
2041.01, 0.410284
2041.81, 0.410713
2042.61, 0.410951
2043.42, 0.411094
2044.22, 0.411285
2045.03, 0.411428
2045.84, 0.411761
2046.65, 0.412095
2047.46, 0.412333
2048.26, 0.412381
2049.07, 0.412524
2049.88, 0.412810
2050.69, 0.412857
2051.51, 0.412905
2052.32, 0.413191
2053.13, 0.413429
2053.94, 0.413715
2054.76, 0.413905
2055.57, 0.414096
2056.39, 0.414287
2057.2, 0.414525
2058.02, 0.414668
2058.84, 0.414715
2059.66, 0.414715
2060.48, 0.414954
2061.29, 0.415192
2062.11, 0.415335
2062.94, 0.415478
2063.76, 0.415621
2064.58, 0.415764
2065.4, 0.415954
2066.22, 0.416050
2067.05, 0.416383
2067.87, 0.416526
2068.7, 0.416574
2069.52, 0.416717
2070.35, 0.416955
2071.18, 0.417098
2072.0, 0.417336
2072.83, 0.417574
2073.66, 0.417622
2074.49, 0.417670
2075.32, 0.417860
2076.15, 0.417812
2076.98, 0.417908
2077.82, 0.418003
2078.65, 0.418146
2079.48, 0.418480
2080.32, 0.418622
2081.15, 0.418718
2081.99, 0.418861
2082.83, 0.418908
2083.66, 0.419004
2084.5, 0.419337
2085.34, 0.419528
2086.18, 0.419528
2087.02, 0.419528
2087.86, 0.419623
2088.7, 0.419766
2089.54, 0.419909
2090.39, 0.420195
2091.23, 0.420242
2092.07, 0.420385
2092.92, 0.420624
2093.76, 0.420767
2094.61, 0.420767
2095.45, 0.420909
2096.3, 0.421100
2097.15, 0.421291
2098.0, 0.421338
2098.85, 0.421481
2099.7, 0.421672
2100.55, 0.421815
2101.4, 0.421910
2102.25, 0.422291
2103.1, 0.422577
2103.96, 0.422863
2104.81, 0.422958
2105.67, 0.423054
2106.52, 0.423292
2107.38, 0.423530
2108.24, 0.423864
2109.09, 0.424149
2109.95, 0.424197
2110.81, 0.424388
2111.67, 0.424531
2112.53, 0.424912
2113.39, 0.425150
2114.25, 0.425341
2115.12, 0.425579
2115.98, 0.425865
2116.84, 0.426151
2117.71, 0.426294
2118.58, 0.426389
2119.44, 0.426722
2120.31, 0.427008
2121.18, 0.427437
2122.04, 0.427818
2122.91, 0.427961
2123.78, 0.427914
2124.65, 0.428295
2125.52, 0.428485
2126.4, 0.428581
2127.27, 0.428771
2128.14, 0.429200
2129.02, 0.429486
2129.89, 0.429819
2130.77, 0.430010
2131.64, 0.430248
2132.52, 0.430439
2133.4, 0.430725
2134.27, 0.430915
2135.15, 0.431058
2136.03, 0.431296
2136.91, 0.431678
2137.79, 0.431868
2138.68, 0.432011
2139.56, 0.432297
2140.44, 0.432488
2141.33, 0.432631
2142.21, 0.432916
2143.1, 0.433107
2143.99, 0.433440
2144.87, 0.433631
2145.76, 0.433869
2146.65, 0.434203
2147.54, 0.434441
2148.43, 0.434489
2149.32, 0.434679
2150.21, 0.434775
2151.1, 0.435060
2151.99, 0.435203
2152.89, 0.435442
2153.78, 0.435680
2154.68, 0.435870
2155.57, 0.435870
2156.47, 0.435966
2157.37, 0.436109
2158.27, 0.436585
2159.16, 0.436871
2160.06, 0.437014
2160.96, 0.437109
2161.86, 0.437395
2162.77, 0.437538
2163.67, 0.437586
2164.57, 0.437633
2165.48, 0.437872
2166.38, 0.438062
2167.29, 0.438205
2168.2, 0.438348
2169.1, 0.438443
2170.01, 0.438682
2170.92, 0.438920
2171.83, 0.438968
2172.74, 0.439206
2173.65, 0.439301
2174.56, 0.439396
2175.47, 0.439492
2176.39, 0.439587
2177.3, 0.439825
2178.22, 0.440063
2179.13, 0.440016
2180.05, 0.440254
2180.96, 0.440254
2181.88, 0.440397
2182.8, 0.440730
2183.72, 0.440969
2184.64, 0.441064
2185.56, 0.441159
2186.48, 0.441159
2187.41, 0.441302
2188.33, 0.441397
2189.25, 0.441540
2190.18, 0.441540
2191.1, 0.441779
2192.03, 0.441969
2192.96, 0.442255
2193.89, 0.442207
2194.82, 0.442207
2195.74, 0.442303
2196.68, 0.442684
2197.61, 0.442827
2198.54, 0.443017
2199.47, 0.443113
2200.4, 0.443303
2201.34, 0.443399
2202.28, 0.443494
2203.21, 0.443589
2204.15, 0.443732
2205.08, 0.443780
2206.02, 0.444066
2206.96, 0.444352
2207.9, 0.444542
2208.84, 0.444637
2209.78, 0.444685
2210.73, 0.444685
2211.67, 0.444923
2212.61, 0.445209
2213.56, 0.445257
2214.5, 0.445352
2215.45, 0.445733
2216.4, 0.445876
2217.35, 0.446019
2218.3, 0.446162
2219.24, 0.446305
2220.2, 0.446496
2221.15, 0.446686
2222.1, 0.446782
2223.05, 0.447115
2224.0, 0.447258
2224.96, 0.447401
2225.91, 0.447544
2226.87, 0.447734
2227.83, 0.447877
2228.79, 0.448259
2229.74, 0.448306
2230.7, 0.448354
2231.66, 0.448402
2232.63, 0.448640
2233.59, 0.448783
2234.55, 0.448878
2235.51, 0.449021
2236.48, 0.449212
2237.44, 0.449402
2238.41, 0.449783
2239.38, 0.450069
2240.34, 0.450164
2241.31, 0.450260
2242.28, 0.450307
2243.25, 0.450355
2244.22, 0.450593
2245.19, 0.450831
2246.17, 0.451070
2247.14, 0.451165
2248.12, 0.451308
2249.09, 0.451499
2250.07, 0.451737
2251.04, 0.451975
2252.02, 0.452118
2253.0, 0.452166
2253.98, 0.452451
2254.96, 0.452785
2255.94, 0.452976
2256.92, 0.453119
2257.91, 0.453404
2258.89, 0.453452
2259.88, 0.453595
2260.86, 0.453690
2261.85, 0.453833
2262.83, 0.453976
2263.82, 0.454214
2264.81, 0.454310
2265.8, 0.454643
2266.79, 0.454881
2267.78, 0.455024
2268.78, 0.455120
2269.77, 0.455263
2270.76, 0.455358
2271.76, 0.455453
2272.75, 0.455549
2273.75, 0.455882
2274.75, 0.455977
2275.75, 0.456216
2276.75, 0.456216
2277.75, 0.456263
2278.75, 0.456359
2279.75, 0.456501
2280.75, 0.456359
2281.76, 0.456157
2282.76, 0.456157
2283.77, 0.456459
2284.77, 0.456509
2285.78, 0.456258
2286.79, 0.456107
2287.8, 0.456258
2288.81, 0.456208
2289.82, 0.456208
2290.83, 0.456107
2291.84, 0.455805
2292.86, 0.455654
2293.87, 0.455755
2294.89, 0.455352
2295.91, 0.455453
2296.92, 0.455553
2297.94, 0.455403
2298.96, 0.455151
2299.98, 0.455151
2301.0, 0.455201
2302.02, 0.454799
2303.04, 0.454044
2304.07, 0.453792
2305.09, 0.453692
2306.12, 0.453038
2307.15, 0.452736
2308.17, 0.452283
2309.2, 0.451679
2310.23, 0.451176
2311.26, 0.450924
2312.29, 0.450522
2313.32, 0.449968
2314.35, 0.448962
2315.39, 0.448358
2316.42, 0.448006
2317.46, 0.447453
2318.5, 0.446799
2319.53, 0.446145
2320.57, 0.445340
2321.61, 0.444685
2322.65, 0.444182
2323.69, 0.443780
2324.73, 0.443428
2325.78, 0.442723
2326.82, 0.442069
2327.86, 0.441616
2328.91, 0.441264
2329.96, 0.441113
2331.01, 0.441063
2332.05, 0.440811
2333.1, 0.440610
2334.15, 0.440509
2335.21, 0.440560
2336.26, 0.440409
2337.31, 0.440560
2338.36, 0.440509
2339.42, 0.440861
2340.48, 0.441012
2341.53, 0.441264
2342.59, 0.441666
2343.65, 0.441566
2344.71, 0.441918
2345.77, 0.442472
2346.83, 0.443075
2347.9, 0.443377
2348.96, 0.443478
2350.02, 0.444031
2351.09, 0.444635
2352.16, 0.444685
2353.23, 0.444887
2354.29, 0.445189
2355.36, 0.445893
2356.43, 0.446446
2357.51, 0.446497
2358.58, 0.446648
2359.65, 0.447251
2360.73, 0.447755
2361.8, 0.448107
2362.88, 0.448560
2363.96, 0.448862
2365.03, 0.448912
2366.11, 0.449214
2367.19, 0.449516
2368.27, 0.449516
2369.36, 0.449616
2370.44, 0.449667
2371.53, 0.449616
2372.61, 0.449465
2373.7, 0.449566
2374.78, 0.449516
2375.87, 0.449365
2376.96, 0.449264
2378.05, 0.448962
2379.14, 0.448358
2380.24, 0.448107
2381.33, 0.448207
2382.42, 0.448207
2383.52, 0.447906
2384.61, 0.447604
2385.71, 0.447402
2386.81, 0.447151
2387.91, 0.446950
2389.01, 0.447000
2390.11, 0.446698
2391.22, 0.446698
2392.32, 0.446648
2393.42, 0.446849
2394.53, 0.447050
2395.64, 0.447553
2396.74, 0.447956
2397.85, 0.448107
2398.96, 0.448409
2400.07, 0.448862
2401.18, 0.449214
2402.3, 0.449465
2403.41, 0.449616
2404.52, 0.449968
2405.64, 0.450522
2406.76, 0.451176
2407.88, 0.451428
2408.99, 0.451931
2410.11, 0.452434
2411.23, 0.453239
2412.36, 0.453792
2413.48, 0.454296
2414.6, 0.454799
2415.73, 0.455302
2416.85, 0.455805
2417.98, 0.456610
2419.11, 0.457214
2420.24, 0.457767
2421.37, 0.457868
2422.5, 0.458220
2423.64, 0.458673
2424.77, 0.459277
2425.9, 0.459579
2427.04, 0.459629
2428.18, 0.459931
2429.31, 0.460434
2430.45, 0.461088
2431.59, 0.461390
2432.73, 0.461642
2433.88, 0.461893
2435.02, 0.461994
2436.16, 0.462245
2437.31, 0.462497
2438.45, 0.462749
2439.6, 0.462799
2440.75, 0.463352
2441.9, 0.463604
2443.05, 0.463805
2444.2, 0.463805
2445.35, 0.464157
2446.51, 0.464208
2447.67, 0.464308
2448.82, 0.464560
2449.98, 0.464862
2451.14, 0.465113
2452.3, 0.465214
2453.46, 0.465415
2454.62, 0.465667
2455.78, 0.465868
2456.94, 0.466120
2458.11, 0.466321
2459.28, 0.466723
2460.44, 0.467076
2461.61, 0.467076
2462.78, 0.466975
2463.95, 0.467227
2465.12, 0.467378
2466.3, 0.467579
2467.47, 0.467679
2468.65, 0.467981
2469.82, 0.468183
2471.0, 0.468535
2472.18, 0.468434
2473.36, 0.468334
2474.54, 0.468334
2475.72, 0.468887
2476.9, 0.468887
2478.08, 0.469139
2479.27, 0.469239
2480.46, 0.469340
2481.64, 0.469340
2482.83, 0.469390
2484.02, 0.469189
2485.21, 0.469541
2486.4, 0.469642
2487.6, 0.469642
2488.79, 0.469692
2489.99, 0.469843
2491.18, 0.470044
2492.38, 0.470296
2493.58, 0.470145
2494.78, 0.470145
2495.98, 0.470246
2497.18, 0.470547
2498.39, 0.470598
2499.59, 0.471000
2500.8, 0.470849
2502.01, 0.470698
2503.21, 0.470547
2504.42, 0.470598
2505.63, 0.470698
2506.84, 0.471101
2508.06, 0.471403
2509.27, 0.471705
2510.49, 0.471604
2511.7, 0.471705
2512.92, 0.471654
2514.14, 0.471654
2515.36, 0.471554
2516.58, 0.471705
2517.8, 0.471906
2519.03, 0.472208
2520.25, 0.472560
2521.48, 0.472661
2522.7, 0.472610
2523.93, 0.472862
2525.16, 0.473264
2526.39, 0.473667
2527.62, 0.474019
2528.86, 0.474170
2530.09, 0.473768
2531.33, 0.473566
2532.56, 0.473566
2533.8, 0.474170
2535.04, 0.474170
2536.28, 0.474271
2537.52, 0.474925
2538.76, 0.475579
2540.01, 0.476032
2541.25, 0.475981
2542.5, 0.475227
2543.75, 0.475529
2544.99, 0.476334
2546.24, 0.476636
2547.49, 0.476384
2548.75, 0.476786
2550.0, 0.476786
2551.26, 0.476132
2552.51, 0.475881
2553.77, 0.477441
2555.03, 0.479000
2556.29, 0.479403
2557.55, 0.479554
2558.81, 0.478900
2560.08, 0.476032
2561.34, 0.473365
2562.61, 0.473466
2563.88, 0.474321
2565.14, 0.476988
2566.41, 0.479755
2567.68, 0.479252
2568.96, 0.476736
2570.23, 0.477491
2571.51, 0.478849
2572.78, 0.475680
2574.06, 0.476485
2575.34, 0.477793
2576.62, 0.476887
2577.9, 0.478900
2579.18, 0.480409
2580.47, 0.478598
2581.75, 0.477843
2583.04, 0.474874
2584.32, 0.475227
2585.61, 0.478044
2586.9, 0.477038
2588.2, 0.477843
2589.49, 0.479755
2590.78, 0.481516
2592.08, 0.479503
2593.37, 0.469994
2594.67, 0.462849
2595.97, 0.470698
2597.27, 0.479453
2598.57, 0.482472
2599.88, 0.481818
2601.18, 0.479956
2602.49, 0.478497
2603.79, 0.475428
2605.1, 0.471906
2606.41, 0.473667
2607.72, 0.476535
2609.03, 0.477390
2610.35, 0.478397
2611.66, 0.478950
2612.98, 0.478095
2614.3, 0.477591
2615.62, 0.472761
2616.94, 0.470044
2618.26, 0.472812
2619.58, 0.470346
2620.91, 0.471201
2622.23, 0.476233
2623.56, 0.477491
2624.89, 0.475076
2626.22, 0.470799
2627.55, 0.472510
2628.88, 0.471101
2630.21, 0.467076
2631.55, 0.470950
2632.89, 0.473264
2634.22, 0.473768
2635.56, 0.475881
2636.9, 0.476535
2638.25, 0.476736
2639.59, 0.476636
2640.93, 0.476032
2642.28, 0.475529
2643.63, 0.475730
2644.98, 0.474422
2646.33, 0.475126
2647.68, 0.476937
2649.03, 0.477642
2650.39, 0.476384
2651.74, 0.473818
2653.1, 0.473969
2654.46, 0.475025
2655.82, 0.475730
2657.18, 0.477189
2658.54, 0.475378
2659.9, 0.474824
2661.27, 0.475529
2662.64, 0.475176
2664.01, 0.469340
2665.38, 0.464359
2666.74, 0.465013
2668.12, 0.468635
2669.49, 0.463101
2670.87, 0.462497
2672.24, 0.470346
2673.62, 0.471302
2675.0, 0.466774
2676.38, 0.461591
2677.76, 0.459780
2679.15, 0.457314
2680.54, 0.455151
2681.92, 0.446597
2683.31, 0.432258
2684.7, 0.415352
2686.09, 0.396081
2687.48, 0.376056
2688.88, 0.356735
2690.27, 0.338621
2691.67, 0.320860
2693.07, 0.303300
2694.47, 0.290671
2695.87, 0.281866
2697.27, 0.274318
2698.67, 0.266469
2700.08, 0.257765
2701.49, 0.250016
2702.9, 0.244431
2704.31, 0.238444
2705.72, 0.232959
2707.13, 0.227223
2708.54, 0.220884
2709.96, 0.214997
2711.38, 0.212431
2712.8, 0.213185
2714.22, 0.213839
2715.64, 0.215148
2717.06, 0.217110
2718.49, 0.219022
2719.91, 0.220330
2721.34, 0.225865
2722.77, 0.230896
2724.2, 0.232657
2725.63, 0.236179
2727.07, 0.239450
2728.5, 0.240808
2729.94, 0.241714
2731.38, 0.243878
2732.82, 0.246393
2734.26, 0.249412
2735.7, 0.255953
2737.15, 0.262142
2738.59, 0.265262
2740.04, 0.270494
2741.49, 0.278998
2742.94, 0.288004
2744.39, 0.295400
2745.84, 0.301891
2747.3, 0.308382
2748.76, 0.315325
2750.21, 0.322218
2751.67, 0.328558
2753.14, 0.333640
2754.6, 0.335451
2756.06, 0.342093
2757.53, 0.351602
2759.0, 0.357036
2760.46, 0.358948
2761.94, 0.358697
2763.41, 0.360156
2764.88, 0.362571
2766.36, 0.362823
2767.83, 0.362219
2769.31, 0.361414
2770.79, 0.360408
2772.27, 0.361263
2773.76, 0.361816
2775.24, 0.360760
2776.73, 0.358948
2778.22, 0.357439
2779.71, 0.355728
2781.2, 0.353766
2782.69, 0.352357
2784.18, 0.350848
2785.68, 0.347477
2787.18, 0.344709
2788.68, 0.344407
2790.18, 0.344105
2791.68, 0.342445
2793.19, 0.340231
2794.69, 0.337866
2796.2, 0.335351
2797.71, 0.332885
2799.22, 0.330067
2800.73, 0.326243
2802.24, 0.321413
2803.76, 0.317941
2805.28, 0.316180
2806.8, 0.313665
2808.32, 0.310193
2809.84, 0.306671
2811.36, 0.303652
2812.89, 0.300482
2814.42, 0.297413
2815.94, 0.294947
2817.48, 0.292734
2819.01, 0.290570
2820.54, 0.289715
2822.08, 0.289614
2823.61, 0.289966
2825.15, 0.290520
2826.69, 0.291627
2828.23, 0.293186
2829.78, 0.295249
2831.32, 0.297312
2832.87, 0.299576
2834.42, 0.302143
2835.97, 0.304860
2837.52, 0.307627
2839.08, 0.310948
2840.63, 0.314168
2842.19, 0.317086
2843.75, 0.320004
2845.31, 0.322772
2846.87, 0.325338
2848.44, 0.328005
2850.0, 0.330722
2851.57, 0.333388
2853.14, 0.335501
2854.71, 0.337866
2856.28, 0.340634
2857.86, 0.343099
2859.43, 0.345011
2861.01, 0.346973
2862.59, 0.348885
2864.17, 0.350646
2865.76, 0.352005
2867.34, 0.353565
2868.93, 0.355074
2870.52, 0.356332
2872.11, 0.357590
2873.7, 0.359099
2875.29, 0.360156
2876.89, 0.361062
2878.49, 0.362068
2880.08, 0.362823
2881.69, 0.363678
2883.29, 0.364282
2884.89, 0.364835
2886.5, 0.365590
2888.11, 0.366294
2889.72, 0.366999
2891.33, 0.367351
2892.94, 0.367754
2894.56, 0.368408
2896.17, 0.368810
2897.79, 0.369011
2899.42, 0.369011
2901.04, 0.369263
2902.66, 0.369867
2904.29, 0.370118
2905.92, 0.370420
2907.55, 0.370772
2909.18, 0.371175
2910.81, 0.371426
2912.45, 0.371628
2914.08, 0.371678
2915.72, 0.372030
2917.36, 0.372332
2919.01, 0.372433
2920.65, 0.372533
2922.3, 0.372684
2923.94, 0.372886
2925.59, 0.373338
2927.25, 0.373338
2928.9, 0.373489
2930.56, 0.373590
2932.21, 0.373791
2933.87, 0.374043
2935.53, 0.374295
2937.2, 0.374244
2938.86, 0.374596
2940.53, 0.374848
2942.2, 0.375049
2943.87, 0.375200
2945.54, 0.375502
2947.22, 0.375653
2948.89, 0.375905
2950.57, 0.376206
2952.25, 0.376408
2953.93, 0.376559
2955.62, 0.376810
2957.3, 0.376911
2958.99, 0.377213
2960.68, 0.377565
2962.37, 0.377766
2964.07, 0.377817
2965.76, 0.378169
2967.46, 0.378471
2969.16, 0.378772
2970.86, 0.378974
2972.56, 0.379276
2974.27, 0.379527
2975.98, 0.379729
2977.69, 0.380232
2979.4, 0.380483
2981.11, 0.380785
2982.83, 0.381137
2984.54, 0.381590
2986.26, 0.381791
2987.98, 0.381892
2989.71, 0.382194
2991.43, 0.382647
2993.16, 0.383150
2994.89, 0.383402
2996.62, 0.383603
2998.35, 0.383804
3000.09, 0.384207
3001.83, 0.384659
3003.57, 0.385012
3005.31, 0.385213
3007.05, 0.385615
3008.79, 0.386169
3010.54, 0.386571
3012.29, 0.386924
3014.04, 0.387075
3015.8, 0.387276
3017.55, 0.387678
3019.31, 0.388081
3021.07, 0.388433
3022.83, 0.388785
3024.59, 0.389087
3026.36, 0.389490
3028.13, 0.389993
3029.9, 0.390144
3031.67, 0.390345
3033.44, 0.390798
3035.22, 0.391351
3037.0, 0.391804
3038.78, 0.392156
3040.56, 0.392358
3042.34, 0.392609
3044.13, 0.392861
3045.92, 0.393263
3047.71, 0.393616
3049.5, 0.393968
3051.3, 0.394219
3053.09, 0.394521
3054.89, 0.394773
3056.69, 0.395226
3058.5, 0.395628
3060.3, 0.396031
3062.11, 0.396282
3063.92, 0.396685
3065.73, 0.397087
3067.55, 0.397289
3069.36, 0.397439
3071.18, 0.397741
3073.0, 0.398094
3074.82, 0.398446
3076.65, 0.398798
3078.48, 0.399150
3080.31, 0.399301
3082.14, 0.399553
3083.97, 0.399855
3085.8, 0.400207
3087.64, 0.400509
3089.48, 0.400760
3091.33, 0.401062
3093.17, 0.401414
3095.02, 0.401565
3096.87, 0.401867
3098.72, 0.402219
3100.57, 0.402622
3102.43, 0.402823
3104.28, 0.403125
3106.14, 0.403477
3108.01, 0.403930
3109.87, 0.404282
3111.74, 0.404685
3113.61, 0.404836
3115.48, 0.405289
3117.35, 0.405892
3119.23, 0.406396
3121.1, 0.406798
3122.98, 0.407150
3124.87, 0.407653
3126.75, 0.408006
3128.64, 0.408408
3130.53, 0.408911
3132.42, 0.409616
3134.31, 0.410270
3136.21, 0.410672
3138.11, 0.411075
3140.01, 0.411578
3141.91, 0.412081
3143.82, 0.412584
3145.73, 0.413188
3147.64, 0.413842
3149.55, 0.414295
3151.46, 0.414647
3153.38, 0.415201
3155.3, 0.415855
3157.22, 0.416408
3159.14, 0.416962
3161.07, 0.417364
3163.0, 0.417666
3164.93, 0.418220
3166.86, 0.418723
3168.8, 0.419327
3170.74, 0.419779
3172.68, 0.420081
3174.62, 0.420433
3176.56, 0.420735
3178.51, 0.420987
3180.46, 0.421339
3182.42, 0.421742
3184.37, 0.421993
3186.33, 0.422345
3188.29, 0.422547
3190.25, 0.422748
3192.21, 0.423000
3194.18, 0.423251
3196.15, 0.423503
3198.12, 0.423553
3200.09, 0.423754
3202.07, 0.424006
3204.05, 0.424157
3206.03, 0.424207
3208.02, 0.424257
3210.0, 0.424459
3211.99, 0.424811
3213.98, 0.425062
3215.98, 0.425264
3217.97, 0.425364
3219.97, 0.425616
3221.97, 0.425918
3223.98, 0.426069
3225.98, 0.426371
3227.99, 0.426522
3230.0, 0.426723
3232.02, 0.427125
3234.03, 0.427528
3236.05, 0.427729
3238.07, 0.427981
3240.1, 0.428484
3242.12, 0.428886
3244.15, 0.429289
3246.18, 0.429541
3248.22, 0.429893
3250.25, 0.430295
3252.29, 0.430798
3254.33, 0.431402
3256.38, 0.431956
3258.43, 0.432408
3260.47, 0.432710
3262.53, 0.433163
3264.58, 0.433767
3266.64, 0.434220
3268.7, 0.434723
3270.76, 0.435327
3272.82, 0.435880
3274.89, 0.436333
3276.96, 0.436836
3279.04, 0.437289
3281.11, 0.437893
3283.19, 0.438396
3285.27, 0.438849
3287.35, 0.439453
3289.44, 0.440006
3291.53, 0.440308
3293.62, 0.440660
3295.71, 0.441012
3297.81, 0.441516
3299.91, 0.442019
3302.01, 0.442522
3304.11, 0.442874
3306.22, 0.443176
3308.33, 0.443578
3310.44, 0.444031
3312.56, 0.444283
3314.68, 0.444484
3316.8, 0.444736
3318.92, 0.444937
3321.05, 0.445289
3323.18, 0.445440
3325.31, 0.445490
3327.44, 0.445490
3329.58, 0.445440
3331.72, 0.445591
3333.86, 0.445541
3336.01, 0.445239
3338.16, 0.444685
3340.31, 0.444233
3342.46, 0.443629
3344.61, 0.442975
3346.77, 0.442371
3348.94, 0.442019
3351.1, 0.441767
3353.27, 0.441817
3355.44, 0.441868
3357.61, 0.441767
3359.79, 0.441767
3361.97, 0.441918
3364.15, 0.441817
3366.33, 0.441666
3368.52, 0.441465
3370.71, 0.441365
3372.9, 0.441214
3375.1, 0.441163
3377.3, 0.441264
3379.5, 0.441365
3381.71, 0.441566
3383.91, 0.441968
3386.12, 0.442220
3388.34, 0.442321
3390.55, 0.442421
3392.77, 0.442371
3394.99, 0.442270
3397.22, 0.442069
3399.45, 0.441717
3401.68, 0.441465
3403.91, 0.441113
3406.15, 0.440710
3408.39, 0.440308
3410.63, 0.440056
3412.87, 0.440006
3415.12, 0.440409
3417.37, 0.441063
3419.63, 0.441918
3421.88, 0.442975
3424.14, 0.444333
3426.41, 0.445390
3428.67, 0.446547
3430.94, 0.447503
3433.21, 0.448459
3435.49, 0.449214
3437.77, 0.449868
3440.05, 0.450421
3442.33, 0.450975
3444.62, 0.451528
3446.91, 0.452082
3449.2, 0.452484
3451.5, 0.452887
3453.8, 0.453038
3456.1, 0.453088
3458.41, 0.453138
3460.72, 0.453038
3463.03, 0.452686
3465.34, 0.452233
3467.66, 0.451629
3469.98, 0.451025
3472.31, 0.450472
3474.63, 0.450119
3476.96, 0.449818
3479.3, 0.449918
3481.64, 0.450069
3483.97, 0.450371
3486.32, 0.450522
3488.66, 0.450623
3491.01, 0.450874
3493.36, 0.451226
3495.72, 0.451428
3498.08, 0.451679
3500.44, 0.452182
3502.81, 0.452987
3505.18, 0.454145
3507.55, 0.455503
3509.92, 0.456962
3512.3, 0.458120
3514.68, 0.459226
3517.06, 0.460484
3519.45, 0.461793
3521.84, 0.463000
3524.24, 0.464157
3526.64, 0.465264
3529.04, 0.466321
3531.44, 0.467176
3533.85, 0.467931
3536.26, 0.468585
3538.67, 0.469189
3541.09, 0.469793
3543.51, 0.470447
3545.93, 0.470950
3548.36, 0.471302
3550.79, 0.471604
3553.22, 0.472057
3555.66, 0.472409
3558.1, 0.472560
3560.54, 0.472862
3562.99, 0.473164
3565.44, 0.473415
3567.9, 0.473617
3570.35, 0.473768
3572.81, 0.473868
3575.28, 0.474170
3577.75, 0.474371
3580.22, 0.474623
3582.69, 0.474774
3585.17, 0.475076
3587.65, 0.475378
3590.14, 0.475629
3592.62, 0.475931
3595.11, 0.476183
3597.61, 0.476334
3600.11, 0.476585
3602.61, 0.476736
3605.11, 0.476937
3607.62, 0.477088
3610.14, 0.477390
3612.65, 0.477591
3615.17, 0.477591
3617.69, 0.477793
3620.22, 0.477944
3622.75, 0.477893
3625.28, 0.477994
3627.82, 0.478095
3630.36, 0.478246
3632.9, 0.478296
3635.45, 0.478447
3638.0, 0.478447
3640.56, 0.478547
3643.12, 0.478598
3645.68, 0.478648
3648.24, 0.478799
3650.81, 0.478849
3653.39, 0.479000
3655.96, 0.479051
3658.54, 0.479151
3661.13, 0.479302
3663.71, 0.479353
3666.3, 0.479403
3668.9, 0.479554
3671.5, 0.479705
3674.1, 0.479755
3676.7, 0.479956
3679.31, 0.480007
3681.93, 0.480158
3684.54, 0.480309
3687.17, 0.480560
3689.79, 0.480610
3692.42, 0.480761
3695.05, 0.480912
3697.69, 0.481114
3700.32, 0.481214
3702.97, 0.481265
3705.61, 0.481466
3708.27, 0.481717
3710.92, 0.481717
3713.58, 0.481868
3716.24, 0.482019
3718.91, 0.482120
3721.58, 0.482170
3724.25, 0.482371
3726.93, 0.482522
3729.61, 0.482774
3732.29, 0.482925
3734.98, 0.483026
3737.67, 0.483026
3740.37, 0.483176
3743.07, 0.483227
3745.78, 0.483176
3748.49, 0.483227
3751.2, 0.483327
3753.91, 0.483378
3756.63, 0.483428
3759.36, 0.483478
3762.09, 0.483428
3764.82, 0.483378
3767.55, 0.483327
3770.29, 0.483277
3773.04, 0.483126
3775.78, 0.483026
3778.54, 0.483026
3781.29, 0.482925
3784.05, 0.482875
3786.82, 0.482724
3789.59, 0.482472
3792.36, 0.482170
3795.13, 0.481717
3797.92, 0.481265
3800.7, 0.480912
3803.49, 0.480510
3806.28, 0.480158
3809.08, 0.479654
3811.88, 0.479101
3814.68, 0.478598
3817.49, 0.478195
3820.31, 0.477793
3823.12, 0.477239
3825.94, 0.476736
3828.77, 0.476183
3831.6, 0.475579
3834.43, 0.475025
3837.27, 0.474623
3840.11, 0.474321
3842.96, 0.473918
3845.81, 0.473667
3848.67, 0.473466
3851.53, 0.473365
3854.39, 0.473063
3857.26, 0.472862
3860.13, 0.472661
3863.01, 0.472409
3865.89, 0.472308
3868.77, 0.472208
3871.66, 0.472057
3874.55, 0.471856
3877.45, 0.471654
3880.35, 0.471403
3883.26, 0.471101
3886.17, 0.470849
3889.09, 0.470598
3892.01, 0.470396
3894.93, 0.470095
3897.86, 0.469893
3900.79, 0.469692
3903.73, 0.469390
3906.67, 0.469038
3909.62, 0.468887
3912.57, 0.468585
3915.52, 0.468233
3918.48, 0.467931
3921.45, 0.467478
3924.42, 0.467025
3927.39, 0.466522
3930.37, 0.465969
3933.35, 0.465415
3936.34, 0.464560
3939.33, 0.463453
3942.32, 0.461994
3945.32, 0.460434
3948.33, 0.458774
3951.34, 0.457164
3954.35, 0.455755
3957.37, 0.454447
3960.39, 0.453239
3963.42, 0.452182
3966.45, 0.451377
3969.49, 0.450723
3972.53, 0.450220
3975.58, 0.450069
3978.63, 0.450170
3981.68, 0.450572
3984.75, 0.451226
3987.81, 0.452182
3990.88, 0.453340
3993.95, 0.454849
3997.03, 0.456459
4000.12, 0.457918
4003.21, 0.459176
4006.3, 0.460333
4009.4, 0.461289
4012.5, 0.462245
4015.61, 0.462900
4018.72, 0.463705
4021.84, 0.464409
4024.96, 0.465315
4028.09, 0.466271
4031.22, 0.467176
4034.36, 0.468183
4037.5, 0.469239
4040.65, 0.470095
4043.8, 0.470799
4046.96, 0.471252
4050.12, 0.471805
4053.29, 0.472107
4056.46, 0.472308
4059.64, 0.472510
4062.82, 0.472711
4066.0, 0.472862
4069.19, 0.472912
4072.39, 0.472912
4075.59, 0.473013
4078.8, 0.473063
4082.01, 0.473164
4085.23, 0.473113
4088.45, 0.473113
4091.68, 0.473063
4094.91, 0.472962
4098.15, 0.472962
4101.39, 0.473013
4104.63, 0.472912
4107.89, 0.472812
4111.14, 0.472711
4114.41, 0.472610
4117.67, 0.472459
4120.95, 0.472308
4124.23, 0.472308
4127.51, 0.472359
4130.8, 0.472208
4134.09, 0.472057
4137.39, 0.472007
4140.7, 0.472007
4144.01, 0.471956
4147.32, 0.471856
4150.64, 0.471654
4153.97, 0.471554
4157.3, 0.471453
4160.64, 0.471302
4163.98, 0.471201
4167.33, 0.471151
4170.68, 0.470950
4174.04, 0.470749
4177.4, 0.470648
4180.77, 0.470497
4184.14, 0.470296
4187.52, 0.470145
4190.91, 0.469944
4194.3, 0.469491
4197.69, 0.468585
4201.1, 0.467227
4204.5, 0.465264
4207.92, 0.462900
4211.34, 0.460032
4214.76, 0.456962
4218.19, 0.453792
4221.62, 0.450924
4225.06, 0.448409
4228.51, 0.446547
4231.96, 0.445390
4235.42, 0.445239
4238.88, 0.445943
4242.35, 0.447654
4245.83, 0.450220
4249.31, 0.453893
4252.79, 0.458321
4256.28, 0.461038
4259.78, 0.459025
4263.29, 0.455101
4266.79, 0.452132
4270.31, 0.450321
4273.83, 0.449365
4277.35, 0.449113
4280.89, 0.449264
4284.42, 0.449516
4287.97, 0.449868
4291.52, 0.450623
4295.07, 0.451528
4298.63, 0.452686
4302.2, 0.453742
4305.78, 0.454799
4309.35, 0.456006
4312.94, 0.457264
4316.53, 0.458321
4320.13, 0.459277
4323.73, 0.459981
4327.34, 0.460736
4330.96, 0.461289
4334.58, 0.461692
4338.21, 0.461994
4341.84, 0.462296
4345.48, 0.462447
4349.12, 0.462598
4352.77, 0.462598
4356.43, 0.462698
4360.1, 0.462598
4363.76, 0.462547
4367.44, 0.462497
4371.12, 0.462346
4374.81, 0.462346
4378.51, 0.462245
4382.21, 0.462044
4385.92, 0.461943
4389.63, 0.461793
4393.35, 0.461591
4397.08, 0.461289
4400.81, 0.461138
4404.55, 0.460887
4408.29, 0.460686
4412.04, 0.460434
4415.8, 0.460233
4419.57, 0.459981
4423.34, 0.459881
4427.12, 0.459730
4430.9, 0.459478
4434.69, 0.459226
4438.49, 0.458925
4442.29, 0.458774
4446.1, 0.458572
4449.92, 0.458270
4453.74, 0.458069
4457.57, 0.457868
4461.41, 0.457667
4465.25, 0.457264
4469.1, 0.456962
4472.95, 0.456660
4476.82, 0.456409
4480.69, 0.456107
4484.56, 0.455855
4488.44, 0.455553
4492.33, 0.455151
4496.23, 0.454748
4500.13, 0.454346
4504.04, 0.453792
4507.96, 0.453340
4511.88, 0.452836
4515.81, 0.452333
4519.75, 0.451679
4523.69, 0.451075
4527.65, 0.450421
4531.6, 0.449717
4535.57, 0.448912
4539.54, 0.448107
4543.52, 0.447201
4547.5, 0.446346
4551.5, 0.445440
4555.5, 0.444534
4559.5, 0.443478
4563.52, 0.442371
4567.54, 0.441264
4571.56, 0.440207
4575.6, 0.439050
4579.64, 0.437943
4583.69, 0.436635
4587.75, 0.435478
4591.81, 0.434320
4595.88, 0.432962
4599.96, 0.431654
4604.04, 0.430497
4608.14, 0.429239
4612.24, 0.427880
4616.34, 0.426522
4620.46, 0.425163
4624.58, 0.423805
4628.71, 0.422547
4632.84, 0.421188
4636.99, 0.419880
4641.14, 0.418521
4645.3, 0.417163
4649.47, 0.415855
4653.64, 0.414547
4657.82, 0.413440
4662.01, 0.412333
4666.21, 0.411175
4670.41, 0.410018
4674.62, 0.409062
4678.84, 0.408106
4683.07, 0.407201
4687.3, 0.406345
4691.54, 0.405389
4695.79, 0.404433
4700.05, 0.403477
4704.31, 0.402572
4708.59, 0.401616
4712.87, 0.400609
4717.15, 0.399502
4721.45, 0.398245
4725.76, 0.397087
4730.07, 0.395779
4734.39, 0.394421
4738.72, 0.393112
4743.05, 0.391754
4747.39, 0.390345
4751.75, 0.388936
4756.1, 0.387628
4760.47, 0.386320
4764.85, 0.385012
4769.23, 0.383754
4773.62, 0.382596
4778.02, 0.381439
4782.43, 0.380383
4786.85, 0.379326
4791.27, 0.378370
4795.7, 0.377414
4800.14, 0.376458
4804.59, 0.375552
4809.05, 0.374496
4813.51, 0.373489
4817.99, 0.372634
4822.47, 0.371779
4826.96, 0.371074
4831.46, 0.370219
4835.96, 0.369112
4840.48, 0.368055
4845.0, 0.367200
4849.54, 0.366395
4854.08, 0.365540
4858.63, 0.364735
4863.18, 0.364030
4867.75, 0.363225
4872.33, 0.362521
4876.91, 0.361967
4881.5, 0.361464
4886.1, 0.361011
4890.71, 0.360609
4895.33, 0.360307
4899.96, 0.360106
4904.59, 0.360055
4909.24, 0.360106
4913.89, 0.360106
4918.55, 0.360206
4923.22, 0.360307
4927.9, 0.360408
4932.59, 0.360508
4937.29, 0.360558
4942.0, 0.360558
4946.71, 0.360408
4951.44, 0.360055
4956.17, 0.359653
4960.91, 0.359351
4965.67, 0.358999
4970.43, 0.358445
4975.2, 0.357892
4979.98, 0.357238
4984.76, 0.356533
4989.56, 0.355829
4994.37, 0.355024
4999.18, 0.354269
5004.01, 0.353716
5008.84, 0.353061
5013.69, 0.352357
5018.54, 0.351602
5023.4, 0.351502
5028.28, 0.351552
5033.16, 0.351552
5038.05, 0.351451
5042.95, 0.351502
5047.86, 0.351653
5052.78, 0.351804
5057.71, 0.351904
5062.65, 0.352055
5067.6, 0.352206
5072.56, 0.352407
5077.53, 0.352407
5082.5, 0.352256
5087.49, 0.352609
5092.49, 0.352911
5097.5, 0.352911
5102.51, 0.353011
5107.54, 0.353011
5112.58, 0.353061
5117.62, 0.353162
5122.68, 0.353112
5127.75, 0.352961
5132.82, 0.352709
5137.91, 0.352407
5143.01, 0.351753
5148.12, 0.351150
5153.23, 0.351502
5158.36, 0.351552
5163.5, 0.351300
5168.65, 0.350999
5173.81, 0.350697
5178.98, 0.350395
5184.15, 0.350194
5189.34, 0.349791
5194.54, 0.349137
5199.75, 0.348483
5204.98, 0.348382
5210.21, 0.347175
5215.45, 0.346722
5220.7, 0.347577
5225.96, 0.347477
5231.23, 0.346923
5236.52, 0.346219
5241.81, 0.345866
5247.12, 0.345464
5252.44, 0.344961
5257.76, 0.344357
5263.1, 0.343602
5268.45, 0.342546
5273.81, 0.341137
5279.18, 0.339879
5284.56, 0.338420
5289.95, 0.336055
5295.36, 0.334445
5300.77, 0.332986
5306.2, 0.330822
5311.63, 0.328407
5317.08, 0.325740
5322.54, 0.323074
5328.01, 0.320055
5333.49, 0.317086
5338.98, 0.314067
5344.49, 0.309841
5350.0, 0.305413
5355.53, 0.303300
5361.07, 0.301539
5366.62, 0.299073
5372.18, 0.296155
5377.75, 0.293237
5383.34, 0.290419
5388.93, 0.287954
5394.54, 0.285589
5400.16, 0.283123
5405.79, 0.280507
5411.44, 0.277941
5417.09, 0.274318
5422.76, 0.271148
5428.43, 0.271249
5434.12, 0.270595
5439.83, 0.268784
5445.54, 0.267123
5451.26, 0.265765
5457.0, 0.263551
5462.75, 0.260683
5468.52, 0.259827
5474.29, 0.259022
5480.08, 0.257714
5485.88, 0.257513
5491.69, 0.256758
5497.51, 0.255752
5503.35, 0.254695
5509.2, 0.253840
5515.06, 0.252532
5520.93, 0.251022
5526.82, 0.250016
5532.71, 0.249060
5538.63, 0.247299
5544.55, 0.244834
5550.49, 0.242066
5556.44, 0.240557
5562.4, 0.240054
5568.37, 0.239349
5574.36, 0.237236
5580.36, 0.236582
5586.37, 0.238846
5592.4, 0.240305
5598.44, 0.240003
5604.49, 0.239903
5610.56, 0.239852
5616.63, 0.239249
5622.73, 0.239098
5628.83, 0.238242
5634.95, 0.235676
5641.08, 0.232607
5647.23, 0.233110
5653.39, 0.233261
5659.56, 0.233261
5665.74, 0.233261
5671.94, 0.231098
5678.15, 0.230142
5684.38, 0.230393
5690.62, 0.229437
5696.87, 0.229538
5703.14, 0.228531
5709.42, 0.226167
5715.72, 0.226217
5722.03, 0.227072
5728.35, 0.227676
5734.69, 0.227274
5741.03, 0.226368
5747.4, 0.225211
5753.78, 0.225865
5760.17, 0.222997
5766.58, 0.219626
5773.0, 0.222494
5779.44, 0.224406
5785.88, 0.224707
5792.35, 0.224557
5798.83, 0.223802
5805.32, 0.223349
5811.83, 0.221538
5818.35, 0.217261
5824.89, 0.216204
5831.45, 0.218468
5838.01, 0.219877
5844.59, 0.220129
5851.19, 0.219223
5857.8, 0.217613
5864.43, 0.216456
5871.07, 0.215701
5877.73, 0.210418
5884.4, 0.210217
5891.09, 0.211525
5897.79, 0.210821
5904.5, 0.214343
5911.23, 0.215148
5917.98, 0.214242
5924.75, 0.213085
5931.53, 0.208758
5938.32, 0.206695
5945.13, 0.210720
5951.96, 0.212179
5958.8, 0.211777
5965.65, 0.208858
5972.53, 0.208405
5979.42, 0.208707
5986.32, 0.206393
5993.24, 0.206091
6000.18, 0.207248
6007.13, 0.205739
6014.1, 0.203625
6021.08, 0.203676
6028.09, 0.203324
6035.1, 0.201261
6042.14, 0.195022
6049.19, 0.189839
6056.25, 0.194518
6063.34, 0.196229
6070.44, 0.193411
6077.55, 0.193965
6084.69, 0.196279
6091.84, 0.196581
6099.0, 0.195877
6106.19, 0.193261
6113.39, 0.190946
6120.61, 0.193915
6127.84, 0.196531
6135.09, 0.196481
6142.36, 0.196279
6149.65, 0.196581
6156.95, 0.196028
6164.27, 0.197034
6171.61, 0.198644
6178.97, 0.197034
6186.34, 0.196330
6193.73, 0.199902
6201.14, 0.201814
6208.57, 0.202418
6216.01, 0.203122
6223.47, 0.204179
6230.95, 0.205236
6238.45, 0.206242
6245.97, 0.207298
6253.5, 0.208405
6261.06, 0.209210
6268.63, 0.210166
6276.21, 0.211223
6283.82, 0.212280
6291.45, 0.213286
6299.1, 0.214393
6306.76, 0.215450
6314.44, 0.216607
6322.14, 0.217764
6329.86, 0.218720
6337.6, 0.217009
6345.35, 0.216556
6353.13, 0.221185
6360.92, 0.222896
6368.74, 0.222041
6376.57, 0.224204
6384.43, 0.226318
6392.3, 0.227173
6400.19, 0.226418
6408.1, 0.220531
6416.03, 0.218972
6423.98, 0.225110
6431.95, 0.228129
6439.94, 0.230142
6447.95, 0.231047
6455.98, 0.231349
6464.03, 0.230947
6472.1, 0.228682
6480.19, 0.226116
6488.31, 0.222141
6496.44, 0.222041
6504.59, 0.227072
6512.76, 0.227726
6520.95, 0.225462
6529.16, 0.226318
6537.4, 0.225663
6545.65, 0.223299
6553.92, 0.220984
6562.22, 0.218569
6570.54, 0.214393
6578.88, 0.214242
6587.23, 0.214091
6595.61, 0.212984
6604.02, 0.212531
6612.44, 0.210619
6620.89, 0.208003
6629.35, 0.202619
6637.84, 0.198393
6646.35, 0.201009
6654.88, 0.202669
6663.44, 0.200556
6672.01, 0.197336
6680.61, 0.194720
6689.23, 0.194619
6697.88, 0.194015
6706.54, 0.190845
6715.23, 0.188833
6723.94, 0.188279
6732.67, 0.187826
6741.42, 0.186720
6750.2, 0.185009
6759.0, 0.183499
6767.82, 0.181185
6776.67, 0.178367
6785.54, 0.175197
6794.44, 0.174292
6803.35, 0.175449
6812.29, 0.174493
6821.26, 0.171826
6830.24, 0.170417
6839.25, 0.170267
6848.29, 0.167952
6857.35, 0.163575
6866.43, 0.162065
6875.54, 0.164430
6884.67, 0.164631
6893.82, 0.163776
6903.0, 0.162367
6912.2, 0.161965
6921.43, 0.161914
6930.69, 0.161562
6939.96, 0.160958
6949.27, 0.159449
6958.59, 0.157084
6967.95, 0.157939
6977.33, 0.158946
6986.73, 0.158442
6996.16, 0.157990
7005.61, 0.158241
7015.09, 0.157990
7024.6, 0.157738
7034.13, 0.157034
7043.69, 0.155373
7053.27, 0.156279
7062.88, 0.157889
7072.52, 0.158342
7082.18, 0.158442
7091.87, 0.158644
7101.58, 0.158845
7111.32, 0.158543
7121.09, 0.158593
7130.88, 0.158996
7140.71, 0.158543
7150.56, 0.158292
7160.43, 0.158442
7170.33, 0.158493
7180.27, 0.159700
7190.23, 0.160405
7200.21, 0.160002
7210.23, 0.159801
7220.27, 0.160505
7230.34, 0.160606
7240.44, 0.160505
7250.56, 0.160203
7260.72, 0.159851
7270.9, 0.158996
7281.12, 0.158644
7291.36, 0.158644
7301.63, 0.158141
7311.93, 0.157587
7322.25, 0.157084
7332.61, 0.155927
7343.0, 0.155273
7353.41, 0.155021
7363.86, 0.154518
7374.33, 0.153612
7384.83, 0.152807
7395.37, 0.151901
7405.93, 0.150996
7416.53, 0.150040
7427.15, 0.149134
7437.81, 0.148178
7448.5, 0.147172
7459.22, 0.145763
7469.96, 0.144706
7480.74, 0.143801
7491.55, 0.142996
7502.39, 0.141838
7513.27, 0.140631
7524.17, 0.139474
7535.11, 0.138367
7546.08, 0.137058
7557.08, 0.135851
7568.11, 0.134593
7579.17, 0.133335
7590.27, 0.132228
7601.4, 0.131121
7612.56, 0.129914
7623.76, 0.128907
7634.98, 0.127851
7646.24, 0.126845
7657.54, 0.125788
7668.87, 0.124782
7680.23, 0.123675
7691.62, 0.122568
7703.05, 0.121360
7714.51, 0.120153
7726.01, 0.118945
7737.54, 0.117737
7749.11, 0.116329
7760.71, 0.114870
7772.35, 0.113310
7784.02, 0.112002
7795.72, 0.110895
7807.46, 0.109586
7819.23, 0.108027
7831.04, 0.106618
7842.89, 0.105259
7854.77, 0.103850
7866.69, 0.102341
7878.65, 0.100781
7890.64, 0.0992210
7902.67, 0.0978630
7914.74, 0.0964040
7926.84, 0.0948940
7938.98, 0.0933350
7951.16, 0.0917250
7963.37, 0.0901140
7975.62, 0.0885040
7987.91, 0.0866430
8000.24, 0.0848820
8012.6, 0.0832210
8025.01, 0.0816620
8037.45, 0.0799000
8049.93, 0.0781390
8062.45, 0.0762780
8075.01, 0.0745670
8087.61, 0.0729070
8100.24, 0.0711960
8112.91, 0.0692340
8125.63, 0.0673720
8138.39, 0.0654600
8151.18, 0.0634470
8164.02, 0.0614350
8176.9, 0.0594730
8189.81, 0.0573590
8202.77, 0.0553470
8215.77, 0.0531830
8228.82, 0.0510700
8241.9, 0.0490570
8255.02, 0.0471960
8268.19, 0.0451830
8281.39, 0.0431700
8294.65, 0.0411070
8307.94, 0.0389940
8321.28, 0.0368310
8334.66, 0.0349190
8348.08, 0.0330070
8361.54, 0.0311450
8375.05, 0.0293340
8388.6, 0.0276730
8402.2, 0.0259120
8415.84, 0.0242520
8429.52, 0.0226420
8443.25, 0.0212330
8457.02, 0.0199250
8470.84, 0.0187680
8484.7, 0.0175600
8498.61, 0.0165030
8512.57, 0.0154970
8526.57, 0.0148430
8540.62, 0.0143400
8554.71, 0.0139880
8568.85, 0.0134840
8583.04, 0.0132830
8597.27, 0.0132830
8611.55, 0.0134840
8625.88, 0.0137360
8640.26, 0.0143900
8654.68, 0.0152450
8669.16, 0.0164530
8683.68, 0.0178620
8698.25, 0.0194220
8712.87, 0.0212830
8727.53, 0.0236980
8742.25, 0.0264150
8757.02, 0.0295850
8771.83, 0.0331070
8786.7, 0.0372330
8801.62, 0.0418120
8816.59, 0.0468430
8831.61, 0.0521270
8846.68, 0.0579630
8861.8, 0.0643030
8876.97, 0.0709950
8892.2, 0.0777370
8907.48, 0.0847810
8922.81, 0.0921270
8938.2, 0.0993720
8953.63, 0.106316
8969.13, 0.112656
8984.67, 0.118291
9000.27, 0.123172
9015.92, 0.127146
9031.63, 0.130467
9047.39, 0.133536
9063.21, 0.136757
9079.08, 0.139977
9095.01, 0.143449
9111.0, 0.146971
9127.04, 0.150543
9143.13, 0.153813
9159.28, 0.156732
9175.49, 0.158946
9191.76, 0.160606
9208.09, 0.161512
9224.47, 0.161814
9240.92, 0.161763
9257.42, 0.161612
9273.98, 0.161210
9290.6, 0.160908
9307.28, 0.160757
9324.02, 0.160556
9340.82, 0.160707
9357.68, 0.161210
9374.6, 0.162065
9391.58, 0.163524
9408.62, 0.165235
9425.73, 0.167449
9442.9, 0.169864
9460.13, 0.172279
9477.42, 0.174845
9494.78, 0.177612
9512.2, 0.180179
9529.69, 0.182644
9547.24, 0.185059
9564.86, 0.187525
9582.54, 0.190091
9600.28, 0.192858
9618.1, 0.196229
9635.97, 0.199952
9653.92, 0.204028
9671.93, 0.208556
9690.01, 0.213336
9708.16, 0.217865
9726.37, 0.221689
9744.65, 0.224758
9763.0, 0.226972
9781.43, 0.228230
9799.92, 0.228179
9818.48, 0.226368
9837.1, 0.222846
9855.8, 0.217512
9874.58, 0.210468
9893.42, 0.202368
9912.34, 0.193713
9931.33, 0.185009
9950.39, 0.176455
9969.52, 0.168455
9988.74, 0.160757
10008.0, 0.153562
10027.4, 0.146719
10046.8, 0.140279
10066.3, 0.134543
10085.9, 0.129411
10105.6, 0.124731
10125.3, 0.120756
10145.1, 0.117687
10165.0, 0.115473
10185.0, 0.114215
10205.0, 0.113813
10225.2, 0.113612
10245.4, 0.113612
10265.7, 0.113612
10286.0, 0.113410
10306.5, 0.112958
10327.0, 0.112404
10347.6, 0.111197
10368.3, 0.109486
10389.1, 0.107473
10409.9, 0.105360
10430.9, 0.103096
10451.9, 0.100983
10473.0, 0.0988690
10494.2, 0.0970080
10515.5, 0.0950960
10536.9, 0.0934350
10558.4, 0.0920770
10579.9, 0.0908690
10601.5, 0.0897120
10623.3, 0.0888060
10645.1, 0.0880520
10667.0, 0.0874480
10689.0, 0.0869950
10711.1, 0.0865920
10733.2, 0.0861900
10755.5, 0.0857870
10777.9, 0.0855860
10800.3, 0.0855360
10822.9, 0.0851840
10845.5, 0.0849320
10868.2, 0.0847810
10891.1, 0.0846300
10914.0, 0.0845290
10937.0, 0.0844790
10960.2, 0.0844790
10983.4, 0.0846800
11006.7, 0.0849820
11030.1, 0.0852840
11053.6, 0.0858880
11077.3, 0.0866930
11101.0, 0.0873970
11124.8, 0.0881020
11148.7, 0.0889570
11172.7, 0.0901140
11196.9, 0.0911710
11221.1, 0.0923280
11245.4, 0.0934350
11269.9, 0.0946930
11294.4, 0.0957500
11319.1, 0.0965040
11343.9, 0.0971080
11368.8, 0.0980140
11393.7, 0.0989700
11418.8, 0.100077
11444.0, 0.101284
11469.4, 0.102693
11494.8, 0.104001
11520.3, 0.105461
11546.0, 0.106668
11571.8, 0.107876
11597.7, 0.109083
11623.7, 0.110291
11649.8, 0.111297
11676.0, 0.112152
11702.4, 0.113159
11728.9, 0.114366
11755.5, 0.115624
11782.2, 0.116832
11809.0, 0.117888
11836.0, 0.119197
11863.0, 0.120404
11890.3, 0.121410
11917.6, 0.122366
11945.0, 0.123272
11972.6, 0.123675
12000.4, 0.123926
12028.2, 0.124077
12056.2, 0.123926
12084.3, 0.123222
12112.5, 0.122366
12140.9, 0.121109
12169.4, 0.119549
12198.0, 0.117587
12226.8, 0.115373
12255.7, 0.112706
12284.7, 0.110039
12313.9, 0.106970
12343.2, 0.103800
12372.7, 0.100681
12402.3, 0.0980140
12432.0, 0.0955990
12461.9, 0.0932340
12491.9, 0.0909700
12522.1, 0.0889570
12552.4, 0.0868440
12582.9, 0.0849820
12613.5, 0.0828690
12644.3, 0.0807060
12675.2, 0.0782400
12706.3, 0.0758250
12737.5, 0.0734600
12768.9, 0.0712460
12800.4, 0.0689820
12832.1, 0.0669190
12863.9, 0.0645540
12895.9, 0.0626930
12928.1, 0.0610830
12960.4, 0.0595730
12992.9, 0.0583150
13025.5, 0.0576610
13058.3, 0.0568560
13091.3, 0.0560510
13124.4, 0.0550450
13157.8, 0.0540890
13191.2, 0.0530820
13224.9, 0.0520760
13258.7, 0.0509190
13292.7, 0.0500640
13326.9, 0.0489570
13361.2, 0.0475980
13395.7, 0.0461390
13430.4, 0.0445290
13465.3, 0.0427680
13500.4, 0.0414600
13535.7, 0.0399500
13571.1, 0.0387430
13606.7, 0.0378370
13642.5, 0.0371330
13678.5, 0.0362270
13714.7, 0.0361260
13751.1, 0.0365790
13787.6, 0.0369310
13824.4, 0.0373340
13861.4, 0.0382900
13898.5, 0.0392960
13935.9, 0.0402520
13973.5, 0.0409570
14011.2, 0.0419130
14049.2, 0.0428180
14087.4, 0.0437740
14125.8, 0.0444280
14164.3, 0.0449310
14203.2, 0.0446300
14242.2, 0.0439750
14281.4, 0.0430190
14320.9, 0.0414090
14360.5, 0.0394970
14400.4, 0.0380380
14440.5, 0.0363780
14480.9, 0.0350190
14521.4, 0.0335600
14562.2, 0.0328050
14603.3, 0.0321010
14644.5, 0.0317990
14686.0, 0.0311950
14727.7, 0.0308430
14769.7, 0.0306420
14811.9, 0.0304410
14854.3, 0.0301890
14897.0, 0.0297870
14939.9, 0.0285790
14983.1, 0.0280260
15026.5, 0.0282270
15070.2, 0.0278240
15114.2, 0.0270190
15158.3, 0.0266670
15202.8, 0.0261140
15247.5, 0.0259120
15292.5, 0.0263150
15337.7, 0.0266670
15383.2, 0.0265660
15429.0, 0.0268680
15475.1, 0.0265660
15521.4, 0.0263650
15568.0, 0.0266670
15614.9, 0.0268180
15662.1, 0.0264660
15709.6, 0.0261640
15757.3, 0.0258120
15805.4, 0.0253590
15853.7, 0.0247050
15902.3, 0.0242520
15951.2, 0.0235980
16000.5, 0.0233460
16050.0, 0.0230440
16099.8, 0.0227420
16150.0, 0.0221390
16200.5, 0.0213840
16251.3, 0.0208300
16302.4, 0.0204280
16353.8, 0.0201760
16405.5, 0.0202270
16457.6, 0.0201260
16510.0, 0.0202770
16562.8, 0.0200250
16615.9, 0.0196730
16669.3, 0.0197240
16723.1, 0.0201260
16777.2, 0.0203780
16831.7, 0.0208810
16886.5, 0.0212330
16941.7, 0.0222900
16997.2, 0.0232960
17053.1, 0.0245030
17109.4, 0.0257110
17166.1, 0.0273710
17223.1, 0.0293840
17280.5, 0.0318490
17338.3, 0.0351700
17396.5, 0.0389440
17455.1, 0.0432710
17514.0, 0.0489570
17573.4, 0.0549940
17633.2, 0.0622900
17693.4, 0.0699880
17754.0, 0.0786430
17815.0, 0.0875480
17876.4, 0.0965550
17938.3, 0.105964
18000.5, 0.115524
18063.3, 0.124379
18126.4, 0.133637
18190.0, 0.142040
18254.1, 0.150543
18318.6, 0.159147
18383.5, 0.167449
18449.0, 0.174745
18514.9, 0.181738
18581.2, 0.187977
18648.0, 0.194518
18715.4, 0.200607
18783.2, 0.205286
18851.5, 0.209462
18920.3, 0.213185
18989.6, 0.215701
19059.4, 0.217814
19129.7, 0.220079
19200.6, 0.222192
19272.0, 0.223450
19343.9, 0.223902
19416.3, 0.225462
19489.3, 0.225915
19562.8, 0.224959
19637.0, 0.224657
19711.6, 0.225009
19786.8, 0.224154
19862.6, 0.223097
19939.0, 0.222393
20016.0, 0.221538
20093.6, 0.220733
20171.8, 0.218921
20250.6, 0.216959
20330.0, 0.215550
20410.0, 0.214343
20490.7, 0.212984
20572.0, 0.211374
20654.0, 0.209563
20736.6, 0.208556
20819.9, 0.207953
20903.8, 0.208104
20988.5, 0.208305
21073.8, 0.209311
21159.8, 0.209110
21246.5, 0.208808
21334.0, 0.207349
21422.1, 0.206141
21511.0, 0.204984
21600.7, 0.201563
21691.0, 0.196783
21782.1, 0.192204
21874.0, 0.184355
21966.7, 0.178116
22060.2, 0.173134
22154.5, 0.168807
22249.6, 0.163071
22345.5, 0.154844
22442.2, 0.149964
22539.8, 0.145915
22638.2, 0.143294
22737.5, 0.141227
22837.7, 0.137433
22938.7, 0.133491
23040.7, 0.130273
23143.5, 0.125499
23247.3, 0.120513
23352.1, 0.118254
23457.7, 0.116677
23564.4, 0.114056
23672.0, 0.111328
23780.5, 0.107790
23890.1, 0.104402
24000.7, 0.102313
24112.3, 0.101930
24225.0, 0.0997770
24338.7, 0.0967510
24453.5, 0.0963680
24569.4, 0.0956640
24686.4, 0.0936610
24804.5, 0.0927660
24923.8, 0.0899960
25044.2, 0.0884830
25165.8, 0.0880140
25288.6, 0.0879920
25412.5, 0.0867140
25537.7, 0.0864790
25664.1, 0.0851370
25791.8, 0.0843060
25920.8, 0.0848380
26051.1, 0.0844120
26182.6, 0.0837520
26315.5, 0.0851150
26449.8, 0.0855420
26585.4, 0.0849240
26722.5, 0.0856480
26860.9, 0.0877580
27000.8, 0.0884400
27142.1, 0.0885680
27285.0, 0.0904640
27429.4, 0.0917000
27575.3, 0.0916790
27722.7, 0.0926810
27871.8, 0.0926380
28022.4, 0.0917220
28174.7, 0.0917860
28328.7, 0.0921910
28484.4, 0.0921690
28641.7, 0.0930430
28800.9, 0.0940020
28961.8, 0.0953450
29124.5, 0.0964100
29289.0, 0.0961760
29455.4, 0.0962180
29623.8, 0.0967510
29794.0, 0.0966660
29966.3, 0.0968360
30140.5, 0.0970490
30316.7, 0.0957710
30495.1, 0.0947270
30675.5, 0.0948540
30858.1, 0.0942580
31042.8, 0.0950680
31229.8, 0.0961330
31419.1, 0.0948120
31610.7, 0.0938950
31804.6, 0.0940660
32000.9, 0.0941300
32199.7, 0.0944710
32400.9, 0.0950680
32604.8, 0.0944280
32811.1, 0.0921910
33020.1, 0.0902940
33231.8, 0.0912960
33446.2, 0.0917860
33663.4, 0.0920200
33883.4, 0.0924890
34106.3, 0.0928730
34332.1, 0.0915300
34561.0, 0.0885460
34792.9, 0.0880780
35028.0, 0.0893990
35266.3, 0.0887600
35507.8, 0.0878860
35752.7, 0.0875020
36001.0, 0.0877580
36252.8, 0.0903580
36508.1, 0.0911460
36767.0, 0.0904220
37029.7, 0.0897400
37296.1, 0.0892920
37566.3, 0.0909550
37840.5, 0.0936400
38118.8, 0.0940230
38401.2, 0.0933200
38687.8, 0.0941090
38978.6, 0.0941730
39273.9, 0.0919350
39573.7, 0.0924250
39878.1, 0.0958350
40187.3, 0.0969640
40501.2, 0.0983490
40820.0, 0.101035
41144.0, 0.102164
41473.2, 0.103635
41807.6, 0.105531
42147.5, 0.106064
42493.0, 0.106298
42844.2, 0.107108
43201.2, 0.108749
43564.3, 0.108387
43933.5, 0.104998
44309.0, 0.105680
44691.0, 0.108792
45079.6, 0.109857
45475.0, 0.113565
45877.5, 0.115185
46287.1, 0.114737
46704.2, 0.115846
47128.7, 0.116655
47561.1, 0.114823
48001.5, 0.115441
48450.1, 0.120534
48907.2, 0.117103
49373.0, 0.111924
49847.7, 0.118531
50331.5, 0.122665
50825.0, 0.121152
51328.2, 0.119447
51841.5, 0.121642
52365.1, 0.123049
52899.4, 0.123262
53444.8, 0.126096
54001.5, 0.130294
54570.1, 0.131381
55150.6, 0.130806
55743.6, 0.131658
56349.5, 0.132255
56968.7, 0.131594
57601.7, 0.133129
58248.9, 0.131189
58910.9, 0.128355
59588.1, 0.129378
60281.0, 0.129932
60990.2, 0.127865
61716.3, 0.125308
62459.8, 0.121365
63221.6, 0.117146
64002.1, 0.112862
64802.1, 0.105361
65622.1, 0.0953660
66463.4, 0.106021
67326.6, 0.110582
68212.4, 0.0901870
69121.9, 0.0887810
70056.0, 0.0896550
71015.7, 0.0924460
72002.0, 0.0962610
73016.3, 0.0995850
74059.4, 0.0976250
75132.7, 0.0905070
76237.6, 0.0888660
77375.5, 0.0939170
78547.9, 0.0948970
79756.3, 0.0977100
81002.5, 0.0997770
82288.5, 0.103826
83615.7, 0.107364
84986.5, 0.113267
86402.9, 0.118573
87867.4, 0.110944
89382.4, 0.0922970
90950.5, 0.102654
92574.6, 0.111285
94257.2, 0.104402
96002.7, 0.0905710
97814.1, 0.0783810
99695.1, 0.0684720
101650.0, 0.0624410
103683.0, 0.0563880
105799.0, 0.0474590
108003.0, 0.0497390
110301.0, 0.0597560
112699.0, 0.0664680
115204.0, 0.0773800
117822.0, 0.0904220
120562.0, 0.0952170
123433.0, 0.0957710
126443.0, 0.104231
129604.0, 0.119831
132926.0, 0.125649
136424.0, 0.118936
140111.0, 0.125435
144003.0, 0.132404
148118.0, 0.142079
152474.0, 0.151690
157095.0, 0.146981
162004.0, 0.143528
167231.0, 0.151115
172805.0, 0.155676
178764.0, 0.152799
185148.0, 0.131125
192005.0, 0.124796
199390.0, 0.148664
207366.0, 0.199917
216006.0, 0.236486
