Database of Origin, USGS Spectral Database
Sample Description, See USGS database for additional info
Date Added,2016-08-10 02:53:35.214220

Data ID,USGS_hal07          
Sample ID, halloysite_nmnh106236.9052
Mineral Name, halloysite
Material Class,Phyllosilicate

Wavelength
1340.96, 0.809169
1341.31, 0.809264
1341.66, 0.809738
1342.0, 0.809549
1342.35, 0.808979
1342.7, 0.808979
1343.05, 0.808220
1343.39, 0.807080
1343.74, 0.807460
1344.09, 0.808504
1344.44, 0.807365
1344.79, 0.805561
1345.14, 0.804802
1345.48, 0.805277
1345.83, 0.805182
1346.18, 0.804517
1346.53, 0.803283
1346.88, 0.802049
1347.23, 0.801764
1347.58, 0.801100
1347.93, 0.798537
1348.28, 0.796828
1348.64, 0.796259
1348.99, 0.795974
1349.34, 0.794740
1349.69, 0.792272
1350.04, 0.791227
1350.39, 0.790563
1350.74, 0.788949
1351.1, 0.787620
1351.45, 0.786671
1351.8, 0.784677
1352.15, 0.783064
1352.51, 0.782209
1352.86, 0.779931
1353.21, 0.777937
1353.56, 0.777368
1353.92, 0.776703
1354.27, 0.775279
1354.63, 0.773381
1354.98, 0.772527
1355.33, 0.771197
1355.69, 0.769394
1356.04, 0.769774
1356.4, 0.768729
1356.75, 0.766071
1357.11, 0.764173
1357.46, 0.764458
1357.82, 0.763318
1358.18, 0.761420
1358.53, 0.760186
1358.89, 0.759237
1359.24, 0.756673
1359.6, 0.756104
1359.96, 0.756009
1360.31, 0.754205
1360.67, 0.751927
1361.03, 0.750028
1361.39, 0.748130
1361.74, 0.745947
1362.1, 0.742909
1362.46, 0.742339
1362.82, 0.742909
1363.18, 0.742719
1363.53, 0.741105
1363.89, 0.738162
1364.25, 0.734365
1364.61, 0.732467
1364.97, 0.732087
1365.33, 0.730378
1365.69, 0.729334
1366.05, 0.728859
1366.41, 0.726961
1366.77, 0.724113
1367.13, 0.721740
1367.49, 0.718987
1367.85, 0.717848
1368.21, 0.715000
1368.57, 0.713196
1368.93, 0.712627
1369.3, 0.709779
1369.66, 0.706361
1370.02, 0.704463
1370.38, 0.701900
1370.74, 0.698482
1371.11, 0.696869
1371.47, 0.694970
1371.83, 0.690508
1372.19, 0.687566
1372.56, 0.685382
1372.92, 0.682060
1373.29, 0.678263
1373.65, 0.675130
1374.01, 0.671903
1374.38, 0.668295
1374.74, 0.663739
1375.11, 0.659752
1375.47, 0.655195
1375.84, 0.650828
1376.2, 0.645702
1376.57, 0.639057
1376.93, 0.634026
1377.3, 0.629659
1377.67, 0.624628
1378.03, 0.618553
1378.4, 0.612477
1378.76, 0.606402
1379.13, 0.600991
1379.5, 0.595390
1379.87, 0.588555
1380.23, 0.580676
1380.6, 0.574221
1380.97, 0.569095
1381.34, 0.563399
1381.7, 0.558178
1382.07, 0.551344
1382.44, 0.543465
1382.81, 0.539003
1383.18, 0.535491
1383.55, 0.530649
1383.92, 0.525428
1384.29, 0.521631
1384.66, 0.518024
1385.03, 0.514322
1385.4, 0.511379
1385.77, 0.508531
1386.14, 0.505683
1386.51, 0.503405
1386.88, 0.502361
1387.25, 0.501221
1387.62, 0.498563
1387.99, 0.497329
1388.36, 0.497804
1388.74, 0.497709
1389.11, 0.497614
1389.48, 0.498279
1389.85, 0.498279
1390.23, 0.499038
1390.6, 0.500652
1390.97, 0.502361
1391.35, 0.503120
1391.72, 0.502835
1392.09, 0.503500
1392.47, 0.505683
1392.84, 0.508911
1393.21, 0.511284
1393.59, 0.512993
1393.96, 0.514511
1394.34, 0.516030
1394.71, 0.516790
1395.09, 0.518498
1395.46, 0.520682
1395.84, 0.522201
1396.22, 0.523719
1396.59, 0.526472
1396.97, 0.528466
1397.35, 0.529985
1397.72, 0.531693
1398.1, 0.533307
1398.48, 0.534351
1398.85, 0.534541
1399.23, 0.534636
1399.61, 0.535965
1399.99, 0.537199
1400.37, 0.537484
1400.74, 0.538623
1401.12, 0.539762
1401.5, 0.540332
1401.88, 0.540522
1402.26, 0.540522
1402.64, 0.540332
1403.02, 0.539478
1403.4, 0.538908
1403.78, 0.537864
1404.16, 0.535775
1404.54, 0.532833
1404.92, 0.530364
1405.3, 0.528751
1405.68, 0.526662
1406.06, 0.523435
1406.44, 0.519258
1406.83, 0.513942
1407.21, 0.507771
1407.59, 0.501316
1407.97, 0.494482
1408.35, 0.487362
1408.74, 0.479293
1409.12, 0.470560
1409.5, 0.461826
1409.89, 0.454517
1410.27, 0.446638
1410.65, 0.438854
1411.04, 0.432683
1411.42, 0.428601
1411.81, 0.424994
1412.19, 0.423095
1412.58, 0.423001
1412.96, 0.424045
1413.35, 0.425659
1413.73, 0.428032
1414.12, 0.432303
1414.5, 0.439043
1414.89, 0.447397
1415.28, 0.457839
1415.66, 0.469800
1416.05, 0.482426
1416.44, 0.494576
1416.82, 0.506822
1417.21, 0.517359
1417.6, 0.527517
1417.98, 0.537294
1418.37, 0.546028
1418.76, 0.552862
1419.15, 0.559602
1419.54, 0.567576
1419.93, 0.574886
1420.32, 0.580392
1420.71, 0.585043
1421.09, 0.590359
1421.48, 0.594536
1421.88, 0.597953
1422.27, 0.601561
1422.66, 0.605073
1423.05, 0.607921
1423.44, 0.609250
1423.83, 0.611623
1424.22, 0.613806
1424.61, 0.615515
1425.0, 0.617509
1425.39, 0.619407
1425.78, 0.620831
1426.18, 0.622255
1426.57, 0.623584
1426.96, 0.625483
1427.36, 0.626812
1427.75, 0.627476
1428.14, 0.628900
1428.54, 0.630229
1428.93, 0.631368
1429.32, 0.632412
1429.72, 0.633362
1430.11, 0.634406
1430.51, 0.635640
1430.9, 0.636494
1431.3, 0.638013
1431.69, 0.638962
1432.09, 0.640102
1432.48, 0.641336
1432.88, 0.642190
1433.28, 0.642475
1433.67, 0.643804
1434.07, 0.645228
1434.46, 0.646841
1434.86, 0.647886
1435.26, 0.648550
1435.66, 0.649310
1436.05, 0.649215
1436.45, 0.649594
1436.85, 0.650354
1437.25, 0.650733
1437.65, 0.651588
1438.05, 0.652632
1438.44, 0.653202
1438.84, 0.654056
1439.24, 0.654910
1439.64, 0.655100
1440.04, 0.655385
1440.44, 0.656239
1440.84, 0.656904
1441.24, 0.657094
1441.65, 0.657663
1442.05, 0.658043
1442.45, 0.658043
1442.85, 0.658897
1443.25, 0.658992
1443.65, 0.658802
1444.05, 0.659562
1444.46, 0.659941
1444.86, 0.660226
1445.26, 0.660226
1445.67, 0.660226
1446.07, 0.660796
1446.47, 0.661271
1446.88, 0.662220
1447.28, 0.663074
1447.68, 0.663264
1448.09, 0.663169
1448.49, 0.663359
1448.9, 0.663929
1449.3, 0.664213
1449.71, 0.665068
1450.11, 0.665542
1450.52, 0.665447
1450.93, 0.665732
1451.33, 0.666112
1451.74, 0.666207
1452.14, 0.667061
1452.55, 0.667441
1452.96, 0.668010
1453.36, 0.668485
1453.77, 0.668390
1454.18, 0.668295
1454.59, 0.668675
1455.0, 0.669245
1455.41, 0.669055
1455.81, 0.669245
1456.22, 0.669339
1456.63, 0.668960
1457.04, 0.669624
1457.45, 0.670289
1457.86, 0.669909
1458.27, 0.669814
1458.68, 0.669814
1459.09, 0.670194
1459.5, 0.671048
1459.91, 0.671048
1460.32, 0.670763
1460.74, 0.670384
1461.15, 0.670384
1461.56, 0.670668
1461.97, 0.671048
1462.39, 0.670574
1462.8, 0.670384
1463.21, 0.670953
1463.62, 0.671048
1464.04, 0.670953
1464.45, 0.671143
1464.86, 0.670858
1465.28, 0.670289
1465.69, 0.670858
1466.11, 0.671713
1466.52, 0.671618
1466.94, 0.671903
1467.35, 0.672092
1467.77, 0.672377
1468.18, 0.672377
1468.6, 0.672282
1469.02, 0.672472
1469.43, 0.672377
1469.85, 0.673042
1470.27, 0.673231
1470.68, 0.673421
1471.1, 0.674181
1471.52, 0.674655
1471.94, 0.674845
1472.35, 0.674845
1472.77, 0.675320
1473.19, 0.675415
1473.61, 0.675320
1474.03, 0.675700
1474.45, 0.676364
1474.87, 0.677218
1475.29, 0.677503
1475.71, 0.677503
1476.13, 0.677598
1476.55, 0.677788
1476.97, 0.678642
1477.39, 0.679307
1477.81, 0.679022
1478.23, 0.678548
1478.65, 0.678737
1479.07, 0.679307
1479.5, 0.679212
1479.92, 0.679022
1480.34, 0.679687
1480.76, 0.680541
1481.19, 0.680541
1481.61, 0.681016
1482.03, 0.681205
1482.46, 0.680351
1482.88, 0.680541
1483.31, 0.681016
1483.73, 0.681775
1484.16, 0.682060
1484.58, 0.681680
1485.01, 0.681585
1485.43, 0.682060
1485.86, 0.682914
1486.28, 0.682914
1486.71, 0.682914
1487.14, 0.683294
1487.56, 0.683009
1487.99, 0.683294
1488.42, 0.683769
1488.84, 0.683863
1489.27, 0.684053
1489.7, 0.684528
1490.13, 0.684908
1490.56, 0.684718
1490.98, 0.684528
1491.41, 0.684908
1491.84, 0.685098
1492.27, 0.684908
1492.7, 0.684813
1493.13, 0.684908
1493.56, 0.684908
1493.99, 0.685667
1494.42, 0.686047
1494.85, 0.686237
1495.29, 0.686427
1495.72, 0.686616
1496.15, 0.686427
1496.58, 0.686996
1497.01, 0.688135
1497.44, 0.688420
1497.88, 0.688420
1498.31, 0.688515
1498.74, 0.689085
1499.18, 0.689559
1499.61, 0.689274
1500.04, 0.689274
1500.48, 0.689844
1500.91, 0.690414
1501.35, 0.690983
1501.78, 0.691648
1502.22, 0.692122
1502.65, 0.692597
1503.09, 0.692597
1503.53, 0.692977
1503.96, 0.692597
1504.4, 0.692882
1504.83, 0.693831
1505.27, 0.694021
1505.71, 0.694211
1506.15, 0.694401
1506.58, 0.694590
1507.02, 0.694780
1507.46, 0.695065
1507.9, 0.695635
1508.34, 0.695445
1508.78, 0.694970
1509.21, 0.694970
1509.66, 0.695255
1510.09, 0.696014
1510.53, 0.696679
1510.97, 0.696964
1511.42, 0.697153
1511.86, 0.697153
1512.3, 0.697248
1512.74, 0.697913
1513.18, 0.698198
1513.62, 0.697818
1514.06, 0.698008
1514.51, 0.698008
1514.95, 0.698103
1515.39, 0.698577
1515.83, 0.699052
1516.28, 0.699337
1516.72, 0.699052
1517.16, 0.698672
1517.61, 0.699052
1518.05, 0.700001
1518.5, 0.699906
1518.94, 0.699811
1519.39, 0.699717
1519.83, 0.699432
1520.28, 0.699242
1520.73, 0.699432
1521.17, 0.700286
1521.62, 0.701045
1522.07, 0.700571
1522.51, 0.700381
1522.96, 0.700476
1523.41, 0.700856
1523.85, 0.701235
1524.3, 0.701520
1524.75, 0.701520
1525.2, 0.701425
1525.65, 0.701615
1526.1, 0.701805
1526.55, 0.701710
1527.0, 0.701710
1527.45, 0.702280
1527.9, 0.702469
1528.35, 0.702849
1528.8, 0.702564
1529.25, 0.702374
1529.7, 0.702944
1530.15, 0.703609
1530.6, 0.703514
1531.05, 0.703134
1531.51, 0.703514
1531.96, 0.703988
1532.41, 0.703988
1532.87, 0.703798
1533.32, 0.704083
1533.77, 0.704653
1534.23, 0.704843
1534.68, 0.704938
1535.14, 0.705412
1535.59, 0.705602
1536.05, 0.706077
1536.5, 0.706741
1536.96, 0.706741
1537.41, 0.706456
1537.87, 0.706456
1538.32, 0.706741
1538.78, 0.706741
1539.24, 0.707216
1539.7, 0.707785
1540.15, 0.708165
1540.61, 0.708545
1541.07, 0.708830
1541.53, 0.708545
1541.98, 0.708830
1542.44, 0.708925
1542.9, 0.709304
1543.36, 0.710159
1543.82, 0.710348
1544.28, 0.709874
1544.74, 0.710348
1545.2, 0.711108
1545.66, 0.711203
1546.12, 0.710823
1546.59, 0.711013
1547.05, 0.711582
1547.51, 0.711867
1547.97, 0.712057
1548.43, 0.712057
1548.9, 0.712532
1549.36, 0.713006
1549.82, 0.713481
1550.29, 0.713481
1550.75, 0.713576
1551.21, 0.714146
1551.68, 0.714430
1552.14, 0.714525
1552.61, 0.714620
1553.07, 0.714715
1553.54, 0.715285
1554.0, 0.715569
1554.47, 0.715759
1554.93, 0.716044
1555.4, 0.716329
1555.87, 0.716709
1556.34, 0.717088
1556.8, 0.717183
1557.27, 0.717468
1557.74, 0.717943
1558.21, 0.718417
1558.68, 0.718228
1559.14, 0.718417
1559.61, 0.718417
1560.08, 0.718133
1560.55, 0.718892
1561.02, 0.719367
1561.49, 0.719462
1561.96, 0.719272
1562.43, 0.719557
1562.9, 0.719936
1563.38, 0.720221
1563.85, 0.720791
1564.32, 0.721075
1564.79, 0.721075
1565.26, 0.721645
1565.74, 0.721550
1566.21, 0.721835
1566.68, 0.722309
1567.16, 0.722120
1567.63, 0.722025
1568.1, 0.722404
1568.58, 0.722879
1569.05, 0.722879
1569.53, 0.722879
1570.0, 0.722974
1570.48, 0.723354
1570.96, 0.723544
1571.43, 0.723733
1571.91, 0.723733
1572.39, 0.724208
1572.86, 0.724398
1573.34, 0.724683
1573.82, 0.724493
1574.3, 0.724588
1574.77, 0.725062
1575.25, 0.725442
1575.73, 0.725632
1576.21, 0.726202
1576.69, 0.726296
1577.17, 0.725917
1577.65, 0.725727
1578.13, 0.726202
1578.61, 0.726676
1579.09, 0.726486
1579.57, 0.726391
1580.05, 0.726771
1580.54, 0.727056
1581.02, 0.727341
1581.5, 0.727720
1581.98, 0.727815
1582.47, 0.727625
1582.95, 0.727625
1583.43, 0.727910
1583.92, 0.728195
1584.4, 0.728195
1584.88, 0.728480
1585.37, 0.728859
1585.85, 0.729334
1586.34, 0.729239
1586.82, 0.728765
1587.31, 0.728954
1587.8, 0.729144
1588.28, 0.729334
1588.77, 0.729524
1589.26, 0.729999
1589.74, 0.730283
1590.23, 0.730283
1590.72, 0.730188
1591.21, 0.730948
1591.7, 0.731138
1592.19, 0.730853
1592.67, 0.730948
1593.16, 0.731423
1593.65, 0.731517
1594.14, 0.731138
1594.63, 0.731707
1595.12, 0.732467
1595.61, 0.732752
1596.11, 0.732846
1596.6, 0.732941
1597.09, 0.733226
1597.58, 0.733891
1598.08, 0.734365
1598.57, 0.734175
1599.06, 0.734460
1599.55, 0.734650
1600.05, 0.734460
1600.54, 0.734745
1601.04, 0.735125
1601.53, 0.735410
1602.03, 0.735694
1602.52, 0.735884
1603.02, 0.736359
1603.51, 0.736739
1604.01, 0.737023
1604.5, 0.737213
1605.0, 0.737593
1605.5, 0.737498
1606.0, 0.737688
1606.49, 0.737878
1606.99, 0.738162
1607.49, 0.738732
1607.99, 0.738732
1608.49, 0.738922
1608.99, 0.739586
1609.49, 0.739207
1609.99, 0.739397
1610.49, 0.739207
1610.99, 0.739681
1611.49, 0.740536
1611.99, 0.740820
1612.49, 0.740820
1612.99, 0.740725
1613.49, 0.740820
1614.0, 0.740725
1614.5, 0.741295
1615.0, 0.741675
1615.51, 0.741960
1616.01, 0.742434
1616.51, 0.742339
1617.02, 0.742624
1617.52, 0.743099
1618.03, 0.743194
1618.53, 0.743289
1619.04, 0.743289
1619.54, 0.743668
1620.05, 0.743858
1620.55, 0.744333
1621.06, 0.745092
1621.57, 0.745187
1622.08, 0.744712
1622.58, 0.744712
1623.09, 0.745472
1623.6, 0.745852
1624.11, 0.746041
1624.62, 0.746041
1625.13, 0.746326
1625.64, 0.746421
1626.15, 0.746231
1626.66, 0.746326
1627.17, 0.746706
1627.68, 0.747181
1628.19, 0.747560
1628.7, 0.747465
1629.21, 0.747560
1629.72, 0.748035
1630.24, 0.748035
1630.75, 0.748035
1631.26, 0.748225
1631.78, 0.748415
1632.29, 0.748699
1632.8, 0.749174
1633.32, 0.749079
1633.83, 0.748984
1634.35, 0.749174
1634.86, 0.749269
1635.38, 0.749364
1635.9, 0.749744
1636.41, 0.749839
1636.93, 0.750028
1637.45, 0.750218
1637.96, 0.750313
1638.48, 0.750313
1639.0, 0.750408
1639.52, 0.750218
1640.04, 0.750313
1640.56, 0.750598
1641.08, 0.750693
1641.59, 0.750978
1642.11, 0.751168
1642.63, 0.751263
1643.16, 0.750978
1643.68, 0.750693
1644.2, 0.750788
1644.72, 0.750978
1645.24, 0.751073
1645.76, 0.750978
1646.29, 0.751263
1646.81, 0.751832
1647.33, 0.752212
1647.86, 0.752212
1648.38, 0.752022
1648.9, 0.751832
1649.43, 0.751547
1649.95, 0.751927
1650.48, 0.752212
1651.0, 0.752022
1651.53, 0.752497
1652.06, 0.752876
1652.58, 0.752687
1653.11, 0.752402
1653.64, 0.752876
1654.17, 0.753256
1654.69, 0.752971
1655.22, 0.752876
1655.75, 0.752876
1656.28, 0.753161
1656.81, 0.753636
1657.34, 0.753541
1657.87, 0.753446
1658.4, 0.753351
1658.93, 0.753351
1659.46, 0.753446
1659.99, 0.754110
1660.52, 0.754585
1661.05, 0.754490
1661.59, 0.754395
1662.12, 0.754205
1662.65, 0.754490
1663.19, 0.754680
1663.72, 0.754775
1664.26, 0.755060
1664.79, 0.754965
1665.32, 0.755060
1665.86, 0.755629
1666.39, 0.755819
1666.93, 0.755914
1667.47, 0.756389
1668.0, 0.756484
1668.54, 0.756389
1669.08, 0.756294
1669.61, 0.755914
1670.15, 0.756104
1670.69, 0.756673
1671.23, 0.757243
1671.77, 0.757528
1672.31, 0.757338
1672.85, 0.756958
1673.39, 0.757338
1673.93, 0.757908
1674.47, 0.757528
1675.01, 0.757148
1675.55, 0.757148
1676.09, 0.757718
1676.64, 0.758477
1677.18, 0.758572
1677.72, 0.758477
1678.26, 0.758382
1678.81, 0.758667
1679.35, 0.758762
1679.89, 0.758952
1680.44, 0.759426
1680.98, 0.759331
1681.53, 0.759237
1682.07, 0.759711
1682.62, 0.759996
1683.17, 0.759806
1683.71, 0.759996
1684.26, 0.760471
1684.81, 0.760660
1685.36, 0.760376
1685.9, 0.760471
1686.45, 0.760471
1687.0, 0.760566
1687.55, 0.760755
1688.1, 0.761040
1688.65, 0.760945
1689.2, 0.761135
1689.75, 0.761325
1690.3, 0.761325
1690.85, 0.761610
1691.41, 0.762084
1691.96, 0.762274
1692.51, 0.762369
1693.06, 0.762274
1693.61, 0.762084
1694.17, 0.762369
1694.72, 0.762559
1695.28, 0.762749
1695.83, 0.763034
1696.39, 0.763129
1696.94, 0.762844
1697.5, 0.762654
1698.05, 0.762464
1698.61, 0.762369
1699.17, 0.762939
1699.72, 0.763034
1700.28, 0.762844
1700.84, 0.762939
1701.4, 0.763034
1701.95, 0.762939
1702.51, 0.762939
1703.07, 0.762939
1703.63, 0.763224
1704.19, 0.763129
1704.75, 0.763034
1705.31, 0.763413
1705.88, 0.763508
1706.44, 0.763508
1707.0, 0.763224
1707.56, 0.762939
1708.12, 0.762844
1708.69, 0.762939
1709.25, 0.763034
1709.81, 0.763224
1710.38, 0.763034
1710.94, 0.762749
1711.51, 0.762749
1712.07, 0.762559
1712.64, 0.762464
1713.2, 0.762179
1713.77, 0.762179
1714.34, 0.762084
1714.9, 0.762179
1715.47, 0.762084
1716.04, 0.761800
1716.61, 0.761989
1717.18, 0.761705
1717.74, 0.761800
1718.31, 0.761989
1718.88, 0.761800
1719.45, 0.761515
1720.02, 0.761325
1720.59, 0.761325
1721.17, 0.760850
1721.74, 0.760755
1722.31, 0.760660
1722.88, 0.760471
1723.45, 0.760471
1724.03, 0.760660
1724.6, 0.760755
1725.18, 0.760945
1725.75, 0.760660
1726.33, 0.760186
1726.9, 0.759996
1727.48, 0.760281
1728.05, 0.760281
1728.63, 0.760091
1729.2, 0.759521
1729.78, 0.759142
1730.36, 0.759142
1730.94, 0.758857
1731.51, 0.758857
1732.09, 0.759047
1732.67, 0.759142
1733.25, 0.758857
1733.83, 0.758857
1734.41, 0.758762
1734.99, 0.758477
1735.57, 0.758857
1736.15, 0.758857
1736.73, 0.758382
1737.32, 0.758382
1737.9, 0.758477
1738.48, 0.758382
1739.07, 0.758002
1739.65, 0.757623
1740.23, 0.757813
1740.82, 0.757908
1741.4, 0.758002
1741.99, 0.758002
1742.57, 0.757623
1743.16, 0.757528
1743.74, 0.757813
1744.33, 0.757718
1744.92, 0.757623
1745.51, 0.757433
1746.09, 0.757243
1746.68, 0.757338
1747.27, 0.757623
1747.86, 0.757528
1748.45, 0.757338
1749.04, 0.757148
1749.63, 0.757433
1750.22, 0.757148
1750.81, 0.757243
1751.4, 0.757528
1751.99, 0.757528
1752.59, 0.757243
1753.18, 0.757148
1753.77, 0.757053
1754.37, 0.756863
1754.96, 0.757053
1755.56, 0.757053
1756.15, 0.757053
1756.74, 0.757243
1757.34, 0.757053
1757.94, 0.756958
1758.53, 0.757053
1759.13, 0.756958
1759.73, 0.756484
1760.32, 0.756673
1760.92, 0.756958
1761.52, 0.756768
1762.12, 0.756579
1762.72, 0.756579
1763.32, 0.756104
1763.92, 0.756484
1764.52, 0.756863
1765.12, 0.756768
1765.72, 0.756579
1766.32, 0.756009
1766.92, 0.755629
1767.53, 0.755724
1768.13, 0.755819
1768.73, 0.755914
1769.34, 0.755629
1769.94, 0.755439
1770.55, 0.755155
1771.15, 0.754965
1771.76, 0.754965
1772.36, 0.755060
1772.97, 0.754680
1773.57, 0.754205
1774.18, 0.754110
1774.79, 0.754110
1775.4, 0.754205
1776.0, 0.754110
1776.61, 0.753731
1777.22, 0.753161
1777.83, 0.752876
1778.44, 0.752971
1779.05, 0.752971
1779.66, 0.752781
1780.27, 0.752497
1780.88, 0.752117
1781.5, 0.751737
1782.11, 0.751642
1782.72, 0.751358
1783.33, 0.751168
1783.95, 0.751073
1784.56, 0.750978
1785.18, 0.750408
1785.79, 0.750123
1786.41, 0.750218
1787.02, 0.750218
1787.64, 0.749934
1788.26, 0.749459
1788.87, 0.749269
1789.49, 0.749079
1790.11, 0.748794
1790.73, 0.748225
1791.35, 0.747845
1791.96, 0.747845
1792.58, 0.747750
1793.21, 0.747560
1793.83, 0.747655
1794.45, 0.747465
1795.07, 0.746801
1795.69, 0.746421
1796.31, 0.746706
1796.93, 0.746801
1797.56, 0.746896
1798.18, 0.746801
1798.8, 0.746801
1799.43, 0.746611
1800.05, 0.746041
1800.68, 0.745852
1801.3, 0.745757
1801.93, 0.745757
1802.56, 0.745757
1803.18, 0.745567
1803.81, 0.745472
1804.44, 0.745187
1805.07, 0.744902
1805.7, 0.744333
1806.33, 0.744712
1806.95, 0.745187
1807.58, 0.744997
1808.22, 0.744902
1808.85, 0.745282
1809.48, 0.745567
1810.11, 0.744712
1810.74, 0.744238
1811.38, 0.744143
1812.01, 0.744048
1812.64, 0.744333
1813.28, 0.744523
1813.91, 0.744238
1814.55, 0.743858
1815.18, 0.743194
1815.82, 0.743099
1816.45, 0.743289
1817.09, 0.743289
1817.73, 0.743478
1818.36, 0.743478
1819.0, 0.743194
1819.64, 0.742149
1820.28, 0.741390
1820.92, 0.742055
1821.56, 0.742339
1822.2, 0.742814
1822.84, 0.743099
1823.48, 0.743289
1824.12, 0.743573
1824.76, 0.743858
1825.41, 0.742624
1826.05, 0.740536
1826.69, 0.741770
1827.34, 0.743194
1827.98, 0.742719
1828.63, 0.742339
1829.27, 0.742434
1829.92, 0.742434
1830.56, 0.741770
1831.21, 0.741580
1831.86, 0.742434
1832.5, 0.742814
1833.15, 0.742909
1833.8, 0.742529
1834.45, 0.741390
1835.1, 0.740536
1835.75, 0.739302
1836.4, 0.738637
1837.05, 0.738542
1837.7, 0.737973
1838.35, 0.739492
1839.01, 0.738922
1839.66, 0.736834
1840.31, 0.737498
1840.96, 0.737308
1841.62, 0.734935
1842.27, 0.735884
1842.93, 0.737593
1843.58, 0.737878
1844.24, 0.738257
1844.9, 0.738732
1845.55, 0.738732
1846.21, 0.736928
1846.87, 0.734840
1847.53, 0.735789
1848.18, 0.737118
1848.84, 0.739397
1849.5, 0.740725
1850.16, 0.741105
1850.82, 0.741865
1851.48, 0.742434
1852.14, 0.741770
1852.81, 0.740536
1853.47, 0.739112
1854.13, 0.739966
1854.8, 0.742339
1855.46, 0.742529
1856.12, 0.740631
1856.79, 0.740156
1857.45, 0.741770
1858.12, 0.741865
1858.79, 0.740346
1859.45, 0.737783
1860.12, 0.738068
1860.79, 0.739681
1861.46, 0.739966
1862.12, 0.739397
1862.79, 0.738732
1863.46, 0.737593
1864.13, 0.736169
1864.8, 0.735979
1865.48, 0.735789
1866.15, 0.734840
1866.82, 0.732657
1867.49, 0.728859
1868.16, 0.728290
1868.84, 0.728575
1869.51, 0.726771
1870.19, 0.722974
1870.86, 0.719651
1871.54, 0.720601
1872.21, 0.718987
1872.89, 0.714810
1873.56, 0.713576
1874.24, 0.713576
1874.92, 0.712057
1875.6, 0.710159
1876.28, 0.706646
1876.96, 0.702659
1877.64, 0.701235
1878.32, 0.699717
1879.0, 0.697343
1879.68, 0.694211
1880.36, 0.690983
1881.04, 0.688230
1881.73, 0.686142
1882.41, 0.683294
1883.09, 0.679402
1883.78, 0.675320
1884.46, 0.673137
1885.15, 0.671238
1885.83, 0.668485
1886.52, 0.665637
1887.21, 0.663264
1887.89, 0.661176
1888.58, 0.658707
1889.27, 0.655290
1889.96, 0.651683
1890.65, 0.649784
1891.34, 0.647316
1892.03, 0.644373
1892.72, 0.641715
1893.41, 0.638583
1894.1, 0.635925
1894.79, 0.633077
1895.49, 0.629375
1896.18, 0.626242
1896.87, 0.622540
1897.57, 0.618458
1898.26, 0.614281
1898.96, 0.608775
1899.65, 0.603649
1900.35, 0.600516
1901.05, 0.598048
1901.74, 0.594441
1902.44, 0.589315
1903.14, 0.585423
1903.84, 0.582670
1904.54, 0.578113
1905.24, 0.573272
1905.94, 0.570994
1906.64, 0.568810
1907.34, 0.567197
1908.04, 0.565868
1908.75, 0.563874
1909.45, 0.562355
1910.15, 0.560931
1910.86, 0.559507
1911.56, 0.558748
1912.27, 0.559128
1912.97, 0.558653
1913.68, 0.558653
1914.39, 0.560552
1915.09, 0.562260
1915.8, 0.563874
1916.51, 0.565773
1917.22, 0.567956
1917.93, 0.569855
1918.64, 0.571278
1919.35, 0.572228
1920.06, 0.572892
1920.77, 0.575171
1921.48, 0.578873
1922.19, 0.581341
1922.91, 0.583524
1923.62, 0.584853
1924.33, 0.586182
1925.05, 0.588366
1925.76, 0.590739
1926.48, 0.591878
1927.19, 0.592922
1927.91, 0.593871
1928.63, 0.595106
1929.35, 0.596909
1930.07, 0.598238
1930.78, 0.599187
1931.5, 0.600232
1932.22, 0.601276
1932.94, 0.602415
1933.66, 0.603269
1934.39, 0.604313
1935.11, 0.605548
1935.83, 0.606497
1936.55, 0.607351
1937.28, 0.608395
1938.0, 0.609060
1938.73, 0.609819
1939.45, 0.610959
1940.18, 0.612003
1940.9, 0.612952
1941.63, 0.613996
1942.36, 0.614946
1943.09, 0.615800
1943.81, 0.616275
1944.54, 0.616844
1945.27, 0.617698
1946.0, 0.618933
1946.73, 0.619882
1947.47, 0.620356
1948.2, 0.621116
1948.93, 0.622065
1949.66, 0.623014
1950.4, 0.623489
1951.13, 0.624249
1951.86, 0.625388
1952.6, 0.626052
1953.34, 0.627191
1954.07, 0.628236
1954.81, 0.629185
1955.55, 0.630324
1956.29, 0.631178
1957.02, 0.632128
1957.76, 0.633267
1958.5, 0.634216
1959.24, 0.635260
1959.98, 0.636304
1960.72, 0.637064
1961.47, 0.637918
1962.21, 0.638488
1962.95, 0.639247
1963.7, 0.639817
1964.44, 0.640102
1965.18, 0.640576
1965.93, 0.641146
1966.67, 0.641715
1967.42, 0.642190
1968.17, 0.642854
1968.92, 0.643424
1969.66, 0.643804
1970.41, 0.644183
1971.16, 0.644753
1971.91, 0.645323
1972.66, 0.645702
1973.41, 0.646272
1974.16, 0.646747
1974.92, 0.647126
1975.67, 0.647791
1976.42, 0.648360
1977.18, 0.648835
1977.93, 0.649405
1978.69, 0.650069
1979.44, 0.650164
1980.2, 0.650828
1980.95, 0.651683
1981.71, 0.651968
1982.47, 0.652537
1983.23, 0.653012
1983.99, 0.653581
1984.74, 0.654151
1985.51, 0.655005
1986.27, 0.655765
1987.03, 0.656144
1987.79, 0.656524
1988.55, 0.656999
1989.32, 0.657473
1990.08, 0.657948
1990.84, 0.658707
1991.61, 0.659752
1992.37, 0.660701
1993.14, 0.661176
1993.9, 0.661745
1994.67, 0.662220
1995.44, 0.662884
1996.21, 0.663644
1996.98, 0.664403
1997.75, 0.665447
1998.52, 0.666397
1999.29, 0.667251
2000.06, 0.667916
2000.83, 0.668770
2001.6, 0.669624
2002.38, 0.670099
2003.15, 0.670668
2003.93, 0.671238
2004.7, 0.671808
2005.48, 0.672852
2006.25, 0.673801
2007.03, 0.674086
2007.81, 0.674655
2008.58, 0.675510
2009.36, 0.676079
2010.14, 0.676649
2010.92, 0.677029
2011.7, 0.677124
2012.48, 0.677693
2013.26, 0.678263
2014.05, 0.679022
2014.83, 0.679687
2015.61, 0.680161
2016.4, 0.680446
2017.18, 0.680541
2017.97, 0.680921
2018.75, 0.681395
2019.54, 0.681775
2020.32, 0.681870
2021.11, 0.681680
2021.9, 0.682060
2022.69, 0.682250
2023.48, 0.682724
2024.27, 0.683294
2025.06, 0.683674
2025.85, 0.683674
2026.64, 0.683579
2027.44, 0.683769
2028.23, 0.684053
2029.02, 0.684338
2029.82, 0.684623
2030.61, 0.684908
2031.41, 0.684718
2032.2, 0.684813
2033.0, 0.685003
2033.8, 0.685003
2034.6, 0.684908
2035.4, 0.685098
2036.2, 0.685287
2037.0, 0.685192
2037.8, 0.685287
2038.6, 0.685382
2039.4, 0.685477
2040.2, 0.685572
2041.01, 0.685382
2041.81, 0.685382
2042.61, 0.685572
2043.42, 0.685287
2044.22, 0.684908
2045.03, 0.684908
2045.84, 0.684813
2046.65, 0.684338
2047.46, 0.684148
2048.26, 0.684053
2049.07, 0.683958
2049.88, 0.683674
2050.69, 0.683389
2051.51, 0.683199
2052.32, 0.682629
2053.13, 0.682250
2053.94, 0.681775
2054.76, 0.680921
2055.57, 0.680161
2056.39, 0.679782
2057.2, 0.679592
2058.02, 0.679212
2058.84, 0.678263
2059.66, 0.677598
2060.48, 0.676934
2061.29, 0.676174
2062.11, 0.675510
2062.94, 0.674940
2063.76, 0.674371
2064.58, 0.673706
2065.4, 0.673137
2066.22, 0.672472
2067.05, 0.671903
2067.87, 0.671428
2068.7, 0.670574
2069.52, 0.669909
2070.35, 0.669339
2071.18, 0.668580
2072.0, 0.668105
2072.83, 0.667346
2073.66, 0.666492
2074.49, 0.665637
2075.32, 0.665163
2076.15, 0.664878
2076.98, 0.664118
2077.82, 0.663169
2078.65, 0.662315
2079.48, 0.661745
2080.32, 0.660986
2081.15, 0.659847
2081.99, 0.658707
2082.83, 0.657568
2083.66, 0.657189
2084.5, 0.656904
2085.34, 0.656144
2086.18, 0.655290
2087.02, 0.654531
2087.86, 0.653771
2088.7, 0.653297
2089.54, 0.652727
2090.39, 0.652442
2091.23, 0.651588
2092.07, 0.650828
2092.92, 0.650259
2093.76, 0.649499
2094.61, 0.649025
2095.45, 0.648360
2096.3, 0.647411
2097.15, 0.646367
2098.0, 0.645228
2098.85, 0.644183
2099.7, 0.643044
2100.55, 0.641241
2101.4, 0.639532
2102.25, 0.637918
2103.1, 0.636304
2103.96, 0.634216
2104.81, 0.632128
2105.67, 0.630039
2106.52, 0.628141
2107.38, 0.626337
2108.24, 0.624628
2109.09, 0.623109
2109.95, 0.621875
2110.81, 0.620736
2111.67, 0.619597
2112.53, 0.618553
2113.39, 0.617793
2114.25, 0.617414
2115.12, 0.616844
2115.98, 0.616180
2116.84, 0.615515
2117.71, 0.614756
2118.58, 0.613806
2119.44, 0.612952
2120.31, 0.612193
2121.18, 0.610864
2122.04, 0.609724
2122.91, 0.608585
2123.78, 0.607541
2124.65, 0.606307
2125.52, 0.605073
2126.4, 0.603554
2127.27, 0.601750
2128.14, 0.600137
2129.02, 0.598713
2129.89, 0.597004
2130.77, 0.595200
2131.64, 0.593112
2132.52, 0.590549
2133.4, 0.587891
2134.27, 0.585328
2135.15, 0.582955
2136.03, 0.580107
2136.91, 0.576784
2137.79, 0.573272
2138.68, 0.569760
2139.56, 0.566152
2140.44, 0.562070
2141.33, 0.557704
2142.21, 0.553527
2143.1, 0.548970
2143.99, 0.543939
2144.87, 0.538718
2145.76, 0.533402
2146.65, 0.527517
2147.54, 0.521726
2148.43, 0.516220
2149.32, 0.510524
2150.21, 0.504259
2151.1, 0.497994
2151.99, 0.492298
2152.89, 0.486602
2153.78, 0.480907
2154.68, 0.475401
2155.57, 0.470085
2156.47, 0.465149
2157.37, 0.460497
2158.27, 0.456036
2159.16, 0.451669
2160.06, 0.447872
2160.96, 0.444549
2161.86, 0.441417
2162.77, 0.438569
2163.67, 0.435911
2164.57, 0.433727
2165.48, 0.431829
2166.38, 0.430215
2167.29, 0.428791
2168.2, 0.427937
2169.1, 0.427367
2170.01, 0.426893
2170.92, 0.426323
2171.83, 0.425848
2172.74, 0.425279
2173.65, 0.424804
2174.56, 0.424329
2175.47, 0.423950
2176.39, 0.423475
2177.3, 0.422431
2178.22, 0.421102
2179.13, 0.419963
2180.05, 0.418444
2180.96, 0.416545
2181.88, 0.414457
2182.8, 0.411894
2183.72, 0.409046
2184.64, 0.406103
2185.56, 0.402591
2186.48, 0.398794
2187.41, 0.394902
2188.33, 0.390725
2189.25, 0.386073
2190.18, 0.381612
2191.1, 0.377340
2192.03, 0.372689
2192.96, 0.367847
2193.89, 0.363196
2194.82, 0.357975
2195.74, 0.352279
2196.68, 0.346109
2197.61, 0.339464
2198.54, 0.332629
2199.47, 0.325414
2200.4, 0.317725
2201.34, 0.309751
2202.28, 0.301492
2203.21, 0.293708
2204.15, 0.286968
2205.08, 0.281273
2206.02, 0.277760
2206.96, 0.276811
2207.9, 0.278710
2208.84, 0.283741
2209.78, 0.291620
2210.73, 0.302252
2211.67, 0.314497
2212.61, 0.327882
2213.56, 0.342027
2214.5, 0.356266
2215.45, 0.369936
2216.4, 0.382846
2217.35, 0.394997
2218.3, 0.406863
2219.24, 0.417495
2220.2, 0.426608
2221.15, 0.434867
2222.1, 0.442556
2223.05, 0.449580
2224.0, 0.455941
2224.96, 0.461636
2225.91, 0.466952
2226.87, 0.471889
2227.83, 0.476350
2228.79, 0.480337
2229.74, 0.483660
2230.7, 0.486792
2231.66, 0.490115
2232.63, 0.492773
2233.59, 0.495526
2234.55, 0.498089
2235.51, 0.500367
2236.48, 0.502076
2237.44, 0.503879
2238.41, 0.505683
2239.38, 0.507012
2240.34, 0.508531
2241.31, 0.509860
2242.28, 0.510809
2243.25, 0.511664
2244.22, 0.512518
2245.19, 0.513467
2246.17, 0.514037
2247.14, 0.514416
2248.12, 0.514796
2249.09, 0.515176
2250.07, 0.515271
2251.04, 0.515176
2252.02, 0.515176
2253.0, 0.515363
2253.98, 0.515176
2254.96, 0.515550
2255.94, 0.516018
2256.92, 0.515550
2257.91, 0.515363
2258.89, 0.515550
2259.88, 0.516111
2260.86, 0.515831
2261.85, 0.515456
2262.83, 0.514708
2263.82, 0.514615
2264.81, 0.514521
2265.8, 0.513680
2266.79, 0.512651
2267.78, 0.512090
2268.78, 0.511435
2269.77, 0.511155
2270.76, 0.510594
2271.76, 0.509378
2272.75, 0.508162
2273.75, 0.507134
2274.75, 0.506572
2275.75, 0.505824
2276.75, 0.504515
2277.75, 0.503299
2278.75, 0.502551
2279.75, 0.500962
2280.75, 0.499091
2281.76, 0.497689
2282.76, 0.496473
2283.77, 0.495818
2284.77, 0.494509
2285.78, 0.492358
2286.79, 0.489833
2287.8, 0.488524
2288.81, 0.487215
2289.82, 0.485158
2290.83, 0.483661
2291.84, 0.482633
2292.86, 0.480762
2293.87, 0.477676
2294.89, 0.475432
2295.91, 0.473468
2296.92, 0.470663
2297.94, 0.468325
2298.96, 0.466174
2299.98, 0.463368
2301.0, 0.460844
2302.02, 0.458319
2303.04, 0.455420
2304.07, 0.453082
2305.09, 0.450557
2306.12, 0.448406
2307.15, 0.446068
2308.17, 0.444011
2309.2, 0.441953
2310.23, 0.440270
2311.26, 0.439241
2312.29, 0.437371
2313.32, 0.435688
2314.35, 0.434846
2315.39, 0.434005
2316.42, 0.432789
2317.46, 0.431573
2318.5, 0.431293
2319.53, 0.430264
2320.57, 0.429703
2321.61, 0.429329
2322.65, 0.428207
2323.69, 0.427178
2324.73, 0.426056
2325.78, 0.425588
2326.82, 0.425869
2327.86, 0.425775
2328.91, 0.425121
2329.96, 0.423998
2331.01, 0.423998
2332.05, 0.424186
2333.1, 0.423250
2334.15, 0.422222
2335.21, 0.421100
2336.26, 0.419977
2337.31, 0.418294
2338.36, 0.416611
2339.42, 0.414834
2340.48, 0.412590
2341.53, 0.410345
2342.59, 0.407820
2343.65, 0.405763
2344.71, 0.403799
2345.77, 0.400900
2346.83, 0.398095
2347.9, 0.395944
2348.96, 0.393606
2350.02, 0.391549
2351.09, 0.389678
2352.16, 0.388743
2353.23, 0.387528
2354.29, 0.386312
2355.36, 0.386031
2356.43, 0.386031
2357.51, 0.385938
2358.58, 0.386125
2359.65, 0.386405
2360.73, 0.386686
2361.8, 0.386499
2362.88, 0.386686
2363.96, 0.386686
2365.03, 0.385844
2366.11, 0.384441
2367.19, 0.383132
2368.27, 0.381636
2369.36, 0.380046
2370.44, 0.377521
2371.53, 0.374342
2372.61, 0.371349
2373.7, 0.368637
2374.78, 0.365551
2375.87, 0.362278
2376.96, 0.359473
2378.05, 0.356667
2379.14, 0.354423
2380.24, 0.352272
2381.33, 0.349934
2382.42, 0.348532
2383.52, 0.347222
2384.61, 0.346007
2385.71, 0.345820
2386.81, 0.345820
2387.91, 0.345072
2389.01, 0.344885
2390.11, 0.345352
2391.22, 0.345820
2392.32, 0.346381
2393.42, 0.346194
2394.53, 0.345820
2395.64, 0.346848
2396.74, 0.347409
2397.85, 0.347409
2398.96, 0.347783
2400.07, 0.347971
2401.18, 0.347596
2402.3, 0.347316
2403.41, 0.346848
2404.52, 0.346194
2405.64, 0.345165
2406.76, 0.344791
2407.88, 0.344230
2408.99, 0.342827
2410.11, 0.340863
2411.23, 0.339554
2412.36, 0.338338
2413.48, 0.336468
2414.6, 0.334598
2415.73, 0.333102
2416.85, 0.331699
2417.98, 0.330483
2419.11, 0.329080
2420.24, 0.327304
2421.37, 0.325807
2422.5, 0.324311
2423.64, 0.322534
2424.77, 0.320945
2425.9, 0.318981
2427.04, 0.317204
2428.18, 0.315334
2429.31, 0.313183
2430.45, 0.311032
2431.59, 0.309162
2432.73, 0.307291
2433.88, 0.305047
2435.02, 0.303270
2436.16, 0.302335
2437.31, 0.300465
2438.45, 0.299062
2439.6, 0.298220
2440.75, 0.297566
2441.9, 0.296257
2443.05, 0.295228
2444.2, 0.294667
2445.35, 0.294293
2446.51, 0.293638
2447.67, 0.293919
2448.82, 0.293638
2449.98, 0.292516
2451.14, 0.291861
2452.3, 0.291487
2453.46, 0.290926
2454.62, 0.290739
2455.78, 0.289804
2456.94, 0.289336
2458.11, 0.288588
2459.28, 0.287279
2460.44, 0.286250
2461.61, 0.285783
2462.78, 0.285409
2463.95, 0.284661
2465.12, 0.283071
2466.3, 0.281762
2467.47, 0.280639
2468.65, 0.279424
2469.82, 0.277834
2471.0, 0.276244
2472.18, 0.274655
2473.36, 0.272691
2474.54, 0.271101
2475.72, 0.269885
2476.9, 0.268015
2478.08, 0.266519
2479.27, 0.265116
2480.46, 0.263059
2481.64, 0.261469
2482.83, 0.260721
2484.02, 0.259318
2485.21, 0.258009
2486.4, 0.257448
2487.6, 0.256513
2488.79, 0.255951
2489.99, 0.255671
2491.18, 0.255390
2492.38, 0.255016
2493.58, 0.253988
2494.78, 0.253520
2495.98, 0.253053
2497.18, 0.252491
2498.39, 0.251837
2499.59, 0.250995
2500.8, 0.250153
2502.01, 0.249218
2503.21, 0.248003
2504.42, 0.246880
2505.63, 0.245758
2506.84, 0.244823
2508.06, 0.244449
2509.27, 0.243981
2510.49, 0.243046
2511.7, 0.242018
2512.92, 0.241363
2514.14, 0.239773
2515.36, 0.238277
2516.58, 0.237248
2517.8, 0.236313
2519.03, 0.235659
2520.25, 0.234723
2521.48, 0.233321
2522.7, 0.232853
2523.93, 0.232479
2525.16, 0.231450
2526.39, 0.230141
2527.62, 0.228832
2528.86, 0.228177
2530.09, 0.227429
2531.33, 0.225746
2532.56, 0.224437
2533.8, 0.223689
2535.04, 0.222192
2536.28, 0.221164
2537.52, 0.220322
2538.76, 0.218732
2540.01, 0.217049
2541.25, 0.215646
2542.5, 0.214150
2543.75, 0.213402
2544.99, 0.212560
2546.24, 0.211625
2547.49, 0.210503
2548.75, 0.209194
2550.0, 0.208259
2551.26, 0.206949
2552.51, 0.205453
2553.77, 0.204518
2555.03, 0.204237
2556.29, 0.203209
2557.55, 0.201526
2558.81, 0.199655
2560.08, 0.197411
2561.34, 0.195260
2562.61, 0.193764
2563.88, 0.192642
2565.14, 0.191893
2566.41, 0.191426
2567.68, 0.190023
2568.96, 0.187872
2570.23, 0.186283
2571.51, 0.185721
2572.78, 0.183758
2574.06, 0.182916
2575.34, 0.182542
2576.62, 0.181139
2577.9, 0.180391
2579.18, 0.179549
2580.47, 0.178240
2581.75, 0.177025
2583.04, 0.174967
2584.32, 0.173751
2585.61, 0.173190
2586.9, 0.171694
2588.2, 0.170852
2589.49, 0.170291
2590.78, 0.169730
2592.08, 0.168047
2593.37, 0.164493
2594.67, 0.161033
2595.97, 0.161407
2597.27, 0.162436
2598.57, 0.162062
2599.88, 0.160472
2601.18, 0.158602
2602.49, 0.157386
2603.79, 0.155797
2605.1, 0.153459
2606.41, 0.152523
2607.72, 0.152243
2609.03, 0.150934
2610.35, 0.149905
2611.66, 0.148970
2612.98, 0.147006
2614.3, 0.145790
2615.62, 0.143453
2616.94, 0.140928
2618.26, 0.139992
2619.58, 0.138122
2620.91, 0.136719
2622.23, 0.136532
2623.56, 0.135036
2624.89, 0.132698
2626.22, 0.129893
2627.55, 0.128303
2628.88, 0.126526
2630.21, 0.123814
2631.55, 0.122692
2632.89, 0.121196
2634.22, 0.119139
2635.56, 0.117642
2636.9, 0.115865
2638.25, 0.113902
2639.59, 0.111751
2640.93, 0.109506
2642.28, 0.107262
2643.63, 0.105018
2644.98, 0.102586
2646.33, 0.100529
2647.68, 0.0983780
2649.03, 0.0962270
2650.39, 0.0937960
2651.74, 0.0908970
2653.1, 0.0882780
2654.46, 0.0861280
2655.82, 0.0836960
2657.18, 0.0811710
2658.54, 0.0785530
2659.9, 0.0759340
2661.27, 0.0732220
2662.64, 0.0702300
2664.01, 0.0670500
2665.38, 0.0643390
2666.74, 0.0618140
2668.12, 0.0590080
2669.49, 0.0560160
2670.87, 0.0531170
2672.24, 0.0512460
2673.62, 0.0490960
2675.0, 0.0464770
2676.38, 0.0432980
2677.76, 0.0404920
2679.15, 0.0378740
2680.54, 0.0358160
2681.92, 0.0334780
2683.31, 0.0305800
2684.7, 0.0280550
2686.09, 0.0257170
2687.48, 0.0235660
2688.88, 0.0208540
2690.27, 0.0182350
2691.67, 0.0164590
2693.07, 0.0148690
2694.47, 0.0130920
2695.87, 0.0115960
2697.27, 0.0105670
2698.67, 0.0101000
2700.08, 0.00972600
2701.49, 0.00935200
2702.9, 0.00925800
2704.31, 0.00963200
2705.72, 0.00981900
2707.13, 0.0101930
2708.54, 0.0108480
2709.96, 0.0111280
2711.38, 0.0111280
2712.8, 0.0113150
2714.22, 0.0115960
2715.64, 0.0121570
2717.06, 0.0122510
2718.49, 0.0121570
2719.91, 0.0123440
2721.34, 0.0125310
2722.77, 0.0126250
2724.2, 0.0125310
2725.63, 0.0124380
2727.07, 0.0127180
2728.5, 0.0129050
2729.94, 0.0129990
2731.38, 0.0129990
2732.82, 0.0129050
2734.26, 0.0126250
2735.7, 0.0128120
2737.15, 0.0129050
2738.59, 0.0127180
2740.04, 0.0127180
2741.49, 0.0124380
2742.94, 0.0121570
2744.39, 0.0122510
2745.84, 0.0117830
2747.3, 0.0109410
2748.76, 0.0104740
2750.21, 0.0106610
2751.67, 0.0107540
2753.14, 0.0104740
2754.6, 0.0102870
2756.06, 0.0107540
2757.53, 0.0113150
2759.0, 0.0115960
2760.46, 0.0122510
2761.94, 0.0131860
2763.41, 0.0142140
2764.88, 0.0154300
2766.36, 0.0162720
2767.83, 0.0169260
2769.31, 0.0175810
2770.79, 0.0183290
2772.27, 0.0193580
2773.76, 0.0200120
2775.24, 0.0202930
2776.73, 0.0206670
2778.22, 0.0213210
2779.71, 0.0217890
2781.2, 0.0221630
2782.69, 0.0224440
2784.18, 0.0229110
2785.68, 0.0236590
2787.18, 0.0243140
2788.68, 0.0246880
2790.18, 0.0248750
2791.68, 0.0250620
2793.19, 0.0251560
2794.69, 0.0254360
2796.2, 0.0260910
2797.71, 0.0264650
2799.22, 0.0264650
2800.73, 0.0267450
2802.24, 0.0264650
2803.76, 0.0264650
2805.28, 0.0264650
2806.8, 0.0259970
2808.32, 0.0255300
2809.84, 0.0254360
2811.36, 0.0251560
2812.89, 0.0248750
2814.42, 0.0247820
2815.94, 0.0250620
2817.48, 0.0254360
2819.01, 0.0256230
2820.54, 0.0260910
2822.08, 0.0265580
2823.61, 0.0269320
2825.15, 0.0272130
2826.69, 0.0275870
2828.23, 0.0278680
2829.78, 0.0279610
2831.32, 0.0280550
2832.87, 0.0286160
2834.42, 0.0292700
2835.97, 0.0295510
2837.52, 0.0295510
2839.08, 0.0297380
2840.63, 0.0298310
2842.19, 0.0301120
2843.75, 0.0308600
2845.31, 0.0309540
2846.87, 0.0308600
2848.44, 0.0310470
2850.0, 0.0313280
2851.57, 0.0314210
2853.14, 0.0315150
2854.71, 0.0316080
2856.28, 0.0318890
2857.86, 0.0321690
2859.43, 0.0324500
2861.01, 0.0324500
2862.59, 0.0326370
2864.17, 0.0329170
2865.76, 0.0331980
2867.34, 0.0333850
2868.93, 0.0331980
2870.52, 0.0331980
2872.11, 0.0335720
2873.7, 0.0336660
2875.29, 0.0335720
2876.89, 0.0335720
2878.49, 0.0336660
2880.08, 0.0338530
2881.69, 0.0342270
2883.29, 0.0345070
2884.89, 0.0344140
2886.5, 0.0342270
2888.11, 0.0345070
2889.72, 0.0345070
2891.33, 0.0346940
2892.94, 0.0352550
2894.56, 0.0352550
2896.17, 0.0349750
2897.79, 0.0351620
2899.42, 0.0356290
2901.04, 0.0359100
2902.66, 0.0358160
2904.29, 0.0354420
2905.92, 0.0356290
2907.55, 0.0360970
2909.18, 0.0359100
2910.81, 0.0360030
2912.45, 0.0367520
2914.08, 0.0373130
2915.72, 0.0376870
2917.36, 0.0379670
2919.01, 0.0382480
2920.65, 0.0389020
2922.3, 0.0393700
2923.94, 0.0399310
2925.59, 0.0403050
2927.25, 0.0406790
2928.9, 0.0407730
2930.56, 0.0406790
2932.21, 0.0406790
2933.87, 0.0409600
2935.53, 0.0414270
2937.2, 0.0418010
2938.86, 0.0417080
2940.53, 0.0418010
2942.2, 0.0418950
2943.87, 0.0419880
2945.54, 0.0421750
2947.22, 0.0425490
2948.89, 0.0430170
2950.57, 0.0432040
2952.25, 0.0431110
2953.93, 0.0431110
2955.62, 0.0431110
2957.3, 0.0431110
2958.99, 0.0433910
2960.68, 0.0438590
2962.37, 0.0440460
2964.07, 0.0438590
2965.76, 0.0439520
2967.46, 0.0441390
2969.16, 0.0442330
2970.86, 0.0445130
2972.56, 0.0447940
2974.27, 0.0449810
2975.98, 0.0451680
2977.69, 0.0457290
2979.4, 0.0461970
2981.11, 0.0459160
2982.83, 0.0458230
2984.54, 0.0461970
2986.26, 0.0466640
2987.98, 0.0467580
2989.71, 0.0469450
2991.43, 0.0474120
2993.16, 0.0475060
2994.89, 0.0478800
2996.62, 0.0480670
2998.35, 0.0481600
3000.09, 0.0484410
3001.83, 0.0488150
3003.57, 0.0490960
3005.31, 0.0493760
3007.05, 0.0497500
3008.79, 0.0499370
3010.54, 0.0501240
3012.29, 0.0502180
3014.04, 0.0504050
3015.8, 0.0507790
3017.55, 0.0510590
3019.31, 0.0511530
3021.07, 0.0515270
3022.83, 0.0517140
3024.59, 0.0519950
3026.36, 0.0521820
3028.13, 0.0526490
3029.9, 0.0532100
3031.67, 0.0533970
3033.44, 0.0534910
3035.22, 0.0536780
3037.0, 0.0541450
3038.78, 0.0544260
3040.56, 0.0546130
3042.34, 0.0546130
3044.13, 0.0546130
3045.92, 0.0548930
3047.71, 0.0553610
3049.5, 0.0556420
3051.3, 0.0559220
3053.09, 0.0561090
3054.89, 0.0561090
3056.69, 0.0562960
3058.5, 0.0564830
3060.3, 0.0567640
3062.11, 0.0571380
3063.92, 0.0574180
3065.73, 0.0574180
3067.55, 0.0574180
3069.36, 0.0578860
3071.18, 0.0584470
3073.0, 0.0590080
3074.82, 0.0590080
3076.65, 0.0589150
3078.48, 0.0593820
3080.31, 0.0598500
3082.14, 0.0602240
3083.97, 0.0606910
3085.8, 0.0609720
3087.64, 0.0609720
3089.48, 0.0610660
3091.33, 0.0617200
3093.17, 0.0622810
3095.02, 0.0626550
3096.87, 0.0631230
3098.72, 0.0634970
3100.57, 0.0637770
3102.43, 0.0640580
3104.28, 0.0644320
3106.14, 0.0647130
3108.01, 0.0652740
3109.87, 0.0657410
3111.74, 0.0661150
3113.61, 0.0662090
3115.48, 0.0668630
3117.35, 0.0674250
3119.23, 0.0678920
3121.1, 0.0683600
3122.98, 0.0685470
3124.87, 0.0690140
3126.75, 0.0695750
3128.64, 0.0700430
3130.53, 0.0706040
3132.42, 0.0712590
3134.31, 0.0718200
3136.21, 0.0722870
3138.11, 0.0727550
3140.01, 0.0733160
3141.91, 0.0737840
3143.82, 0.0738770
3145.73, 0.0745320
3147.64, 0.0753730
3149.55, 0.0760280
3151.46, 0.0764960
3153.38, 0.0770570
3155.3, 0.0778050
3157.22, 0.0783660
3159.14, 0.0789270
3161.07, 0.0794880
3163.0, 0.0799560
3164.93, 0.0806100
3166.86, 0.0811710
3168.8, 0.0815450
3170.74, 0.0821060
3172.68, 0.0829480
3174.62, 0.0838830
3176.56, 0.0843510
3178.51, 0.0849120
3180.46, 0.0856600
3182.42, 0.0860340
3184.37, 0.0863150
3186.33, 0.0869690
3188.29, 0.0877170
3190.25, 0.0882780
3192.21, 0.0890270
3194.18, 0.0899620
3196.15, 0.0906160
3198.12, 0.0910840
3200.09, 0.0917390
3202.07, 0.0923930
3204.05, 0.0928610
3206.03, 0.0936090
3208.02, 0.0945440
3210.0, 0.0951050
3211.99, 0.0955730
3213.98, 0.0964140
3215.98, 0.0971620
3217.97, 0.0979110
3219.97, 0.0985650
3221.97, 0.0991260
3223.98, 0.0996870
3225.98, 0.100622
3227.99, 0.101277
3230.0, 0.102119
3232.02, 0.103054
3234.03, 0.103521
3236.05, 0.104083
3238.07, 0.104924
3240.1, 0.105766
3242.12, 0.106233
3244.15, 0.106982
3246.18, 0.107730
3248.22, 0.108571
3250.25, 0.109226
3252.29, 0.109693
3254.33, 0.110535
3256.38, 0.111564
3258.43, 0.112312
3260.47, 0.113154
3262.53, 0.113715
3264.58, 0.114089
3266.64, 0.114837
3268.7, 0.115772
3270.76, 0.116894
3272.82, 0.117642
3274.89, 0.118390
3276.96, 0.119326
3279.04, 0.120261
3281.11, 0.120822
3283.19, 0.121570
3285.27, 0.122318
3287.35, 0.123066
3289.44, 0.124001
3291.53, 0.125030
3293.62, 0.126059
3295.71, 0.126620
3297.81, 0.127274
3299.91, 0.128210
3302.01, 0.129145
3304.11, 0.129893
3306.22, 0.130547
3308.33, 0.131296
3310.44, 0.132511
3312.56, 0.133540
3314.68, 0.134007
3316.8, 0.134662
3318.92, 0.135784
3321.05, 0.136626
3323.18, 0.137280
3325.31, 0.137935
3327.44, 0.138964
3329.58, 0.140086
3331.72, 0.140928
3333.86, 0.141769
3336.01, 0.142704
3338.16, 0.143733
3340.31, 0.144388
3342.46, 0.144575
3344.61, 0.145229
3346.77, 0.146164
3348.94, 0.146819
3351.1, 0.147474
3353.27, 0.148222
3355.44, 0.148689
3357.61, 0.149344
3359.79, 0.150186
3361.97, 0.150840
3364.15, 0.151401
3366.33, 0.152149
3368.52, 0.152898
3370.71, 0.153552
3372.9, 0.154113
3375.1, 0.154768
3377.3, 0.155703
3379.5, 0.156451
3381.71, 0.157386
3383.91, 0.158508
3386.12, 0.159444
3388.34, 0.160285
3390.55, 0.161033
3392.77, 0.161782
3394.99, 0.162623
3397.22, 0.163184
3399.45, 0.163745
3401.68, 0.164306
3403.91, 0.164774
3406.15, 0.165148
3408.39, 0.165709
3410.63, 0.166644
3412.87, 0.167766
3415.12, 0.169076
3417.37, 0.170572
3419.63, 0.171881
3421.88, 0.173097
3424.14, 0.174780
3426.41, 0.176370
3428.67, 0.177866
3430.94, 0.179362
3433.21, 0.180765
3435.49, 0.181981
3437.77, 0.183290
3440.05, 0.184786
3442.33, 0.186002
3444.62, 0.187218
3446.91, 0.188246
3449.2, 0.189462
3451.5, 0.190771
3453.8, 0.192174
3456.1, 0.193390
3458.41, 0.194605
3460.72, 0.195634
3463.03, 0.196756
3465.34, 0.197785
3467.66, 0.198440
3469.98, 0.199281
3472.31, 0.200310
3474.63, 0.201058
3476.96, 0.201713
3479.3, 0.202367
3481.64, 0.203302
3483.97, 0.204331
3486.32, 0.205266
3488.66, 0.206201
3491.01, 0.207230
3493.36, 0.207885
3495.72, 0.208726
3498.08, 0.209568
3500.44, 0.210409
3502.81, 0.211532
3505.18, 0.212747
3507.55, 0.213495
3509.92, 0.214524
3512.3, 0.215740
3514.68, 0.217049
3517.06, 0.218171
3519.45, 0.219387
3521.84, 0.220603
3524.24, 0.221912
3526.64, 0.222941
3529.04, 0.224156
3531.44, 0.225559
3533.85, 0.226868
3536.26, 0.227897
3538.67, 0.228832
3541.09, 0.229767
3543.51, 0.230515
3545.93, 0.231357
3548.36, 0.232012
3550.79, 0.232386
3553.22, 0.232573
3555.66, 0.232573
3558.1, 0.232012
3560.54, 0.231076
3562.99, 0.229674
3565.44, 0.227429
3567.9, 0.225278
3570.35, 0.223689
3572.81, 0.223128
3575.28, 0.224250
3577.75, 0.226307
3580.22, 0.229206
3582.69, 0.233227
3585.17, 0.237435
3587.65, 0.241270
3590.14, 0.244449
3592.62, 0.247255
3595.11, 0.249686
3597.61, 0.251369
3600.11, 0.252959
3602.61, 0.254642
3605.11, 0.256138
3607.62, 0.257354
3610.14, 0.258196
3612.65, 0.259131
3615.17, 0.259973
3617.69, 0.261001
3620.22, 0.261936
3622.75, 0.262685
3625.28, 0.263526
3627.82, 0.264461
3630.36, 0.265116
3632.9, 0.265677
3635.45, 0.266519
3638.0, 0.267267
3640.56, 0.268015
3643.12, 0.268576
3645.68, 0.269137
3648.24, 0.269698
3650.81, 0.270259
3653.39, 0.270353
3655.96, 0.270353
3658.54, 0.270446
3661.13, 0.270446
3663.71, 0.270072
3666.3, 0.269605
3668.9, 0.269137
3671.5, 0.269044
3674.1, 0.268950
3676.7, 0.268857
3679.31, 0.269044
3681.93, 0.269231
3684.54, 0.269698
3687.17, 0.270166
3689.79, 0.270820
3692.42, 0.271569
3695.05, 0.272317
3697.69, 0.273252
3700.32, 0.274187
3702.97, 0.275777
3705.61, 0.278021
3708.27, 0.280452
3710.92, 0.282884
3713.58, 0.285409
3716.24, 0.287934
3718.91, 0.290178
3721.58, 0.291861
3724.25, 0.293171
3726.93, 0.294386
3729.61, 0.295508
3732.29, 0.296631
3734.98, 0.297659
3737.67, 0.298875
3740.37, 0.300091
3743.07, 0.301493
3745.78, 0.303177
3748.49, 0.304860
3751.2, 0.306263
3753.91, 0.307385
3756.63, 0.308507
3759.36, 0.309816
3762.09, 0.310845
3764.82, 0.311593
3767.55, 0.312341
3770.29, 0.313089
3773.04, 0.313837
3775.78, 0.314492
3778.54, 0.315334
3781.29, 0.316082
3784.05, 0.316830
3786.82, 0.317672
3789.59, 0.318233
3792.36, 0.318794
3795.13, 0.319355
3797.92, 0.320009
3800.7, 0.320758
3803.49, 0.321599
3806.28, 0.322160
3809.08, 0.322628
3811.88, 0.323189
3814.68, 0.323750
3817.49, 0.324124
3820.31, 0.324498
3823.12, 0.325059
3825.94, 0.325527
3828.77, 0.325994
3831.6, 0.326556
3834.43, 0.326836
3837.27, 0.327210
3840.11, 0.327584
3842.96, 0.328145
3845.81, 0.328613
3848.67, 0.328987
3851.53, 0.329361
3854.39, 0.329642
3857.26, 0.330109
3860.13, 0.330390
3863.01, 0.330670
3865.89, 0.330951
3868.77, 0.331138
3871.66, 0.331512
3874.55, 0.331979
3877.45, 0.332354
3880.35, 0.332728
3883.26, 0.333195
3886.17, 0.333756
3889.09, 0.334130
3892.01, 0.334411
3894.93, 0.334785
3897.86, 0.335065
3900.79, 0.335252
3903.73, 0.335440
3906.67, 0.335720
3909.62, 0.335907
3912.57, 0.336001
3915.52, 0.336188
3918.48, 0.336468
3921.45, 0.336749
3924.42, 0.336749
3927.39, 0.336842
3930.37, 0.336936
3933.35, 0.336749
3936.34, 0.336749
3939.33, 0.336936
3942.32, 0.336936
3945.32, 0.336936
3948.33, 0.337029
3951.34, 0.337123
3954.35, 0.337123
3957.37, 0.336936
3960.39, 0.336749
3963.42, 0.336749
3966.45, 0.336842
3969.49, 0.336749
3972.53, 0.336655
3975.58, 0.336749
3978.63, 0.336749
3981.68, 0.336749
3984.75, 0.336842
3987.81, 0.336842
3990.88, 0.336655
3993.95, 0.336749
3997.03, 0.336749
4000.12, 0.336655
4003.21, 0.336281
4006.3, 0.336094
4009.4, 0.336001
4012.5, 0.335907
4015.61, 0.335626
4018.72, 0.335440
4021.84, 0.335252
4024.96, 0.334972
4028.09, 0.334598
4031.22, 0.334224
4034.36, 0.333756
4037.5, 0.333382
4040.65, 0.333102
4043.8, 0.332821
4046.96, 0.332354
4050.12, 0.331886
4053.29, 0.331418
4056.46, 0.330951
4059.64, 0.330390
4062.82, 0.329922
4066.0, 0.329454
4069.19, 0.329080
4072.39, 0.328613
4075.59, 0.327958
4078.8, 0.327304
4082.01, 0.326930
4085.23, 0.326462
4088.45, 0.325901
4091.68, 0.325340
4094.91, 0.324872
4098.15, 0.324311
4101.39, 0.323937
4104.63, 0.323282
4107.89, 0.322628
4111.14, 0.322067
4114.41, 0.321506
4117.67, 0.321132
4120.95, 0.320383
4124.23, 0.319729
4127.51, 0.319355
4130.8, 0.318887
4134.09, 0.318420
4137.39, 0.318046
4140.7, 0.317578
4144.01, 0.317017
4147.32, 0.316830
4150.64, 0.316549
4153.97, 0.316082
4157.3, 0.315614
4160.64, 0.315240
4163.98, 0.315053
4167.33, 0.314773
4170.68, 0.314399
4174.04, 0.313837
4177.4, 0.313370
4180.77, 0.312902
4184.14, 0.312528
4187.52, 0.312248
4190.91, 0.311687
4194.3, 0.311219
4197.69, 0.310938
4201.1, 0.310564
4204.5, 0.310003
4207.92, 0.309442
4211.34, 0.308788
4214.76, 0.308133
4218.19, 0.307665
4221.62, 0.307291
4225.06, 0.306730
4228.51, 0.306263
4231.96, 0.305608
4235.42, 0.304860
4238.88, 0.304018
4242.35, 0.303364
4245.83, 0.302709
4249.31, 0.301961
4252.79, 0.301306
4256.28, 0.300932
4259.78, 0.300091
4263.29, 0.299062
4266.79, 0.298407
4270.31, 0.297659
4273.83, 0.296911
4277.35, 0.296257
4280.89, 0.295602
4284.42, 0.295041
4287.97, 0.294386
4291.52, 0.293732
4295.07, 0.292984
4298.63, 0.292235
4302.2, 0.291394
4305.78, 0.290833
4309.35, 0.290085
4312.94, 0.289523
4316.53, 0.288775
4320.13, 0.288121
4323.73, 0.287466
4327.34, 0.286812
4330.96, 0.286250
4334.58, 0.285689
4338.21, 0.285035
4341.84, 0.284380
4345.48, 0.283726
4349.12, 0.283445
4352.77, 0.282884
4356.43, 0.282229
4360.1, 0.281575
4363.76, 0.281107
4367.44, 0.280639
4371.12, 0.279985
4374.81, 0.279330
4378.51, 0.278769
4382.21, 0.278302
4385.92, 0.277834
4389.63, 0.277273
4393.35, 0.276525
4397.08, 0.275777
4400.81, 0.275216
4404.55, 0.274655
4408.29, 0.274093
4412.04, 0.273345
4415.8, 0.272784
4419.57, 0.272223
4423.34, 0.271662
4427.12, 0.270914
4430.9, 0.270072
4434.69, 0.269231
4438.49, 0.268576
4442.29, 0.267828
4446.1, 0.266986
4449.92, 0.266051
4453.74, 0.265303
4457.57, 0.264555
4461.41, 0.263807
4465.25, 0.262685
4469.1, 0.261843
4472.95, 0.261001
4476.82, 0.259786
4480.69, 0.258850
4484.56, 0.258102
4488.44, 0.257261
4492.33, 0.256419
4496.23, 0.255671
4500.13, 0.254923
4504.04, 0.254175
4507.96, 0.253240
4511.88, 0.252304
4515.81, 0.251556
4519.75, 0.250808
4523.69, 0.249966
4527.65, 0.248938
4531.6, 0.248096
4535.57, 0.247067
4539.54, 0.246319
4543.52, 0.245478
4547.5, 0.244636
4551.5, 0.243701
4555.5, 0.242766
4559.5, 0.241831
4563.52, 0.240802
4567.54, 0.239867
4571.56, 0.238932
4575.6, 0.237809
4579.64, 0.236594
4583.69, 0.235472
4587.75, 0.234443
4591.81, 0.232853
4595.88, 0.231263
4599.96, 0.229954
4604.04, 0.228551
4608.14, 0.227055
4612.24, 0.225559
4616.34, 0.223969
4620.46, 0.222379
4624.58, 0.220883
4628.71, 0.219200
4632.84, 0.217517
4636.99, 0.215927
4641.14, 0.214150
4645.3, 0.212373
4649.47, 0.210784
4653.64, 0.209194
4657.82, 0.207791
4662.01, 0.206295
4666.21, 0.205079
4670.41, 0.203957
4674.62, 0.203022
4678.84, 0.202274
4683.07, 0.201619
4687.3, 0.201058
4691.54, 0.200497
4695.79, 0.200029
4700.05, 0.199749
4704.31, 0.199281
4708.59, 0.199001
4712.87, 0.198720
4717.15, 0.198252
4721.45, 0.197878
4725.76, 0.197598
4730.07, 0.197411
4734.39, 0.197224
4738.72, 0.197037
4743.05, 0.196756
4747.39, 0.196663
4751.75, 0.196476
4756.1, 0.196289
4760.47, 0.196008
4764.85, 0.195821
4769.23, 0.195447
4773.62, 0.194979
4778.02, 0.194512
4782.43, 0.193951
4786.85, 0.193296
4791.27, 0.192548
4795.7, 0.191426
4800.14, 0.190304
4804.59, 0.189369
4809.05, 0.188620
4813.51, 0.187592
4817.99, 0.186563
4822.47, 0.185347
4826.96, 0.184132
4831.46, 0.183009
4835.96, 0.181700
4840.48, 0.180391
4845.0, 0.179175
4849.54, 0.178053
4854.08, 0.176931
4858.63, 0.175715
4863.18, 0.174500
4867.75, 0.173377
4872.33, 0.172349
4876.91, 0.171320
4881.5, 0.170104
4886.1, 0.169076
4890.71, 0.168047
4895.33, 0.167018
4899.96, 0.165896
4904.59, 0.164961
4909.24, 0.164119
4913.89, 0.163371
4918.55, 0.162530
4923.22, 0.161594
4927.9, 0.160659
4932.59, 0.159537
4937.29, 0.158508
4942.0, 0.157667
4946.71, 0.156732
4951.44, 0.155422
4956.17, 0.154300
4960.91, 0.153178
4965.67, 0.151962
4970.43, 0.150560
4975.2, 0.149157
4979.98, 0.147567
4984.76, 0.146164
4989.56, 0.144762
4994.37, 0.143078
4999.18, 0.141302
5004.01, 0.139431
5008.84, 0.137561
5013.69, 0.135597
5018.54, 0.133633
5023.4, 0.131763
5028.28, 0.129893
5033.16, 0.128022
5038.05, 0.126152
5042.95, 0.124188
5047.86, 0.122225
5052.78, 0.120448
5057.71, 0.118577
5062.65, 0.116707
5067.6, 0.114743
5072.56, 0.112967
5077.53, 0.111377
5082.5, 0.109506
5087.49, 0.107730
5092.49, 0.106140
5097.5, 0.104644
5102.51, 0.103054
5107.54, 0.101371
5112.58, 0.0999680
5117.62, 0.0986590
5122.68, 0.0973490
5127.75, 0.0962270
5132.82, 0.0949180
5137.91, 0.0937020
5143.01, 0.0926740
5148.12, 0.0917390
5153.23, 0.0910840
5158.36, 0.0904290
5163.5, 0.0897750
5168.65, 0.0892140
5173.81, 0.0887460
5178.98, 0.0885590
5184.15, 0.0880910
5189.34, 0.0878110
5194.54, 0.0877170
5199.75, 0.0875300
5204.98, 0.0875300
5210.21, 0.0874370
5215.45, 0.0873430
5220.7, 0.0876240
5225.96, 0.0877170
5231.23, 0.0878110
5236.52, 0.0880910
5241.81, 0.0881850
5247.12, 0.0883720
5252.44, 0.0884650
5257.76, 0.0885590
5263.1, 0.0888400
5268.45, 0.0889330
5273.81, 0.0887460
5279.18, 0.0886530
5284.56, 0.0885590
5289.95, 0.0881850
5295.36, 0.0879980
5300.77, 0.0878110
