Database of Origin, USGS Spectral Database
Sample Description, See USGS database for additional info
Date Added,2016-08-10 05:35:03.521068

Data ID,USGS_san04          
Sample ID, sanidine_nmnh103200.19933
Mineral Name, sanidine
Material Class,Tectosilicate

Wavelength
1533.32, 0.695908
1533.77, 0.695748
1534.23, 0.695695
1534.68, 0.696227
1535.14, 0.696387
1535.59, 0.696600
1536.05, 0.696866
1536.5, 0.697026
1536.96, 0.696972
1537.41, 0.696866
1537.87, 0.696866
1538.32, 0.697079
1538.78, 0.697505
1539.24, 0.697345
1539.7, 0.697398
1540.15, 0.697558
1540.61, 0.697664
1541.07, 0.697877
1541.53, 0.697984
1541.98, 0.698197
1542.44, 0.698037
1542.9, 0.698143
1543.36, 0.698516
1543.82, 0.698569
1544.28, 0.698569
1544.74, 0.698782
1545.2, 0.698782
1545.66, 0.698622
1546.12, 0.699048
1546.59, 0.699155
1547.05, 0.699102
1547.51, 0.699421
1547.97, 0.699474
1548.43, 0.699581
1548.9, 0.699581
1549.36, 0.699794
1549.82, 0.699900
1550.29, 0.699900
1550.75, 0.699847
1551.21, 0.700326
1551.68, 0.700485
1552.14, 0.700539
1552.61, 0.700539
1553.07, 0.700858
1553.54, 0.700645
1554.0, 0.700539
1554.47, 0.700645
1554.93, 0.701018
1555.4, 0.701284
1555.87, 0.701444
1556.34, 0.701390
1556.8, 0.701177
1557.27, 0.701018
1557.74, 0.701550
1558.21, 0.701550
1558.68, 0.701869
1559.14, 0.702295
1559.61, 0.702455
1560.08, 0.702455
1560.55, 0.702455
1561.02, 0.702402
1561.49, 0.702136
1561.96, 0.702295
1562.43, 0.702561
1562.9, 0.702508
1563.38, 0.702402
1563.85, 0.702721
1564.32, 0.702934
1564.79, 0.703413
1565.26, 0.703573
1565.74, 0.703413
1566.21, 0.703466
1566.68, 0.703519
1567.16, 0.703626
1567.63, 0.703573
1568.1, 0.703466
1568.58, 0.703466
1569.05, 0.703786
1569.53, 0.703679
1570.0, 0.704158
1570.48, 0.704371
1570.96, 0.704105
1571.43, 0.704105
1571.91, 0.703999
1572.39, 0.703945
1572.86, 0.704371
1573.34, 0.704691
1573.82, 0.704797
1574.3, 0.704584
1574.77, 0.704637
1575.25, 0.704903
1575.73, 0.704957
1576.21, 0.704957
1576.69, 0.704903
1577.17, 0.705010
1577.65, 0.705170
1578.13, 0.705276
1578.61, 0.705329
1579.09, 0.705436
1579.57, 0.705329
1580.05, 0.705223
1580.54, 0.705223
1581.02, 0.705702
1581.5, 0.705915
1581.98, 0.705808
1582.47, 0.705649
1582.95, 0.705649
1583.43, 0.705808
1583.92, 0.705542
1584.4, 0.705755
1584.88, 0.706234
1585.37, 0.706234
1585.85, 0.705862
1586.34, 0.705862
1586.82, 0.705968
1587.31, 0.706234
1587.8, 0.706447
1588.28, 0.706447
1588.77, 0.706447
1589.26, 0.706766
1589.74, 0.706873
1590.23, 0.706660
1590.72, 0.706713
1591.21, 0.707033
1591.7, 0.707033
1592.19, 0.706926
1592.67, 0.706926
1593.16, 0.707139
1593.65, 0.707033
1594.14, 0.707192
1594.63, 0.707139
1595.12, 0.707458
1595.61, 0.707884
1596.11, 0.708097
1596.6, 0.707831
1597.09, 0.707778
1597.58, 0.708150
1598.08, 0.708310
1598.57, 0.708257
1599.06, 0.708523
1599.55, 0.708683
1600.05, 0.708736
1600.54, 0.708896
1601.04, 0.709321
1601.53, 0.709321
1602.03, 0.709215
1602.52, 0.709215
1603.02, 0.709800
1603.51, 0.709907
1604.01, 0.710067
1604.5, 0.710013
1605.0, 0.710226
1605.5, 0.710333
1606.0, 0.710226
1606.49, 0.710599
1606.99, 0.710812
1607.49, 0.710918
1607.99, 0.711397
1608.49, 0.711344
1608.99, 0.711291
1609.49, 0.711397
1609.99, 0.711451
1610.49, 0.711770
1610.99, 0.712036
1611.49, 0.712036
1611.99, 0.712196
1612.49, 0.712462
1612.99, 0.712622
1613.49, 0.712675
1614.0, 0.712622
1614.5, 0.712462
1615.0, 0.712781
1615.51, 0.713260
1616.01, 0.713420
1616.51, 0.713314
1617.02, 0.713526
1617.52, 0.713686
1618.03, 0.713899
1618.53, 0.714006
1619.04, 0.714112
1619.54, 0.714112
1620.05, 0.714165
1620.55, 0.714272
1621.06, 0.714431
1621.57, 0.714431
1622.08, 0.714591
1622.58, 0.714751
1623.09, 0.715177
1623.6, 0.715336
1624.11, 0.715283
1624.62, 0.715336
1625.13, 0.715549
1625.64, 0.715656
1626.15, 0.715922
1626.66, 0.716241
1627.17, 0.716241
1627.68, 0.716348
1628.19, 0.716560
1628.7, 0.716507
1629.21, 0.716560
1629.72, 0.716560
1630.24, 0.716614
1630.75, 0.716401
1631.26, 0.716614
1631.78, 0.716880
1632.29, 0.717146
1632.8, 0.717093
1633.32, 0.717093
1633.83, 0.717199
1634.35, 0.717519
1634.86, 0.717519
1635.38, 0.717625
1635.9, 0.717572
1636.41, 0.717519
1636.93, 0.717465
1637.45, 0.717572
1637.96, 0.717625
1638.48, 0.717944
1639.0, 0.717891
1639.52, 0.717998
1640.04, 0.718157
1640.56, 0.718104
1641.08, 0.718157
1641.59, 0.718157
1642.11, 0.718211
1642.63, 0.718423
1643.16, 0.718477
1643.68, 0.718796
1644.2, 0.718956
1644.72, 0.718849
1645.24, 0.718743
1645.76, 0.718743
1646.29, 0.718743
1646.81, 0.718849
1647.33, 0.718743
1647.86, 0.718956
1648.38, 0.718956
1648.9, 0.718849
1649.43, 0.718796
1649.95, 0.719169
1650.48, 0.719382
1651.0, 0.719435
1651.53, 0.719169
1652.06, 0.719382
1652.58, 0.719435
1653.11, 0.719541
1653.64, 0.719701
1654.17, 0.719914
1654.69, 0.719754
1655.22, 0.719541
1655.75, 0.719328
1656.28, 0.719594
1656.81, 0.719967
1657.34, 0.719967
1657.87, 0.719967
1658.4, 0.720127
1658.93, 0.720127
1659.46, 0.720286
1659.99, 0.720180
1660.52, 0.720340
1661.05, 0.720712
1661.59, 0.720925
1662.12, 0.721138
1662.65, 0.721191
1663.19, 0.721085
1663.72, 0.721351
1664.26, 0.721511
1664.79, 0.721245
1665.32, 0.721085
1665.86, 0.721564
1666.39, 0.721830
1666.93, 0.721937
1667.47, 0.722096
1668.0, 0.722256
1668.54, 0.722469
1669.08, 0.722735
1669.61, 0.722629
1670.15, 0.722522
1670.69, 0.722522
1671.23, 0.722841
1671.77, 0.723108
1672.31, 0.723267
1672.85, 0.723427
1673.39, 0.723480
1673.93, 0.723640
1674.47, 0.723640
1675.01, 0.723746
1675.55, 0.723906
1676.09, 0.724012
1676.64, 0.724438
1677.18, 0.724811
1677.72, 0.724864
1678.26, 0.724545
1678.81, 0.724545
1679.35, 0.724651
1679.89, 0.724811
1680.44, 0.724917
1680.98, 0.725237
1681.53, 0.725183
1682.07, 0.725077
1682.62, 0.725237
1683.17, 0.725450
1683.71, 0.725450
1684.26, 0.725822
1684.81, 0.726195
1685.36, 0.726248
1685.9, 0.726461
1686.45, 0.726461
1687.0, 0.726301
1687.55, 0.726461
1688.1, 0.726674
1688.65, 0.726887
1689.2, 0.726887
1689.75, 0.727100
1690.3, 0.727259
1690.85, 0.727259
1691.41, 0.727366
1691.96, 0.727579
1692.51, 0.727525
1693.06, 0.727525
1693.61, 0.727738
1694.17, 0.728005
1694.72, 0.728005
1695.28, 0.727845
1695.83, 0.728058
1696.39, 0.728377
1696.94, 0.728377
1697.5, 0.728324
1698.05, 0.728377
1698.61, 0.728324
1699.17, 0.728271
1699.72, 0.728590
1700.28, 0.728696
1700.84, 0.728750
1701.4, 0.729069
1701.95, 0.729176
1702.51, 0.729122
1703.07, 0.729016
1703.63, 0.729016
1704.19, 0.729176
1704.75, 0.729335
1705.31, 0.729229
1705.88, 0.729176
1706.44, 0.729229
1707.0, 0.729442
1707.56, 0.729601
1708.12, 0.729335
1708.69, 0.729229
1709.25, 0.729601
1709.81, 0.729761
1710.38, 0.729761
1710.94, 0.729814
1711.51, 0.729601
1712.07, 0.729921
1712.64, 0.730134
1713.2, 0.730081
1713.77, 0.729761
1714.34, 0.729761
1714.9, 0.729921
1715.47, 0.730187
1716.04, 0.730134
1716.61, 0.730187
1717.18, 0.730293
1717.74, 0.730400
1718.31, 0.730347
1718.88, 0.730187
1719.45, 0.730240
1720.02, 0.730347
1720.59, 0.730506
1721.17, 0.730772
1721.74, 0.730719
1722.31, 0.730666
1722.88, 0.730613
1723.45, 0.730559
1724.03, 0.730772
1724.6, 0.731039
1725.18, 0.731092
1725.75, 0.731145
1726.33, 0.731145
1726.9, 0.731039
1727.48, 0.730985
1728.05, 0.731145
1728.63, 0.731145
1729.2, 0.731198
1729.78, 0.731411
1730.36, 0.731624
1730.94, 0.731571
1731.51, 0.731358
1732.09, 0.731092
1732.67, 0.731198
1733.25, 0.731305
1733.83, 0.731731
1734.41, 0.731944
1734.99, 0.731997
1735.57, 0.732103
1736.15, 0.732156
1736.73, 0.732316
1737.32, 0.732422
1737.9, 0.732263
1738.48, 0.732156
1739.07, 0.732476
1739.65, 0.732422
1740.23, 0.732582
1740.82, 0.732742
1741.4, 0.732848
1741.99, 0.733061
1742.57, 0.733008
1743.16, 0.732955
1743.74, 0.733168
1744.33, 0.733860
1744.92, 0.733860
1745.51, 0.733806
1746.09, 0.733913
1746.68, 0.734073
1747.27, 0.734073
1747.86, 0.734179
1748.45, 0.734179
1749.04, 0.734445
1749.63, 0.734605
1750.22, 0.734392
1750.81, 0.734605
1751.4, 0.734871
1751.99, 0.734871
1752.59, 0.735031
1753.18, 0.735190
1753.77, 0.735297
1754.37, 0.735297
1754.96, 0.735403
1755.56, 0.735616
1756.15, 0.735723
1756.74, 0.736042
1757.34, 0.736255
1757.94, 0.736095
1758.53, 0.736042
1759.13, 0.736255
1759.73, 0.736255
1760.32, 0.736415
1760.92, 0.736734
1761.52, 0.737000
1762.12, 0.737107
1762.72, 0.737160
1763.32, 0.737107
1763.92, 0.737213
1764.52, 0.737586
1765.12, 0.737532
1765.72, 0.737479
1766.32, 0.737532
1766.92, 0.737692
1767.53, 0.738012
1768.13, 0.738224
1768.73, 0.738171
1769.34, 0.738012
1769.94, 0.737958
1770.55, 0.738384
1771.15, 0.738597
1771.76, 0.738650
1772.36, 0.738597
1772.97, 0.738597
1773.57, 0.738757
1774.18, 0.738863
1774.79, 0.738863
1775.4, 0.738916
1776.0, 0.738810
1776.61, 0.738757
1777.22, 0.738810
1777.83, 0.738863
1778.44, 0.738810
1779.05, 0.738863
1779.66, 0.739129
1780.27, 0.739289
1780.88, 0.739129
1781.5, 0.739076
1782.11, 0.739183
1782.72, 0.739395
1783.33, 0.739395
1783.95, 0.739236
1784.56, 0.739395
1785.18, 0.739555
1785.79, 0.739662
1786.41, 0.739715
1787.02, 0.739662
1787.64, 0.739449
1788.26, 0.739342
1788.87, 0.739342
1789.49, 0.739395
1790.11, 0.739449
1790.73, 0.739608
1791.35, 0.739715
1791.96, 0.739502
1792.58, 0.739395
1793.21, 0.739555
1793.83, 0.739555
1794.45, 0.739662
1795.07, 0.739715
1795.69, 0.739715
1796.31, 0.739768
1796.93, 0.739502
1797.56, 0.739662
1798.18, 0.739768
1798.8, 0.739608
1799.43, 0.739662
1800.05, 0.739768
1800.68, 0.739874
1801.3, 0.739874
1801.93, 0.739981
1802.56, 0.739874
1803.18, 0.739768
1803.81, 0.739928
1804.44, 0.739874
1805.07, 0.739981
1805.7, 0.740034
1806.33, 0.739928
1806.95, 0.739874
1807.58, 0.739874
1808.22, 0.740087
1808.85, 0.740194
1809.48, 0.740034
1810.11, 0.740087
1810.74, 0.740354
1811.38, 0.740300
1812.01, 0.740354
1812.64, 0.740566
1813.28, 0.740620
1813.91, 0.740513
1814.55, 0.740300
1815.18, 0.740354
1815.82, 0.740673
1816.45, 0.740726
1817.09, 0.740726
1817.73, 0.740620
1818.36, 0.740992
1819.0, 0.741205
1819.64, 0.741258
1820.28, 0.741525
1820.92, 0.741631
1821.56, 0.741684
1822.2, 0.741578
1822.84, 0.741312
1823.48, 0.741684
1824.12, 0.742217
1824.76, 0.741950
1825.41, 0.742004
1826.05, 0.742749
1826.69, 0.742642
1827.34, 0.742270
1827.98, 0.742483
1828.63, 0.742855
1829.27, 0.743068
1829.92, 0.743068
1830.56, 0.743175
1831.21, 0.743281
1831.86, 0.743121
1832.5, 0.743121
1833.15, 0.743175
1833.8, 0.743175
1834.45, 0.743281
1835.1, 0.743494
1835.75, 0.743973
1836.4, 0.744133
1837.05, 0.744239
1837.7, 0.744825
1838.35, 0.744399
1839.01, 0.744292
1839.66, 0.744984
1840.31, 0.744718
1840.96, 0.744505
1841.62, 0.745038
1842.27, 0.745038
1842.93, 0.744771
1843.58, 0.744931
1844.24, 0.744984
1844.9, 0.745038
1845.55, 0.744771
1846.21, 0.745197
1846.87, 0.746102
1847.53, 0.746262
1848.18, 0.746102
1848.84, 0.745623
1849.5, 0.745357
1850.16, 0.745410
1850.82, 0.745463
1851.48, 0.745783
1852.14, 0.745889
1852.81, 0.746049
1853.47, 0.746475
1854.13, 0.746634
1854.8, 0.746102
1855.46, 0.745996
1856.12, 0.746368
1856.79, 0.746688
1857.45, 0.746209
1858.12, 0.745889
1858.79, 0.746209
1859.45, 0.746901
1860.12, 0.746954
1860.79, 0.746688
1861.46, 0.746209
1862.12, 0.746155
1862.79, 0.746368
1863.46, 0.746528
1864.13, 0.746315
1864.8, 0.746262
1865.48, 0.746262
1866.15, 0.746475
1866.82, 0.746368
1867.49, 0.746847
1868.16, 0.747007
1868.84, 0.746794
1869.51, 0.746634
1870.19, 0.746634
1870.86, 0.747273
1871.54, 0.746794
1872.21, 0.746315
1872.89, 0.747114
1873.56, 0.746901
1874.24, 0.746422
1874.92, 0.746155
1875.6, 0.745943
1876.28, 0.745783
1876.96, 0.746155
1877.64, 0.745889
1878.32, 0.745783
1879.0, 0.745836
1879.68, 0.745836
1880.36, 0.745783
1881.04, 0.745570
1881.73, 0.745517
1882.41, 0.745730
1883.09, 0.745943
1883.78, 0.746315
1884.46, 0.745996
1885.15, 0.745783
1885.83, 0.745730
1886.52, 0.745570
1887.21, 0.745463
1887.89, 0.745251
1888.58, 0.745197
1889.27, 0.745410
1889.96, 0.745889
1890.65, 0.745943
1891.34, 0.745570
1892.03, 0.745463
1892.72, 0.745463
1893.41, 0.745517
1894.1, 0.745623
1894.79, 0.745463
1895.49, 0.745463
1896.18, 0.745623
1896.87, 0.745623
1897.57, 0.745517
1898.26, 0.745251
1898.96, 0.745517
1899.65, 0.745996
1900.35, 0.745943
1901.05, 0.745570
1901.74, 0.745144
1902.44, 0.745463
1903.14, 0.745943
1903.84, 0.745570
1904.54, 0.745836
1905.24, 0.746262
1905.94, 0.746368
1906.64, 0.746422
1907.34, 0.745943
1908.04, 0.745676
1908.75, 0.745783
1909.45, 0.745783
1910.15, 0.746102
1910.86, 0.746528
1911.56, 0.746475
1912.27, 0.745943
1912.97, 0.746209
1913.68, 0.746901
1914.39, 0.747007
1915.09, 0.746634
1915.8, 0.746741
1916.51, 0.746847
1917.22, 0.746741
1917.93, 0.746901
1918.64, 0.747167
1919.35, 0.747593
1920.06, 0.748072
1920.77, 0.748231
1921.48, 0.747646
1922.19, 0.747752
1922.91, 0.747912
1923.62, 0.748072
1924.33, 0.748178
1925.05, 0.748551
1925.76, 0.748657
1926.48, 0.748285
1927.19, 0.748072
1927.91, 0.748444
1928.63, 0.748764
1929.35, 0.748444
1930.07, 0.748551
1930.78, 0.748657
1931.5, 0.748710
1932.22, 0.748657
1932.94, 0.748817
1933.66, 0.749136
1934.39, 0.749136
1935.11, 0.749030
1935.83, 0.749296
1936.55, 0.749402
1937.28, 0.749243
1938.0, 0.749402
1938.73, 0.749615
1939.45, 0.749722
1940.18, 0.749881
1940.9, 0.749828
1941.63, 0.749828
1942.36, 0.749881
1943.09, 0.749935
1943.81, 0.749988
1944.54, 0.750041
1945.27, 0.750201
1946.0, 0.749935
1946.73, 0.749881
1947.47, 0.749988
1948.2, 0.750041
1948.93, 0.750094
1949.66, 0.749988
1950.4, 0.749988
1951.13, 0.749988
1951.86, 0.750148
1952.6, 0.750254
1953.34, 0.750307
1954.07, 0.750094
1954.81, 0.750041
1955.55, 0.750094
1956.29, 0.749935
1957.02, 0.749881
1957.76, 0.750094
1958.5, 0.750041
1959.24, 0.749828
1959.98, 0.749881
1960.72, 0.749988
1961.47, 0.749881
1962.21, 0.749935
1962.95, 0.750041
1963.7, 0.749775
1964.44, 0.749509
1965.18, 0.749509
1965.93, 0.749509
1966.67, 0.749296
1967.42, 0.749349
1968.17, 0.749349
1968.92, 0.749296
1969.66, 0.749296
1970.41, 0.749402
1971.16, 0.749456
1971.91, 0.749243
1972.66, 0.749243
1973.41, 0.749189
1974.16, 0.749136
1974.92, 0.749136
1975.67, 0.749243
1976.42, 0.749296
1977.18, 0.748977
1977.93, 0.748817
1978.69, 0.748923
1979.44, 0.749083
1980.2, 0.749189
1980.95, 0.748977
1981.71, 0.748923
1982.47, 0.748870
1983.23, 0.748817
1983.99, 0.748604
1984.74, 0.748764
1985.51, 0.748817
1986.27, 0.748923
1987.03, 0.748657
1987.79, 0.748551
1988.55, 0.748444
1989.32, 0.748497
1990.08, 0.748604
1990.84, 0.748764
1991.61, 0.748551
1992.37, 0.748604
1993.14, 0.748817
1993.9, 0.749030
1994.67, 0.748870
1995.44, 0.748870
1996.21, 0.748710
1996.98, 0.748710
1997.75, 0.748817
1998.52, 0.749030
1999.29, 0.749136
2000.06, 0.749083
2000.83, 0.749136
2001.6, 0.749349
2002.38, 0.749402
2003.15, 0.749243
2003.93, 0.749136
2004.7, 0.749509
2005.48, 0.749456
2006.25, 0.749562
2007.03, 0.749775
2007.81, 0.749775
2008.58, 0.749881
2009.36, 0.750148
2010.14, 0.750148
2010.92, 0.750307
2011.7, 0.750414
2012.48, 0.750520
2013.26, 0.750520
2014.05, 0.750573
2014.83, 0.750573
2015.61, 0.750680
2016.4, 0.750840
2017.18, 0.750840
2017.97, 0.750840
2018.75, 0.751106
2019.54, 0.751319
2020.32, 0.751265
2021.11, 0.751265
2021.9, 0.751319
2022.69, 0.751478
2023.48, 0.751531
2024.27, 0.751478
2025.06, 0.751745
2025.85, 0.751957
2026.64, 0.752170
2027.44, 0.751851
2028.23, 0.751745
2029.02, 0.751851
2029.82, 0.752011
2030.61, 0.751957
2031.41, 0.751957
2032.2, 0.752064
2033.0, 0.752223
2033.8, 0.752117
2034.6, 0.752064
2035.4, 0.752330
2036.2, 0.752703
2037.0, 0.752809
2037.8, 0.752703
2038.6, 0.752543
2039.4, 0.752596
2040.2, 0.752756
2041.01, 0.752862
2041.81, 0.752916
2042.61, 0.752969
2043.42, 0.752809
2044.22, 0.752596
2045.03, 0.752436
2045.84, 0.752543
2046.65, 0.752809
2047.46, 0.752862
2048.26, 0.753022
2049.07, 0.752969
2049.88, 0.752862
2050.69, 0.752809
2051.51, 0.752596
2052.32, 0.752596
2053.13, 0.752703
2053.94, 0.752649
2054.76, 0.752330
2055.57, 0.752170
2056.39, 0.752383
2057.2, 0.752383
2058.02, 0.752383
2058.84, 0.752223
2059.66, 0.752011
2060.48, 0.752117
2061.29, 0.752117
2062.11, 0.752011
2062.94, 0.751745
2063.76, 0.751638
2064.58, 0.751425
2065.4, 0.751585
2066.22, 0.751745
2067.05, 0.751585
2067.87, 0.751372
2068.7, 0.751265
2069.52, 0.750893
2070.35, 0.750733
2071.18, 0.750733
2072.0, 0.750733
2072.83, 0.750680
2073.66, 0.750627
2074.49, 0.750627
2075.32, 0.750786
2076.15, 0.750786
2076.98, 0.750467
2077.82, 0.750148
2078.65, 0.749935
2079.48, 0.749722
2080.32, 0.749722
2081.15, 0.749722
2081.99, 0.749668
2082.83, 0.749615
2083.66, 0.749722
2084.5, 0.749615
2085.34, 0.749402
2086.18, 0.749296
2087.02, 0.749243
2087.86, 0.749296
2088.7, 0.749243
2089.54, 0.749243
2090.39, 0.748977
2091.23, 0.748870
2092.07, 0.748923
2092.92, 0.748657
2093.76, 0.748764
2094.61, 0.748923
2095.45, 0.748657
2096.3, 0.748657
2097.15, 0.748764
2098.0, 0.748604
2098.85, 0.748657
2099.7, 0.748444
2100.55, 0.748551
2101.4, 0.748710
2102.25, 0.748710
2103.1, 0.748977
2103.96, 0.749030
2104.81, 0.748710
2105.67, 0.748338
2106.52, 0.748497
2107.38, 0.748604
2108.24, 0.748870
2109.09, 0.748764
2109.95, 0.748604
2110.81, 0.748764
2111.67, 0.748977
2112.53, 0.748977
2113.39, 0.749030
2114.25, 0.749189
2115.12, 0.748870
2115.98, 0.748870
2116.84, 0.749083
2117.71, 0.749349
2118.58, 0.749456
2119.44, 0.749562
2120.31, 0.749562
2121.18, 0.749509
2122.04, 0.749562
2122.91, 0.749828
2123.78, 0.749935
2124.65, 0.750041
2125.52, 0.750041
2126.4, 0.750094
2127.27, 0.749881
2128.14, 0.749988
2129.02, 0.749935
2129.89, 0.750094
2130.77, 0.750148
2131.64, 0.750254
2132.52, 0.750148
2133.4, 0.750307
2134.27, 0.750573
2135.15, 0.750680
2136.03, 0.750467
2136.91, 0.750520
2137.79, 0.750414
2138.68, 0.750307
2139.56, 0.750414
2140.44, 0.750680
2141.33, 0.750786
2142.21, 0.750786
2143.1, 0.750627
2143.99, 0.750387
2144.87, 0.750207
2145.76, 0.750327
2146.65, 0.750267
2147.54, 0.750387
2148.43, 0.750507
2149.32, 0.750507
2150.21, 0.750327
2151.1, 0.750028
2151.99, 0.749968
2152.89, 0.749608
2153.78, 0.749548
2154.68, 0.749309
2155.57, 0.749608
2156.47, 0.749788
2157.37, 0.749908
2158.27, 0.749728
2159.16, 0.748950
2160.06, 0.748830
2160.96, 0.749189
2161.86, 0.749429
2162.77, 0.749848
2163.67, 0.750088
2164.57, 0.749908
2165.48, 0.749129
2166.38, 0.748890
2167.29, 0.749489
2168.2, 0.749608
2169.1, 0.748770
2170.01, 0.749009
2170.92, 0.748710
2171.83, 0.748650
2172.74, 0.748830
2173.65, 0.748770
2174.56, 0.748950
2175.47, 0.749189
2176.39, 0.748770
2177.3, 0.748770
2178.22, 0.748650
2179.13, 0.748830
2180.05, 0.749129
2180.96, 0.748710
2181.88, 0.749069
2182.8, 0.748950
2183.72, 0.748890
2184.64, 0.748710
2185.56, 0.748950
2186.48, 0.748291
2187.41, 0.748410
2188.33, 0.748231
2189.25, 0.748410
2190.18, 0.748530
2191.1, 0.747871
2192.03, 0.747632
2192.96, 0.748231
2193.89, 0.748590
2194.82, 0.748111
2195.74, 0.747811
2196.68, 0.747871
2197.61, 0.748111
2198.54, 0.748530
2199.47, 0.748470
2200.4, 0.748530
2201.34, 0.748710
2202.28, 0.748231
2203.21, 0.747931
2204.15, 0.748051
2205.08, 0.747692
2206.02, 0.747332
2206.96, 0.747752
2207.9, 0.748710
2208.84, 0.748770
2209.78, 0.748351
2210.73, 0.748051
2211.67, 0.747572
2212.61, 0.747632
2213.56, 0.747332
2214.5, 0.747452
2215.45, 0.747871
2216.4, 0.747931
2217.35, 0.747752
2218.3, 0.747572
2219.24, 0.747871
2220.2, 0.747692
2221.15, 0.747991
2222.1, 0.747991
2223.05, 0.748051
2224.0, 0.747871
2224.96, 0.747752
2225.91, 0.747452
2226.87, 0.747332
2227.83, 0.747452
2228.79, 0.747332
2229.74, 0.747153
2230.7, 0.747213
2231.66, 0.747093
2232.63, 0.747452
2233.59, 0.747213
2234.55, 0.747752
2235.51, 0.747692
2236.48, 0.747452
2237.44, 0.747572
2238.41, 0.747452
2239.38, 0.746853
2240.34, 0.747093
2241.31, 0.746973
2242.28, 0.746793
2243.25, 0.746614
2244.22, 0.746434
2245.19, 0.746554
2246.17, 0.746674
2247.14, 0.746434
2248.12, 0.746494
2249.09, 0.746374
2250.07, 0.746554
2251.04, 0.746374
2252.02, 0.747153
2253.0, 0.747153
2253.98, 0.746793
2254.96, 0.746194
2255.94, 0.746134
2256.92, 0.746134
2257.91, 0.745835
2258.89, 0.745476
2259.88, 0.745655
2260.86, 0.745655
2261.85, 0.745236
2262.83, 0.744996
2263.82, 0.745595
2264.81, 0.745655
2265.8, 0.745476
2266.79, 0.745296
2267.78, 0.745176
2268.78, 0.744936
2269.77, 0.744996
2270.76, 0.744817
2271.76, 0.744697
2272.75, 0.744338
2273.75, 0.744278
2274.75, 0.744098
2275.75, 0.744158
2276.75, 0.743858
2277.75, 0.743619
2278.75, 0.743679
2279.75, 0.743559
2280.75, 0.743319
2281.76, 0.743439
2282.76, 0.743739
2283.77, 0.743319
2284.77, 0.743199
2285.78, 0.743140
2286.79, 0.743199
2287.8, 0.742720
2288.81, 0.742121
2289.82, 0.742720
2290.83, 0.742840
2291.84, 0.742900
2292.86, 0.743439
2293.87, 0.743319
2294.89, 0.742840
2295.91, 0.742900
2296.92, 0.742660
2297.94, 0.742660
2298.96, 0.742900
2299.98, 0.743379
2301.0, 0.743559
2302.02, 0.742720
2303.04, 0.742361
2304.07, 0.742840
2305.09, 0.742840
2306.12, 0.742660
2307.15, 0.742780
2308.17, 0.743020
2309.2, 0.743080
2310.23, 0.742780
2311.26, 0.742660
2312.29, 0.743199
2313.32, 0.743319
2314.35, 0.743020
2315.39, 0.743140
2316.42, 0.743259
2317.46, 0.742840
2318.5, 0.743080
2319.53, 0.743439
2320.57, 0.743379
2321.61, 0.743080
2322.65, 0.743080
2323.69, 0.743140
2324.73, 0.742960
2325.78, 0.742900
2326.82, 0.743379
2327.86, 0.743379
2328.91, 0.743319
2329.96, 0.743319
2331.01, 0.743080
2332.05, 0.743020
2333.1, 0.743559
2334.15, 0.744038
2335.21, 0.743858
2336.26, 0.743199
2337.31, 0.743439
2338.36, 0.743499
2339.42, 0.743439
2340.48, 0.743439
2341.53, 0.743559
2342.59, 0.743619
2343.65, 0.743379
2344.71, 0.743559
2345.77, 0.743499
2346.83, 0.743259
2347.9, 0.742900
2348.96, 0.742900
2350.02, 0.743259
2351.09, 0.743379
2352.16, 0.743259
2353.23, 0.742840
2354.29, 0.742960
2355.36, 0.742960
2356.43, 0.743199
2357.51, 0.743259
2358.58, 0.743020
2359.65, 0.742720
2360.73, 0.742840
2361.8, 0.742900
2362.88, 0.742900
2363.96, 0.742660
2365.03, 0.742660
2366.11, 0.742780
2367.19, 0.742660
2368.27, 0.742541
2369.36, 0.742481
2370.44, 0.742421
2371.53, 0.742541
2372.61, 0.742421
2373.7, 0.742121
2374.78, 0.742121
2375.87, 0.742780
2376.96, 0.742541
2378.05, 0.742301
2379.14, 0.742061
2380.24, 0.741882
2381.33, 0.741882
2382.42, 0.741762
2383.52, 0.741462
2384.61, 0.741762
2385.71, 0.741942
2386.81, 0.742121
2387.91, 0.741942
2389.01, 0.741642
2390.11, 0.741882
2391.22, 0.742002
2392.32, 0.741283
2393.42, 0.741283
2394.53, 0.741283
2395.64, 0.741403
2396.74, 0.741702
2397.85, 0.741403
2398.96, 0.740923
2400.07, 0.740983
2401.18, 0.740923
2402.3, 0.741043
2403.41, 0.740923
2404.52, 0.741223
2405.64, 0.740923
2406.76, 0.740384
2407.88, 0.740504
2408.99, 0.740624
2410.11, 0.740444
2411.23, 0.740085
2412.36, 0.739905
2413.48, 0.740145
2414.6, 0.739606
2415.73, 0.740025
2416.85, 0.740145
2417.98, 0.739725
2419.11, 0.739486
2420.24, 0.739426
2421.37, 0.739007
2422.5, 0.738887
2423.64, 0.738767
2424.77, 0.738707
2425.9, 0.738767
2427.04, 0.739306
2428.18, 0.739306
2429.31, 0.739067
2430.45, 0.738887
2431.59, 0.738587
2432.73, 0.738108
2433.88, 0.738048
2435.02, 0.738228
2436.16, 0.738468
2437.31, 0.738947
2438.45, 0.738887
2439.6, 0.738288
2440.75, 0.738168
2441.9, 0.738468
2443.05, 0.738528
2444.2, 0.738108
2445.35, 0.737869
2446.51, 0.737809
2447.67, 0.738348
2448.82, 0.738468
2449.98, 0.738228
2451.14, 0.737988
2452.3, 0.737689
2453.46, 0.737809
2454.62, 0.737869
2455.78, 0.737390
2456.94, 0.737629
2458.11, 0.737929
2459.28, 0.738048
2460.44, 0.737809
2461.61, 0.737629
2462.78, 0.737749
2463.95, 0.737749
2465.12, 0.737749
2466.3, 0.737449
2467.47, 0.737270
2468.65, 0.737689
2469.82, 0.737509
2471.0, 0.737210
2472.18, 0.737090
2473.36, 0.737330
2474.54, 0.737569
2475.72, 0.737509
2476.9, 0.737330
2478.08, 0.737390
2479.27, 0.737629
2480.46, 0.737749
2481.64, 0.737090
2482.83, 0.737330
2484.02, 0.737390
2485.21, 0.737449
2486.4, 0.737270
2487.6, 0.736970
2488.79, 0.737150
2489.99, 0.737629
2491.18, 0.737449
2492.38, 0.737210
2493.58, 0.737090
2494.78, 0.737390
2495.98, 0.737210
2497.18, 0.736970
2498.39, 0.737150
2499.59, 0.737270
2500.8, 0.737270
2502.01, 0.737449
2503.21, 0.737210
2504.42, 0.737270
2505.63, 0.737330
2506.84, 0.737569
2508.06, 0.737210
2509.27, 0.737090
2510.49, 0.737449
2511.7, 0.737749
2512.92, 0.737988
2514.14, 0.737809
2515.36, 0.737629
2516.58, 0.737869
2517.8, 0.737569
2519.03, 0.737449
2520.25, 0.737390
2521.48, 0.737809
2522.7, 0.738408
2523.93, 0.738288
2525.16, 0.737390
2526.39, 0.737509
2527.62, 0.738228
2528.86, 0.738108
2530.09, 0.738108
2531.33, 0.738707
2532.56, 0.738528
2533.8, 0.737929
2535.04, 0.737390
2536.28, 0.737330
2537.52, 0.737150
2538.76, 0.737030
2540.01, 0.738168
2541.25, 0.739486
2542.5, 0.739306
2543.75, 0.739306
2544.99, 0.738647
2546.24, 0.737210
2547.49, 0.736850
2548.75, 0.738767
2550.0, 0.738767
2551.26, 0.736970
2552.51, 0.738887
2553.77, 0.738887
2555.03, 0.737869
2556.29, 0.739007
2557.55, 0.737869
2558.81, 0.736611
2560.08, 0.737749
2561.34, 0.737090
2562.61, 0.738228
2563.88, 0.739366
2565.14, 0.737210
2566.41, 0.738587
2567.68, 0.738168
2568.96, 0.737150
2570.23, 0.736491
2571.51, 0.735832
2572.78, 0.738528
2574.06, 0.743499
2575.34, 0.740444
2576.62, 0.736910
2577.9, 0.735593
2579.18, 0.735353
2580.47, 0.736251
2581.75, 0.736371
2583.04, 0.736611
2584.32, 0.738587
2585.61, 0.738048
2586.9, 0.736790
2588.2, 0.736910
2589.49, 0.736251
2590.78, 0.735652
2592.08, 0.736072
2593.37, 0.735233
2594.67, 0.736731
2595.97, 0.738887
2597.27, 0.736132
2598.57, 0.737030
2599.88, 0.738048
2601.18, 0.735113
2602.49, 0.734814
2603.79, 0.735293
2605.1, 0.737749
2606.41, 0.736192
2607.72, 0.735772
2609.03, 0.738827
2610.35, 0.736731
2611.66, 0.735353
2612.98, 0.735772
2614.3, 0.734275
2615.62, 0.734574
2616.94, 0.734694
2618.26, 0.734874
2619.58, 0.734694
2620.91, 0.734455
2622.23, 0.734275
2623.56, 0.735353
2624.89, 0.735353
2626.22, 0.734275
2627.55, 0.734215
2628.88, 0.734275
2630.21, 0.735233
2631.55, 0.735293
2632.89, 0.734814
2634.22, 0.735173
2635.56, 0.733975
2636.9, 0.734634
2638.25, 0.735353
2639.59, 0.734814
2640.93, 0.733736
2642.28, 0.735173
2643.63, 0.737569
2644.98, 0.737270
2646.33, 0.733975
2647.68, 0.736012
2649.03, 0.738108
2650.39, 0.733017
2651.74, 0.732119
2653.1, 0.732777
2654.46, 0.733796
2655.82, 0.732837
2657.18, 0.732478
2658.54, 0.730082
2659.9, 0.728525
2661.27, 0.728585
2662.64, 0.727447
2664.01, 0.726069
2665.38, 0.724092
2666.74, 0.722116
2668.12, 0.719720
2669.49, 0.717264
2670.87, 0.716246
2672.24, 0.713850
2673.62, 0.709418
2675.0, 0.704746
2676.38, 0.700253
2677.76, 0.696959
2679.15, 0.693365
2680.54, 0.689113
2681.92, 0.686238
2683.31, 0.684620
2684.7, 0.683003
2686.09, 0.682404
2687.48, 0.682644
2688.88, 0.681985
2690.27, 0.677612
2691.67, 0.674438
2693.07, 0.671563
2694.47, 0.667670
2695.87, 0.663417
2697.27, 0.663597
2698.67, 0.662578
2700.08, 0.659224
2701.49, 0.656649
2702.9, 0.650060
2704.31, 0.648143
2705.72, 0.652636
2707.13, 0.656768
2708.54, 0.657727
2709.96, 0.656948
2711.38, 0.654073
2712.8, 0.647784
2714.22, 0.644190
2715.64, 0.648922
2717.06, 0.655271
2718.49, 0.656589
2719.91, 0.654133
2721.34, 0.651557
2722.77, 0.649281
2724.2, 0.645088
2725.63, 0.641614
2727.07, 0.641854
2728.5, 0.643292
2729.94, 0.642932
2731.38, 0.644310
2732.82, 0.643651
2734.26, 0.639758
2735.7, 0.637541
2737.15, 0.636463
2738.59, 0.636643
2740.04, 0.636763
2741.49, 0.636403
2742.94, 0.637242
2744.39, 0.637961
2745.84, 0.637541
2747.3, 0.637841
2748.76, 0.636883
2750.21, 0.635924
2751.67, 0.635565
2753.14, 0.635265
2754.6, 0.634427
2756.06, 0.634008
2757.53, 0.634427
2759.0, 0.634427
2760.46, 0.633768
2761.94, 0.633648
2763.41, 0.634067
2764.88, 0.633169
2766.36, 0.632330
2767.83, 0.632091
2769.31, 0.631552
2770.79, 0.630953
2772.27, 0.630773
2773.76, 0.630474
2775.24, 0.629935
2776.73, 0.629815
2778.22, 0.630773
2779.71, 0.630713
2781.2, 0.629336
2782.69, 0.628677
2784.18, 0.628497
2785.68, 0.628078
2787.18, 0.627659
2788.68, 0.627718
2790.18, 0.627898
2791.68, 0.627479
2793.19, 0.627000
2794.69, 0.627000
2796.2, 0.626760
2797.71, 0.626341
2799.22, 0.626101
2800.73, 0.625802
2802.24, 0.625921
2803.76, 0.625682
2805.28, 0.625382
2806.8, 0.625263
2808.32, 0.624903
2809.84, 0.624724
2811.36, 0.624304
2812.89, 0.624304
2814.42, 0.624125
2815.94, 0.623945
2817.48, 0.623885
2819.01, 0.623825
2820.54, 0.623586
2822.08, 0.623286
2823.61, 0.623166
2825.15, 0.623106
2826.69, 0.622987
2828.23, 0.622627
2829.78, 0.622328
2831.32, 0.621849
2832.87, 0.621429
2834.42, 0.621130
2835.97, 0.620950
2837.52, 0.620471
2839.08, 0.619992
2840.63, 0.619572
2842.19, 0.619333
2843.75, 0.618914
2845.31, 0.618554
2846.87, 0.618315
2848.44, 0.617716
2850.0, 0.617236
2851.57, 0.617177
2853.14, 0.616817
2854.71, 0.616278
2856.28, 0.615859
2857.86, 0.615440
2859.43, 0.615200
2861.01, 0.615080
2862.59, 0.614960
2864.17, 0.614841
2865.76, 0.614721
2867.34, 0.614361
2868.93, 0.614242
2870.52, 0.614361
2872.11, 0.614421
2873.7, 0.614302
2875.29, 0.614002
2876.89, 0.613882
2878.49, 0.614182
2880.08, 0.614302
2881.69, 0.614122
2883.29, 0.613942
2884.89, 0.613942
2886.5, 0.614002
2888.11, 0.613882
2889.72, 0.613762
2891.33, 0.613643
2892.94, 0.613643
2894.56, 0.613882
2896.17, 0.613942
2897.79, 0.613882
2899.42, 0.613643
2901.04, 0.613703
2902.66, 0.613762
2904.29, 0.613463
2905.92, 0.613463
2907.55, 0.613463
2909.18, 0.613283
2910.81, 0.613164
2912.45, 0.613223
2914.08, 0.613044
2915.72, 0.613104
2917.36, 0.613223
2919.01, 0.613044
2920.65, 0.612864
2922.3, 0.612924
2923.94, 0.612864
2925.59, 0.612864
2927.25, 0.612864
2928.9, 0.612565
2930.56, 0.612385
2932.21, 0.612505
2933.87, 0.612505
2935.53, 0.612804
2937.2, 0.613044
2938.86, 0.613044
2940.53, 0.612744
2942.2, 0.612684
2943.87, 0.612864
2945.54, 0.613104
2947.22, 0.613283
2948.89, 0.613164
2950.57, 0.613044
2952.25, 0.613343
2953.93, 0.613523
2955.62, 0.613643
2957.3, 0.613643
2958.99, 0.613703
2960.68, 0.613882
2962.37, 0.614002
2964.07, 0.614182
2965.76, 0.614361
2967.46, 0.614601
2969.16, 0.614661
2970.86, 0.614721
2972.56, 0.614841
2974.27, 0.614960
2975.98, 0.615260
2977.69, 0.615559
2979.4, 0.615919
2981.11, 0.616039
2982.83, 0.616158
2984.54, 0.616398
2986.26, 0.616578
2987.98, 0.616757
2989.71, 0.616817
2991.43, 0.616937
2993.16, 0.617177
2994.89, 0.617296
2996.62, 0.617536
2998.35, 0.617835
3000.09, 0.618075
3001.83, 0.617955
3003.57, 0.618315
3005.31, 0.618674
3007.05, 0.619153
3008.79, 0.619273
3010.54, 0.619393
3012.29, 0.619513
3014.04, 0.619812
3015.8, 0.620052
3017.55, 0.620291
3019.31, 0.620411
3021.07, 0.620651
3022.83, 0.621010
3024.59, 0.621310
3026.36, 0.621669
3028.13, 0.621729
3029.9, 0.621968
3031.67, 0.622208
3033.44, 0.622388
3035.22, 0.622687
3037.0, 0.622987
3038.78, 0.623406
3040.56, 0.623645
3042.34, 0.624125
3044.13, 0.624185
3045.92, 0.624484
3047.71, 0.624784
3049.5, 0.625143
3051.3, 0.625442
3053.09, 0.625682
3054.89, 0.625862
3056.69, 0.626101
3058.5, 0.626461
3060.3, 0.626700
3062.11, 0.627000
3063.92, 0.627359
3065.73, 0.627659
3067.55, 0.628138
3069.36, 0.628317
3071.18, 0.628737
3073.0, 0.629096
3074.82, 0.629396
3076.65, 0.629635
3078.48, 0.629995
3080.31, 0.630414
3082.14, 0.630833
3083.97, 0.631133
3085.8, 0.631372
3087.64, 0.631791
3089.48, 0.632330
3091.33, 0.632450
3093.17, 0.632750
3095.02, 0.633229
3096.87, 0.633888
3098.72, 0.634247
3100.57, 0.634487
3102.43, 0.634786
3104.28, 0.635206
3106.14, 0.635685
3108.01, 0.636224
3109.87, 0.636523
3111.74, 0.637002
3113.61, 0.637482
3115.48, 0.637721
3117.35, 0.638140
3119.23, 0.638680
3121.1, 0.639039
3122.98, 0.639398
3124.87, 0.639878
3126.75, 0.640476
3128.64, 0.640836
3130.53, 0.641195
3132.42, 0.641734
3134.31, 0.641974
3136.21, 0.642213
3138.11, 0.642513
3140.01, 0.642932
3141.91, 0.643292
3143.82, 0.643651
3145.73, 0.644310
3147.64, 0.644549
3149.55, 0.644909
3151.46, 0.645268
3153.38, 0.645568
3155.3, 0.645927
3157.22, 0.646526
3159.14, 0.647065
3161.07, 0.647424
3163.0, 0.647544
3164.93, 0.647964
3166.86, 0.648443
3168.8, 0.648622
3170.74, 0.648862
3172.68, 0.649221
3174.62, 0.649341
3176.56, 0.649641
3178.51, 0.650240
3180.46, 0.650599
3182.42, 0.650898
3184.37, 0.651318
3186.33, 0.651617
3188.29, 0.651857
3190.25, 0.652156
3192.21, 0.652396
3194.18, 0.652695
3196.15, 0.653234
3198.12, 0.653534
3200.09, 0.653714
3202.07, 0.653893
3204.05, 0.654133
3206.03, 0.654432
3208.02, 0.654852
3210.0, 0.655211
3211.99, 0.655570
3213.98, 0.655810
3215.98, 0.655810
3217.97, 0.656110
3219.97, 0.656708
3221.97, 0.657128
3223.98, 0.657547
3225.98, 0.657906
3227.99, 0.658146
3230.0, 0.658445
3232.02, 0.658985
3234.03, 0.659404
3236.05, 0.659703
3238.07, 0.660003
3240.1, 0.660183
3242.12, 0.660542
3244.15, 0.660841
3246.18, 0.661081
3248.22, 0.661440
3250.25, 0.661740
3252.29, 0.662219
3254.33, 0.662459
3256.38, 0.662878
3258.43, 0.663237
3260.47, 0.663537
3262.53, 0.663776
3264.58, 0.663956
3266.64, 0.664196
3268.7, 0.664615
3270.76, 0.664974
3272.82, 0.665453
3274.89, 0.665813
3276.96, 0.665873
3279.04, 0.665992
3281.11, 0.666172
3283.19, 0.666412
3285.27, 0.666532
3287.35, 0.666412
3289.44, 0.666711
3291.53, 0.666891
3293.62, 0.666891
3295.71, 0.666891
3297.81, 0.666951
3299.91, 0.666771
3302.01, 0.666651
3304.11, 0.666532
3306.22, 0.666352
3308.33, 0.665992
3310.44, 0.665693
3312.56, 0.665034
3314.68, 0.664255
3316.8, 0.663357
3318.92, 0.662519
3321.05, 0.661500
3323.18, 0.660482
3325.31, 0.659164
3327.44, 0.657607
3329.58, 0.655870
3331.72, 0.653714
3333.86, 0.651797
3336.01, 0.650419
3338.16, 0.649461
3340.31, 0.649042
3342.46, 0.649102
3344.61, 0.649701
3346.77, 0.650779
3348.94, 0.651977
3351.1, 0.652815
3353.27, 0.653234
3355.44, 0.652935
3357.61, 0.652576
3359.79, 0.651258
3361.97, 0.649581
3364.15, 0.647664
3366.33, 0.645508
3368.52, 0.643352
3370.71, 0.641195
3372.9, 0.639458
3375.1, 0.637901
3377.3, 0.636523
3379.5, 0.636164
3381.71, 0.636823
3383.91, 0.638320
3386.12, 0.640536
3388.34, 0.643112
3390.55, 0.645927
3392.77, 0.648802
3394.99, 0.651258
3397.22, 0.653474
3399.45, 0.655211
3401.68, 0.656529
3403.91, 0.657906
3406.15, 0.659344
3408.39, 0.660662
3410.63, 0.661680
3412.87, 0.662459
3415.12, 0.663657
3417.37, 0.664914
3419.63, 0.666052
3421.88, 0.666831
3424.14, 0.667310
3426.41, 0.667610
3428.67, 0.667670
3430.94, 0.667430
3433.21, 0.667011
3435.49, 0.666831
3437.77, 0.666831
3440.05, 0.666891
3442.33, 0.667071
3444.62, 0.666951
3446.91, 0.666711
3449.2, 0.666412
3451.5, 0.665753
3453.8, 0.664735
3456.1, 0.663716
3458.41, 0.662519
3460.72, 0.661560
3463.03, 0.661500
3465.34, 0.662578
3467.66, 0.664555
3469.98, 0.667190
3472.31, 0.670006
3474.63, 0.672940
3476.96, 0.675696
3479.3, 0.677912
3481.64, 0.679469
3483.97, 0.680967
3486.32, 0.682105
3488.66, 0.683063
3491.01, 0.683842
3493.36, 0.684441
3495.72, 0.684980
3498.08, 0.685579
3500.44, 0.685938
3502.81, 0.686178
3505.18, 0.686417
3507.55, 0.686657
3509.92, 0.686956
3512.3, 0.687376
3514.68, 0.687615
3517.06, 0.687795
3519.45, 0.688035
3521.84, 0.688334
3524.24, 0.688574
3526.64, 0.688873
3529.04, 0.688993
3531.44, 0.689173
3533.85, 0.689292
3536.26, 0.689532
3538.67, 0.689891
3541.09, 0.690131
3543.51, 0.690191
3545.93, 0.690311
3548.36, 0.690430
3550.79, 0.690610
3553.22, 0.690910
3555.66, 0.691029
3558.1, 0.690910
3560.54, 0.691029
3562.99, 0.691089
3565.44, 0.691149
3567.9, 0.691149
3570.35, 0.691329
3572.81, 0.691329
3575.28, 0.691269
3577.75, 0.691389
3580.22, 0.691449
3582.69, 0.691568
3585.17, 0.691509
3587.65, 0.691449
3590.14, 0.691509
3592.62, 0.691449
3595.11, 0.691389
3597.61, 0.691449
3600.11, 0.691449
3602.61, 0.691389
3605.11, 0.691269
3607.62, 0.691209
3610.14, 0.691389
3612.65, 0.691449
3615.17, 0.691389
3617.69, 0.691449
3620.22, 0.691389
3622.75, 0.691389
3625.28, 0.691329
3627.82, 0.691269
3630.36, 0.691269
3632.9, 0.691269
3635.45, 0.691389
3638.0, 0.691269
3640.56, 0.691329
3643.12, 0.691449
3645.68, 0.691628
3648.24, 0.691568
3650.81, 0.691509
3653.39, 0.691509
3655.96, 0.691509
3658.54, 0.691509
3661.13, 0.691509
3663.71, 0.691449
3666.3, 0.691449
3668.9, 0.691269
3671.5, 0.691269
3674.1, 0.691329
3676.7, 0.691269
3679.31, 0.691329
3681.93, 0.691389
3684.54, 0.691209
3687.17, 0.691209
3689.79, 0.691209
3692.42, 0.691089
3695.05, 0.691029
3697.69, 0.691089
3700.32, 0.690850
3702.97, 0.690910
3705.61, 0.690790
3708.27, 0.690730
3710.92, 0.690670
3713.58, 0.690610
3716.24, 0.690550
3718.91, 0.690430
3721.58, 0.690251
3724.25, 0.690191
3726.93, 0.690011
3729.61, 0.689831
3732.29, 0.689712
3734.98, 0.689532
3737.67, 0.689292
3740.37, 0.689232
3743.07, 0.689173
3745.78, 0.688993
3748.49, 0.688873
3751.2, 0.688574
3753.91, 0.688334
3756.63, 0.688214
3759.36, 0.688035
3762.09, 0.687795
3764.82, 0.687436
3767.55, 0.687256
3770.29, 0.687016
3773.04, 0.686657
3775.78, 0.686477
3778.54, 0.686298
3781.29, 0.685998
3784.05, 0.685758
3786.82, 0.685459
3789.59, 0.685279
3792.36, 0.684860
3795.13, 0.684620
3797.92, 0.684321
3800.7, 0.684201
3803.49, 0.683962
3806.28, 0.683602
3809.08, 0.683183
3811.88, 0.682943
3814.68, 0.682764
3817.49, 0.682644
3820.31, 0.682404
3823.12, 0.682165
3825.94, 0.681865
3828.77, 0.681685
3831.6, 0.681446
3834.43, 0.681326
3837.27, 0.681146
3840.11, 0.680847
3842.96, 0.680607
3845.81, 0.680488
3848.67, 0.680308
3851.53, 0.680068
3854.39, 0.680008
3857.26, 0.679829
3860.13, 0.679589
3863.01, 0.679409
3865.89, 0.679230
3868.77, 0.679230
3871.66, 0.678990
3874.55, 0.678810
3877.45, 0.678631
3880.35, 0.678511
3883.26, 0.678391
3886.17, 0.678152
3889.09, 0.677912
3892.01, 0.677852
3894.93, 0.677732
3897.86, 0.677612
3900.79, 0.677253
3903.73, 0.677073
3906.67, 0.677073
3909.62, 0.676894
3912.57, 0.676774
3915.52, 0.676774
3918.48, 0.676654
3921.45, 0.676654
3924.42, 0.676415
3927.39, 0.676415
3930.37, 0.676295
3933.35, 0.676295
3936.34, 0.676175
3939.33, 0.676115
3942.32, 0.675875
3945.32, 0.675756
3948.33, 0.675636
3951.34, 0.675576
3954.35, 0.675456
3957.37, 0.675456
3960.39, 0.675276
3963.42, 0.675157
3966.45, 0.674917
3969.49, 0.674857
3972.53, 0.674737
3975.58, 0.674678
3978.63, 0.674498
3981.68, 0.674258
3984.75, 0.674019
3987.81, 0.674019
3990.88, 0.673779
3993.95, 0.673659
3997.03, 0.673420
4000.12, 0.673180
4003.21, 0.672761
4006.3, 0.672581
4009.4, 0.672461
4012.5, 0.672222
4015.61, 0.671982
4018.72, 0.671802
4021.84, 0.671443
4024.96, 0.671323
4028.09, 0.671144
4031.22, 0.670784
4034.36, 0.670365
4037.5, 0.670305
4040.65, 0.670006
4043.8, 0.669826
4046.96, 0.669646
4050.12, 0.669466
4053.29, 0.669107
4056.46, 0.668688
4059.64, 0.668328
4062.82, 0.668149
4066.0, 0.667909
4069.19, 0.667670
4072.39, 0.667250
4075.59, 0.666951
4078.8, 0.666651
4082.01, 0.666232
4085.23, 0.665753
4088.45, 0.665453
4091.68, 0.665034
4094.91, 0.664615
4098.15, 0.664076
4101.39, 0.663776
4104.63, 0.663357
4107.89, 0.662758
4111.14, 0.662219
4114.41, 0.661680
4117.67, 0.661081
4120.95, 0.660482
4124.23, 0.659763
4127.51, 0.659164
4130.8, 0.658386
4134.09, 0.657667
4137.39, 0.656948
4140.7, 0.656050
4144.01, 0.655091
4147.32, 0.654193
4150.64, 0.653115
4153.97, 0.651917
4157.3, 0.650779
4160.64, 0.649521
4163.98, 0.648143
4167.33, 0.646826
4170.68, 0.645508
4174.04, 0.644190
4177.4, 0.642932
4180.77, 0.641794
4184.14, 0.640596
4187.52, 0.639518
4190.91, 0.638320
4194.3, 0.637482
4197.69, 0.636523
4201.1, 0.635445
4204.5, 0.633708
4207.92, 0.631791
4211.34, 0.629875
4214.76, 0.628078
4218.19, 0.626401
4221.62, 0.624843
4225.06, 0.623226
4228.51, 0.621609
4231.96, 0.619752
4235.42, 0.618015
4238.88, 0.616158
4242.35, 0.614421
4245.83, 0.612744
4249.31, 0.610887
4252.79, 0.609031
4256.28, 0.607234
4259.78, 0.605317
4263.29, 0.603520
4266.79, 0.601663
4270.31, 0.599747
4273.83, 0.597770
4277.35, 0.595793
4280.89, 0.593697
4284.42, 0.591780
4287.97, 0.589684
4291.52, 0.587647
4295.07, 0.585611
4298.63, 0.583455
4302.2, 0.581239
4305.78, 0.579202
4309.35, 0.577106
4312.94, 0.575009
4316.53, 0.572853
4320.13, 0.570876
4323.73, 0.568840
4327.34, 0.566743
4330.96, 0.564467
4334.58, 0.562371
4338.21, 0.560215
4341.84, 0.558118
4345.48, 0.556202
4349.12, 0.554285
4352.77, 0.552009
4356.43, 0.549853
4360.1, 0.547636
4363.76, 0.545540
4367.44, 0.543563
4371.12, 0.541527
4374.81, 0.539251
4378.51, 0.537095
4382.21, 0.534878
4385.92, 0.532722
4389.63, 0.530446
4393.35, 0.528230
4397.08, 0.525954
4400.81, 0.523857
4404.55, 0.521521
4408.29, 0.519126
4412.04, 0.516790
4415.8, 0.514454
4419.57, 0.512237
4423.34, 0.510021
4427.12, 0.507805
4430.9, 0.505409
4434.69, 0.503013
4438.49, 0.500857
4442.29, 0.498641
4446.1, 0.496365
4449.92, 0.494089
4453.74, 0.491813
4457.57, 0.489417
4461.41, 0.487260
4465.25, 0.485104
4469.1, 0.482828
4472.95, 0.480492
4476.82, 0.478216
4480.69, 0.475820
4484.56, 0.473604
4488.44, 0.471448
4492.33, 0.469232
4496.23, 0.466896
4500.13, 0.464799
4504.04, 0.462523
4507.96, 0.460367
4511.88, 0.458210
4515.81, 0.456294
4519.75, 0.454257
4523.69, 0.452221
4527.65, 0.450244
4531.6, 0.448328
4535.57, 0.446351
4539.54, 0.444434
4543.52, 0.442637
4547.5, 0.440960
4551.5, 0.439343
4555.5, 0.437726
4559.5, 0.435929
4563.52, 0.434372
4567.54, 0.432874
4571.56, 0.431437
4575.6, 0.429999
4579.64, 0.428741
4583.69, 0.427424
4587.75, 0.426226
4591.81, 0.424968
4595.88, 0.423890
4599.96, 0.422871
4604.04, 0.421973
4608.14, 0.421074
4612.24, 0.420056
4616.34, 0.419158
4620.46, 0.418319
4624.58, 0.417541
4628.71, 0.416882
4632.84, 0.416103
4636.99, 0.415444
4641.14, 0.414845
4645.3, 0.414246
4649.47, 0.413587
4653.64, 0.413048
4657.82, 0.412509
4662.01, 0.411970
4666.21, 0.411431
4670.41, 0.410952
4674.62, 0.410413
4678.84, 0.409994
4683.07, 0.409455
4687.3, 0.409035
4691.54, 0.408616
4695.79, 0.408316
4700.05, 0.407777
4704.31, 0.407298
4708.59, 0.406759
4712.87, 0.406340
4717.15, 0.405861
4721.45, 0.405441
4725.76, 0.404902
4730.07, 0.404483
4734.39, 0.403944
4738.72, 0.403525
4743.05, 0.402926
4747.39, 0.402506
4751.75, 0.402027
4756.1, 0.401548
4760.47, 0.401009
4764.85, 0.400590
4769.23, 0.400350
4773.62, 0.400051
4778.02, 0.399691
4782.43, 0.399512
4786.85, 0.399332
4791.27, 0.399272
4795.7, 0.399272
4800.14, 0.399272
4804.59, 0.399332
4809.05, 0.399512
4813.51, 0.399751
4817.99, 0.400111
4822.47, 0.400470
4826.96, 0.400829
4831.46, 0.401129
4835.96, 0.401548
4840.48, 0.401907
4845.0, 0.402327
4849.54, 0.402746
4854.08, 0.403046
4858.63, 0.403285
4863.18, 0.403644
4867.75, 0.403764
4872.33, 0.403944
4876.91, 0.403884
4881.5, 0.403824
4886.1, 0.403525
4890.71, 0.403165
4895.33, 0.402746
4899.96, 0.402207
4904.59, 0.401368
4909.24, 0.400410
4913.89, 0.399212
4918.55, 0.397954
4923.22, 0.396457
4927.9, 0.394780
4932.59, 0.392923
4937.29, 0.391066
4942.0, 0.389030
4946.71, 0.386814
4951.44, 0.384358
4956.17, 0.381782
4960.91, 0.379027
4965.67, 0.376272
4970.43, 0.373337
4975.2, 0.370402
4979.98, 0.367407
4984.76, 0.364292
4989.56, 0.360998
4994.37, 0.357704
4999.18, 0.354409
5004.01, 0.351175
5008.84, 0.347761
5013.69, 0.344347
5018.54, 0.340873
5023.4, 0.337578
5028.28, 0.334164
5033.16, 0.330750
5038.05, 0.327336
5042.95, 0.323982
5047.86, 0.320568
5052.78, 0.317213
5057.71, 0.313799
5062.65, 0.310505
5067.6, 0.307271
5072.56, 0.303976
5077.53, 0.300622
5082.5, 0.297388
5087.49, 0.294093
5092.49, 0.290919
5097.5, 0.287684
5102.51, 0.284630
5107.54, 0.281455
5112.58, 0.278460
5117.62, 0.275405
5122.68, 0.272351
5127.75, 0.269536
5132.82, 0.266780
5137.91, 0.263905
5143.01, 0.261090
5148.12, 0.258395
5153.23, 0.255819
5158.36, 0.253304
5163.5, 0.250908
5168.65, 0.248572
5173.81, 0.246356
5178.98, 0.244259
5184.15, 0.242223
5189.34, 0.240186
5194.54, 0.238329
5199.75, 0.236592
5204.98, 0.234855
5210.21, 0.233118
5215.45, 0.231441
5220.7, 0.229944
5225.96, 0.228506
5231.23, 0.226949
5236.52, 0.225571
5241.81, 0.224134
5247.12, 0.222636
5252.44, 0.221019
5257.76, 0.219701
5263.1, 0.218384
5268.45, 0.216946
5273.81, 0.215389
5279.18, 0.213772
5284.56, 0.212274
5289.95, 0.210777
5295.36, 0.209100
5300.77, 0.207363
5306.2, 0.205566
5311.63, 0.203829
5317.08, 0.202092
5322.54, 0.200235
5328.01, 0.198258
5333.49, 0.196342
5338.98, 0.194185
5344.49, 0.192089
5350.0, 0.189933
5355.53, 0.187956
5361.07, 0.185860
5366.62, 0.183763
5372.18, 0.181607
5377.75, 0.179391
5383.34, 0.177175
5388.93, 0.175138
5394.54, 0.173102
5400.16, 0.170945
5405.79, 0.168849
5411.44, 0.166753
5417.09, 0.164656
5422.76, 0.162560
5428.43, 0.160583
5434.12, 0.158846
5439.83, 0.157169
5445.54, 0.155372
5451.26, 0.153575
5457.0, 0.151958
5462.75, 0.150521
5468.52, 0.149143
5474.29, 0.147765
5480.08, 0.146508
5485.88, 0.145489
5491.69, 0.144471
5497.51, 0.143513
5503.35, 0.142614
5509.2, 0.141836
5515.06, 0.141177
5520.93, 0.140578
5526.82, 0.140039
5532.71, 0.139500
5538.63, 0.139140
5544.55, 0.139080
5550.49, 0.138961
5556.44, 0.138841
5562.4, 0.138841
5568.37, 0.138781
5574.36, 0.138841
5580.36, 0.139020
5586.37, 0.139140
5592.4, 0.139500
5598.44, 0.139799
5604.49, 0.140039
5610.56, 0.140638
5616.63, 0.140997
5622.73, 0.141297
5628.83, 0.141716
5634.95, 0.142135
5641.08, 0.142435
5647.23, 0.142914
5653.39, 0.143333
5659.56, 0.143633
5665.74, 0.144291
5671.94, 0.144531
5678.15, 0.144830
5684.38, 0.145250
5690.62, 0.145549
5696.87, 0.145968
5703.14, 0.146328
5709.42, 0.146627
5715.72, 0.147166
5722.03, 0.147705
5728.35, 0.147885
5734.69, 0.148185
5741.03, 0.148424
5747.4, 0.148664
5753.78, 0.148963
5760.17, 0.149323
5766.58, 0.149323
5773.0, 0.149682
5779.44, 0.149982
5785.88, 0.149922
5792.35, 0.150341
5798.83, 0.150221
5805.32, 0.150161
5811.83, 0.150221
5818.35, 0.149982
5824.89, 0.149982
5831.45, 0.150101
5838.01, 0.149682
5844.59, 0.149203
5851.19, 0.148844
5857.8, 0.148484
5864.43, 0.148005
5871.07, 0.147286
5877.73, 0.146867
5884.4, 0.146328
5891.09, 0.145489
5897.79, 0.144771
5904.5, 0.144112
5911.23, 0.143213
5917.98, 0.142375
5924.75, 0.141476
5931.53, 0.140817
5938.32, 0.140638
5945.13, 0.139739
5951.96, 0.138541
5958.8, 0.137823
5965.65, 0.136984
5972.53, 0.136145
5979.42, 0.135247
5986.32, 0.134408
5993.24, 0.133570
6000.18, 0.132971
6007.13, 0.132072
6014.1, 0.131294
6021.08, 0.130515
6028.09, 0.129856
6035.1, 0.129078
6042.14, 0.128419
6049.19, 0.127820
6056.25, 0.127041
6063.34, 0.126442
6070.44, 0.126083
6077.55, 0.125424
6084.69, 0.124945
6091.84, 0.124525
6099.0, 0.123986
6106.19, 0.123567
6113.39, 0.123268
6120.61, 0.123148
6127.84, 0.123028
6135.09, 0.122848
6142.36, 0.122788
6149.65, 0.122848
6156.95, 0.122968
6164.27, 0.123088
6171.61, 0.123088
6178.97, 0.123387
6186.34, 0.123807
6193.73, 0.124166
6201.14, 0.124525
6208.57, 0.124945
6216.01, 0.125424
6223.47, 0.126203
6230.95, 0.126682
6238.45, 0.127161
6245.97, 0.127640
6253.5, 0.128119
6261.06, 0.128598
6268.63, 0.129078
6276.21, 0.129497
6283.82, 0.130216
6291.45, 0.130874
6299.1, 0.131054
6306.76, 0.131234
6314.44, 0.131414
6322.14, 0.131533
6329.86, 0.131653
6337.6, 0.131833
6345.35, 0.131953
6353.13, 0.131893
6360.92, 0.132013
6368.74, 0.132252
6376.57, 0.132013
6384.43, 0.131773
6392.3, 0.131593
6400.19, 0.131234
6408.1, 0.130934
6416.03, 0.130695
6423.98, 0.130575
6431.95, 0.130216
6439.94, 0.129796
6447.95, 0.129437
6455.98, 0.128898
6464.03, 0.128419
6472.1, 0.127880
6480.19, 0.127281
6488.31, 0.126682
6496.44, 0.126322
6504.59, 0.126083
6512.76, 0.125364
6520.95, 0.124645
6529.16, 0.124046
6537.4, 0.123328
6545.65, 0.122848
6553.92, 0.122130
6562.22, 0.121291
6570.54, 0.120393
6578.88, 0.119674
6587.23, 0.118715
6595.61, 0.117937
6604.02, 0.117218
6612.44, 0.116320
6620.89, 0.115361
6629.35, 0.114343
6637.84, 0.113445
6646.35, 0.112726
6654.88, 0.111767
6663.44, 0.110809
6672.01, 0.109851
6680.61, 0.108952
6689.23, 0.108054
6697.88, 0.107155
6706.54, 0.106137
6715.23, 0.105418
6723.94, 0.104640
6732.67, 0.103621
6741.42, 0.102723
6750.2, 0.101884
6759.0, 0.100926
6767.82, 0.100028
6776.67, 0.0991290
6785.54, 0.0983510
6794.44, 0.0973920
6803.35, 0.0963740
6812.29, 0.0952960
6821.26, 0.0941580
6830.24, 0.0930800
6839.25, 0.0920610
6848.29, 0.0908630
6857.35, 0.0897250
6866.43, 0.0884680
6875.54, 0.0870900
6884.67, 0.0857720
6893.82, 0.0843950
6903.0, 0.0828970
6912.2, 0.0814000
6921.43, 0.0799020
6930.69, 0.0784050
6939.96, 0.0768480
6949.27, 0.0752900
6958.59, 0.0736730
6967.95, 0.0720560
6977.33, 0.0704390
6986.73, 0.0687020
6996.16, 0.0670250
7005.61, 0.0653470
7015.09, 0.0635510
7024.6, 0.0619330
7034.13, 0.0602560
7043.69, 0.0586390
7053.27, 0.0569020
7062.88, 0.0552250
7072.52, 0.0536680
7082.18, 0.0520500
7091.87, 0.0503730
7101.58, 0.0488760
7111.32, 0.0473180
7121.09, 0.0458210
7130.88, 0.0442640
7140.71, 0.0428260
7150.56, 0.0412690
7160.43, 0.0398910
7170.33, 0.0384540
7180.27, 0.0371360
7190.23, 0.0357580
7200.21, 0.0343210
7210.23, 0.0330030
7220.27, 0.0318050
7230.34, 0.0303680
7240.44, 0.0291700
7250.56, 0.0279720
7260.72, 0.0267740
7270.9, 0.0255160
7281.12, 0.0244380
7291.36, 0.0232400
7301.63, 0.0221020
7311.93, 0.0207840
7322.25, 0.0197660
7332.61, 0.0186880
7343.0, 0.0175500
7353.41, 0.0165320
7363.86, 0.0155130
7374.33, 0.0144350
7384.83, 0.0135970
7395.37, 0.0126380
7405.93, 0.0116200
7416.53, 0.0107220
7427.15, 0.0100030
7437.81, 0.00904400
7448.5, 0.00838600
7459.22, 0.00772700
7469.96, 0.00712800
7480.74, 0.00658900
7491.55, 0.00599000
7502.39, 0.00545100
7513.27, 0.00503100
7524.17, 0.00449200
7535.11, 0.00413300
7546.08, 0.00371400
7557.08, 0.00347400
7568.11, 0.00323400
7579.17, 0.00305500
7590.27, 0.00287500
7601.4, 0.00281500
7612.56, 0.00275500
7623.76, 0.00281500
7634.98, 0.00287500
7646.24, 0.00299500
7657.54, 0.00329400
7668.87, 0.00365400
7680.23, 0.00401300
7691.62, 0.00467200
7703.05, 0.00521100
7714.51, 0.00599000
7726.01, 0.00682800
7737.54, 0.00784600
7749.11, 0.00898500
7760.71, 0.0104220
7772.35, 0.0119190
7784.02, 0.0137760
7795.72, 0.0156330
7807.46, 0.0178490
7819.23, 0.0203050
7831.04, 0.0230600
7842.89, 0.0258160
7854.77, 0.0289900
7866.69, 0.0324640
7878.65, 0.0363570
7890.64, 0.0404900
7902.67, 0.0449820
7914.74, 0.0497740
7926.84, 0.0547460
7938.98, 0.0597770
7951.16, 0.0650480
7963.37, 0.0705580
7975.62, 0.0761290
7987.91, 0.0816390
8000.24, 0.0870900
8012.6, 0.0924210
8025.01, 0.0975120
8037.45, 0.102304
8049.93, 0.106377
8062.45, 0.109791
8075.01, 0.113025
8087.61, 0.116080
8100.24, 0.118715
8112.91, 0.120992
8125.63, 0.123088
8138.39, 0.124825
8151.18, 0.126382
8164.02, 0.127700
8176.9, 0.128838
8189.81, 0.129856
8202.77, 0.130575
8215.77, 0.131414
8228.82, 0.132252
8241.9, 0.133031
8255.02, 0.133869
8268.19, 0.134768
8281.39, 0.135786
8294.65, 0.136684
8307.94, 0.137583
8321.28, 0.138601
8334.66, 0.139619
8348.08, 0.140518
8361.54, 0.141237
8375.05, 0.142015
8388.6, 0.142674
8402.2, 0.142854
8415.84, 0.142914
8429.52, 0.142435
8443.25, 0.141536
8457.02, 0.140458
8470.84, 0.139200
8484.7, 0.137523
8498.61, 0.135666
8512.57, 0.133570
8526.57, 0.131174
8540.62, 0.128718
8554.71, 0.126262
8568.85, 0.123807
8583.04, 0.121351
8597.27, 0.118715
8611.55, 0.116260
8625.88, 0.114103
8640.26, 0.112127
8654.68, 0.109911
8669.16, 0.107994
8683.68, 0.106257
8698.25, 0.104640
8712.87, 0.103262
8727.53, 0.102004
8742.25, 0.100866
8757.02, 0.0997880
8771.83, 0.0989490
8786.7, 0.0983510
8801.62, 0.0978710
8816.59, 0.0975120
8831.61, 0.0972720
8846.68, 0.0971530
8861.8, 0.0972720
8876.97, 0.0973920
8892.2, 0.0974520
8907.48, 0.0973320
8922.81, 0.0973320
8938.2, 0.0976920
8953.63, 0.0979310
8969.13, 0.0980510
8984.67, 0.0985300
9000.27, 0.0994290
9015.92, 0.100746
9031.63, 0.102603
9047.39, 0.104999
9063.21, 0.108234
9079.08, 0.112486
9095.01, 0.117697
9111.0, 0.123627
9127.04, 0.129976
9143.13, 0.135966
9159.28, 0.140757
9175.49, 0.144591
9191.76, 0.147705
9208.09, 0.149862
9224.47, 0.151000
9240.92, 0.151719
9257.42, 0.152078
9273.98, 0.152078
9290.6, 0.151359
9307.28, 0.150281
9324.02, 0.149562
9340.82, 0.148544
9357.68, 0.147226
9374.6, 0.145909
9391.58, 0.144471
9408.62, 0.142914
9425.73, 0.141596
9442.9, 0.140518
9460.13, 0.139560
9477.42, 0.138481
9494.78, 0.137523
9512.2, 0.136385
9529.69, 0.135367
9547.24, 0.134229
9564.86, 0.133031
9582.54, 0.131593
9600.28, 0.129856
9618.1, 0.128179
9635.97, 0.126442
9653.92, 0.124765
9671.93, 0.122908
9690.01, 0.120692
9708.16, 0.118775
9726.37, 0.116919
9744.65, 0.115062
9763.0, 0.113085
9781.43, 0.111109
9799.92, 0.109252
9818.48, 0.107754
9837.1, 0.106017
9855.8, 0.104280
9874.58, 0.102663
9893.42, 0.101226
9912.34, 0.0998480
9931.33, 0.0984100
9950.39, 0.0969130
9969.52, 0.0955350
9988.74, 0.0942180
10008.0, 0.0929600
10027.4, 0.0917620
10046.8, 0.0907440
10066.3, 0.0897250
10085.9, 0.0890070
10105.6, 0.0884080
10125.3, 0.0876890
10145.1, 0.0870900
10165.0, 0.0868500
10185.0, 0.0865510
10205.0, 0.0863710
10225.2, 0.0863710
10245.4, 0.0864910
10265.7, 0.0865510
10286.0, 0.0867900
10306.5, 0.0871500
10327.0, 0.0879290
10347.6, 0.0884680
10368.3, 0.0891860
10389.1, 0.0904440
10409.9, 0.0918220
10430.9, 0.0931400
10451.9, 0.0945770
10473.0, 0.0958950
10494.2, 0.0973920
10515.5, 0.0991290
10536.9, 0.100627
10558.4, 0.101944
10579.9, 0.103262
10601.5, 0.104759
10623.3, 0.106377
10645.1, 0.107515
10667.0, 0.108952
10689.0, 0.110450
10711.1, 0.111767
10733.2, 0.112786
10755.5, 0.113744
10777.9, 0.114583
10800.3, 0.115721
10822.9, 0.117278
10845.5, 0.118116
10868.2, 0.118955
10891.1, 0.119913
10914.0, 0.120572
10937.0, 0.121171
10960.2, 0.121950
10983.4, 0.122729
11006.7, 0.123268
11030.1, 0.123687
11053.6, 0.124106
11077.3, 0.124825
11101.0, 0.125364
11124.8, 0.125723
11148.7, 0.126203
11172.7, 0.126382
11196.9, 0.126562
11221.1, 0.126682
11245.4, 0.126442
11269.9, 0.126622
11294.4, 0.126682
11319.1, 0.126622
11343.9, 0.126502
11368.8, 0.126322
11393.7, 0.126143
11418.8, 0.125484
11444.0, 0.124645
11469.4, 0.123926
11494.8, 0.123088
11520.3, 0.121890
11546.0, 0.120273
11571.8, 0.118416
11597.7, 0.115900
11623.7, 0.113085
11649.8, 0.109551
11676.0, 0.104819
11702.4, 0.0993690
11728.9, 0.0934390
11755.5, 0.0865510
11782.2, 0.0792430
11809.0, 0.0719960
11836.0, 0.0653470
11863.0, 0.0589380
11890.3, 0.0529490
11917.6, 0.0477380
11945.0, 0.0436050
11972.6, 0.0404300
12000.4, 0.0380340
12028.2, 0.0362380
12056.2, 0.0351590
12084.3, 0.0343810
12112.5, 0.0339610
12140.9, 0.0343210
12169.4, 0.0349200
12198.0, 0.0348600
12226.8, 0.0346200
12255.7, 0.0343210
12284.7, 0.0344410
12313.9, 0.0348000
12343.2, 0.0352190
12372.7, 0.0353390
12402.3, 0.0355790
12432.0, 0.0354590
12461.9, 0.0353390
12491.9, 0.0354590
12522.1, 0.0353390
12552.4, 0.0352790
12582.9, 0.0351590
12613.5, 0.0349800
12644.3, 0.0348600
12675.2, 0.0342610
12706.3, 0.0345010
12737.5, 0.0347400
12768.9, 0.0343810
12800.4, 0.0336620
12832.1, 0.0336620
12863.9, 0.0334220
12895.9, 0.0334820
12928.1, 0.0331230
12960.4, 0.0328830
12992.9, 0.0330030
13025.5, 0.0330630
13058.3, 0.0330030
13091.3, 0.0334820
13124.4, 0.0338420
13157.8, 0.0340210
13191.2, 0.0346800
13224.9, 0.0352190
13258.7, 0.0352190
13292.7, 0.0358780
13326.9, 0.0362970
13361.2, 0.0368370
13395.7, 0.0371360
13430.4, 0.0375550
13465.3, 0.0380340
13500.4, 0.0385740
13535.7, 0.0391730
13571.1, 0.0398310
13606.7, 0.0401910
13642.5, 0.0406700
13678.5, 0.0412690
13714.7, 0.0421070
13751.1, 0.0423470
13787.6, 0.0422870
13824.4, 0.0421070
13861.4, 0.0421070
13898.5, 0.0416280
13935.9, 0.0408500
13973.5, 0.0400110
14011.2, 0.0391130
14049.2, 0.0377950
14087.4, 0.0364170
14125.8, 0.0352190
14164.3, 0.0341410
14203.2, 0.0328230
14242.2, 0.0316260
14281.4, 0.0306070
14320.9, 0.0293490
14360.5, 0.0282710
14400.4, 0.0274930
14440.5, 0.0268340
14480.9, 0.0270730
14521.4, 0.0283310
14562.2, 0.0304280
14603.3, 0.0331230
14644.5, 0.0358780
14686.0, 0.0383340
14727.7, 0.0409690
14769.7, 0.0430660
14811.9, 0.0443240
14854.3, 0.0445630
14897.0, 0.0440840
14939.9, 0.0427660
14983.1, 0.0416880
15026.5, 0.0413290
15070.2, 0.0419880
15114.2, 0.0431260
15158.3, 0.0445030
15202.8, 0.0464200
15247.5, 0.0495950
15292.5, 0.0534280
15337.7, 0.0579200
15383.2, 0.0623530
15429.0, 0.0679830
15475.1, 0.0738530
15521.4, 0.0789440
15568.0, 0.0831970
15614.9, 0.0869100
15662.1, 0.0900250
15709.6, 0.0929600
15757.3, 0.0952960
15805.4, 0.0969130
15853.7, 0.0978110
15902.3, 0.0987700
15951.2, 0.0984700
16000.5, 0.0979910
16050.0, 0.0969130
16099.8, 0.0955350
16150.0, 0.0941580
16200.5, 0.0924810
16251.3, 0.0905040
16302.4, 0.0885270
16353.8, 0.0865510
16405.5, 0.0841550
16457.6, 0.0814000
16510.0, 0.0789440
16562.8, 0.0762490
16615.9, 0.0734930
16669.3, 0.0712170
16723.1, 0.0691210
16777.2, 0.0676230
16831.7, 0.0655270
16886.5, 0.0624120
16941.7, 0.0603160
16997.2, 0.0592380
17053.1, 0.0593580
17109.4, 0.0605560
17166.1, 0.0631910
17223.1, 0.0664850
17280.5, 0.0670250
17338.3, 0.0659460
17396.5, 0.0655270
17455.1, 0.0658270
17514.0, 0.0675040
17573.4, 0.0677430
17633.2, 0.0654070
17693.4, 0.0643890
17754.0, 0.0633710
17815.0, 0.0619930
17876.4, 0.0633110
17938.3, 0.0658270
18000.5, 0.0659460
18063.3, 0.0637900
18126.4, 0.0612740
18190.0, 0.0581000
18254.1, 0.0574410
18318.6, 0.0575610
18383.5, 0.0555840
18449.0, 0.0539070
18514.9, 0.0544460
18581.2, 0.0527690
18648.0, 0.0517510
18715.4, 0.0503730
18783.2, 0.0499540
18851.5, 0.0492350
18920.3, 0.0479170
18989.6, 0.0443840
19059.4, 0.0419880
19129.7, 0.0399510
19200.6, 0.0384540
19272.0, 0.0383940
19343.9, 0.0386930
19416.3, 0.0378550
19489.3, 0.0376750
19562.8, 0.0365970
19637.0, 0.0368370
19711.6, 0.0391130
19786.8, 0.0419280
19862.6, 0.0422270
19939.0, 0.0431260
20016.0, 0.0455810
20093.6, 0.0472590
20171.8, 0.0465400
20250.6, 0.0459410
20330.0, 0.0457010
20410.0, 0.0469590
20490.7, 0.0489960
20572.0, 0.0524700
20654.0, 0.0572610
20736.6, 0.0640900
20819.9, 0.0699000
20903.8, 0.0772070
20988.5, 0.0847540
21073.8, 0.0922410
21159.8, 0.0963740
21246.5, 0.101166
21334.0, 0.105478
21422.1, 0.107934
21511.0, 0.110809
21600.7, 0.111648
21691.0, 0.109072
21782.1, 0.108653
21874.0, 0.106976
21966.7, 0.102543
22060.2, 0.102903
22154.5, 0.101765
22249.6, 0.0976920
22345.5, 0.0972130
22442.2, 0.0941580
22539.8, 0.0900850
22638.2, 0.0887070
22737.5, 0.0888270
22837.7, 0.0878090
22938.7, 0.0893060
23040.7, 0.0878090
