Database of Origin, USGS Spectral Database
Sample Description, See USGS database for additional info
Date Added,2016-08-10 04:59:26.101730

Data ID,USGS_kao04          
Sample ID, kaolinite_cm5.11860
Mineral Name, kaolinite
Material Class,Phyllosilicate

Wavelength
1350.04, 0.745942
1350.39, 0.744062
1350.74, 0.742540
1351.1, 0.740838
1351.45, 0.739092
1351.8, 0.737480
1352.15, 0.735286
1352.51, 0.733048
1352.86, 0.731884
1353.21, 0.730899
1353.56, 0.729600
1353.92, 0.728168
1354.27, 0.727496
1354.63, 0.726377
1354.98, 0.725929
1355.33, 0.725123
1355.69, 0.724676
1356.04, 0.724138
1356.4, 0.723109
1356.75, 0.721945
1357.11, 0.721676
1357.46, 0.721139
1357.82, 0.719840
1358.18, 0.718810
1358.53, 0.718049
1358.89, 0.717199
1359.24, 0.715363
1359.6, 0.715273
1359.96, 0.715139
1360.31, 0.714512
1360.67, 0.713393
1361.03, 0.712901
1361.39, 0.712542
1361.74, 0.712453
1362.1, 0.712140
1362.46, 0.711826
1362.82, 0.711468
1363.18, 0.710975
1363.53, 0.710662
1363.89, 0.710349
1364.25, 0.709632
1364.61, 0.709185
1364.97, 0.709408
1365.33, 0.709005
1365.69, 0.709140
1366.05, 0.708916
1366.41, 0.707931
1366.77, 0.706946
1367.13, 0.706230
1367.49, 0.705245
1367.85, 0.703991
1368.21, 0.702514
1368.57, 0.702424
1368.93, 0.701842
1369.3, 0.700902
1369.66, 0.699962
1370.02, 0.699066
1370.38, 0.697947
1370.74, 0.697410
1371.11, 0.696962
1371.47, 0.695843
1371.83, 0.694678
1372.19, 0.694410
1372.56, 0.693604
1372.92, 0.691992
1373.29, 0.690828
1373.65, 0.689172
1374.01, 0.687649
1374.38, 0.686082
1374.74, 0.684605
1375.11, 0.683172
1375.47, 0.681560
1375.84, 0.679904
1376.2, 0.678158
1376.57, 0.676322
1376.93, 0.674218
1377.3, 0.672696
1377.67, 0.670949
1378.03, 0.668353
1378.4, 0.666204
1378.76, 0.663876
1379.13, 0.661592
1379.5, 0.659085
1379.87, 0.656220
1380.23, 0.652683
1380.6, 0.649504
1380.97, 0.648026
1381.34, 0.646594
1381.7, 0.644848
1382.07, 0.642475
1382.44, 0.640281
1382.81, 0.639072
1383.18, 0.637460
1383.55, 0.635938
1383.92, 0.634237
1384.29, 0.632491
1384.66, 0.630431
1385.03, 0.628506
1385.4, 0.626536
1385.77, 0.624835
1386.14, 0.622641
1386.51, 0.620134
1386.88, 0.617313
1387.25, 0.614089
1387.62, 0.610911
1387.99, 0.608135
1388.36, 0.605225
1388.74, 0.602270
1389.11, 0.599180
1389.48, 0.595778
1389.85, 0.593181
1390.23, 0.590584
1390.6, 0.587719
1390.97, 0.584809
1391.35, 0.582346
1391.72, 0.579526
1392.09, 0.576347
1392.47, 0.574153
1392.84, 0.572138
1393.21, 0.569318
1393.59, 0.567303
1393.96, 0.565870
1394.34, 0.564437
1394.71, 0.563005
1395.09, 0.562154
1395.46, 0.562647
1395.84, 0.563050
1396.22, 0.563363
1396.59, 0.564706
1396.97, 0.565825
1397.35, 0.566855
1397.72, 0.567706
1398.1, 0.568556
1398.48, 0.569452
1398.85, 0.569900
1399.23, 0.569721
1399.61, 0.570303
1399.99, 0.571108
1400.37, 0.571153
1400.74, 0.570974
1401.12, 0.571377
1401.5, 0.571377
1401.88, 0.571288
1402.26, 0.570661
1402.64, 0.570258
1403.02, 0.569944
1403.4, 0.569228
1403.78, 0.568109
1404.16, 0.567348
1404.54, 0.566587
1404.92, 0.566497
1405.3, 0.567213
1405.68, 0.567706
1406.06, 0.568422
1406.44, 0.569004
1406.83, 0.569362
1407.21, 0.570482
1407.59, 0.571914
1407.97, 0.572944
1408.35, 0.573660
1408.74, 0.574019
1409.12, 0.573705
1409.5, 0.573302
1409.89, 0.572586
1410.27, 0.570303
1410.65, 0.566721
1411.04, 0.562244
1411.42, 0.556692
1411.81, 0.549484
1412.19, 0.540753
1412.58, 0.529426
1412.96, 0.516039
1413.35, 0.500503
1413.73, 0.483311
1414.12, 0.465895
1414.5, 0.450852
1414.89, 0.442614
1415.28, 0.443778
1415.66, 0.455732
1416.05, 0.475252
1416.44, 0.497325
1416.82, 0.518099
1417.21, 0.536231
1417.6, 0.551230
1417.98, 0.563184
1418.37, 0.572944
1418.76, 0.581272
1419.15, 0.588166
1419.54, 0.593808
1419.93, 0.599001
1420.32, 0.602807
1420.71, 0.606165
1421.09, 0.609657
1421.48, 0.612522
1421.88, 0.614850
1422.27, 0.616910
1422.66, 0.618880
1423.05, 0.620626
1423.44, 0.621656
1423.83, 0.623088
1424.22, 0.624835
1424.61, 0.625551
1425.0, 0.626312
1425.39, 0.627521
1425.78, 0.628685
1426.18, 0.629894
1426.57, 0.630700
1426.96, 0.631595
1427.36, 0.632535
1427.75, 0.633386
1428.14, 0.634595
1428.54, 0.635535
1428.93, 0.636028
1429.32, 0.636386
1429.72, 0.637102
1430.11, 0.637818
1430.51, 0.638221
1430.9, 0.638356
1431.3, 0.638624
1431.69, 0.639251
1432.09, 0.639744
1432.48, 0.640460
1432.88, 0.640863
1433.28, 0.641176
1433.67, 0.641534
1434.07, 0.641937
1434.46, 0.642027
1434.86, 0.642519
1435.26, 0.642609
1435.66, 0.642788
1436.05, 0.642833
1436.45, 0.643191
1436.85, 0.643504
1437.25, 0.643281
1437.65, 0.642922
1438.05, 0.643146
1438.44, 0.643728
1438.84, 0.643504
1439.24, 0.643012
1439.64, 0.643281
1440.04, 0.643549
1440.44, 0.643504
1440.84, 0.643281
1441.24, 0.643236
1441.65, 0.643594
1442.05, 0.643683
1442.45, 0.643907
1442.85, 0.643594
1443.25, 0.643415
1443.65, 0.643370
1444.05, 0.643236
1444.46, 0.643191
1444.86, 0.643325
1445.26, 0.643057
1445.67, 0.642743
1446.07, 0.642743
1446.47, 0.642430
1446.88, 0.642027
1447.28, 0.641848
1447.68, 0.641848
1448.09, 0.641669
1448.49, 0.641355
1448.9, 0.641400
1449.3, 0.641490
1449.71, 0.641355
1450.11, 0.641087
1450.52, 0.640952
1450.93, 0.641221
1451.33, 0.641355
1451.74, 0.641579
1452.14, 0.641400
1452.55, 0.641266
1452.96, 0.641669
1453.36, 0.641355
1453.77, 0.641131
1454.18, 0.641311
1454.59, 0.641624
1455.0, 0.641490
1455.41, 0.641221
1455.81, 0.641221
1456.22, 0.641266
1456.63, 0.641087
1457.04, 0.640729
1457.45, 0.640415
1457.86, 0.640594
1458.27, 0.640773
1458.68, 0.640549
1459.09, 0.640773
1459.5, 0.640639
1459.91, 0.640236
1460.32, 0.639878
1460.74, 0.639967
1461.15, 0.640012
1461.56, 0.640146
1461.97, 0.640146
1462.39, 0.640057
1462.8, 0.639878
1463.21, 0.639520
1463.62, 0.639385
1464.04, 0.639475
1464.45, 0.639161
1464.86, 0.638803
1465.28, 0.639206
1465.69, 0.639296
1466.11, 0.638982
1466.52, 0.638848
1466.94, 0.638669
1467.35, 0.638445
1467.77, 0.638535
1468.18, 0.638490
1468.6, 0.638221
1469.02, 0.638445
1469.43, 0.638445
1469.85, 0.638132
1470.27, 0.638177
1470.68, 0.638266
1471.1, 0.638266
1471.52, 0.638311
1471.94, 0.638087
1472.35, 0.638042
1472.77, 0.638087
1473.19, 0.637953
1473.61, 0.637953
1474.03, 0.637953
1474.45, 0.637908
1474.87, 0.637550
1475.29, 0.637550
1475.71, 0.637639
1476.13, 0.637818
1476.55, 0.637998
1476.97, 0.637863
1477.39, 0.637505
1477.81, 0.637415
1478.23, 0.637595
1478.65, 0.637863
1479.07, 0.637729
1479.5, 0.637684
1479.92, 0.637550
1480.34, 0.637684
1480.76, 0.637460
1481.19, 0.637192
1481.61, 0.637102
1482.03, 0.637415
1482.46, 0.637595
1482.88, 0.637863
1483.31, 0.637639
1483.73, 0.637415
1484.16, 0.637908
1484.58, 0.637998
1485.01, 0.637908
1485.43, 0.637863
1485.86, 0.637863
1486.28, 0.637595
1486.71, 0.637818
1487.14, 0.638042
1487.56, 0.638132
1487.99, 0.638177
1488.42, 0.638356
1488.84, 0.638087
1489.27, 0.638087
1489.7, 0.637953
1490.13, 0.637863
1490.56, 0.638042
1490.98, 0.638400
1491.41, 0.638087
1491.84, 0.637998
1492.27, 0.637953
1492.7, 0.637953
1493.13, 0.638087
1493.56, 0.638087
1493.99, 0.637729
1494.42, 0.637550
1494.85, 0.637550
1495.29, 0.637595
1495.72, 0.637326
1496.15, 0.637326
1496.58, 0.637595
1497.01, 0.637818
1497.44, 0.637639
1497.88, 0.637595
1498.31, 0.637953
1498.74, 0.638042
1499.18, 0.638042
1499.61, 0.638400
1500.04, 0.638893
1500.48, 0.639385
1500.91, 0.639788
1501.35, 0.639564
1501.78, 0.639654
1502.22, 0.640057
1502.65, 0.640102
1503.09, 0.640102
1503.53, 0.640191
1503.96, 0.640460
1504.4, 0.640549
1504.83, 0.640639
1505.27, 0.640863
1505.71, 0.640952
1506.15, 0.641042
1506.58, 0.641355
1507.02, 0.641400
1507.46, 0.641400
1507.9, 0.641355
1508.34, 0.641400
1508.78, 0.641714
1509.21, 0.641803
1509.66, 0.641937
1510.09, 0.641758
1510.53, 0.641758
1510.97, 0.642072
1511.42, 0.642072
1511.86, 0.641982
1512.3, 0.641937
1512.74, 0.642385
1513.18, 0.642788
1513.62, 0.642967
1514.06, 0.642967
1514.51, 0.643012
1514.95, 0.643191
1515.39, 0.643236
1515.83, 0.643146
1516.28, 0.643325
1516.72, 0.643415
1517.16, 0.643057
1517.61, 0.643012
1518.05, 0.643101
1518.5, 0.643415
1518.94, 0.643504
1519.39, 0.643639
1519.83, 0.643504
1520.28, 0.643594
1520.73, 0.643907
1521.17, 0.643952
1521.62, 0.643773
1522.07, 0.643773
1522.51, 0.643952
1522.96, 0.643997
1523.41, 0.644176
1523.85, 0.644176
1524.3, 0.644086
1524.75, 0.644355
1525.2, 0.644758
1525.65, 0.644758
1526.1, 0.644848
1526.55, 0.644534
1527.0, 0.644848
1527.45, 0.645161
1527.9, 0.645206
1528.35, 0.645116
1528.8, 0.645161
1529.25, 0.645340
1529.7, 0.645564
1530.15, 0.645743
1530.6, 0.645698
1531.05, 0.645698
1531.51, 0.646056
1531.96, 0.646235
1532.41, 0.646370
1532.87, 0.646638
1533.32, 0.646818
1533.77, 0.646773
1534.23, 0.646728
1534.68, 0.646818
1535.14, 0.647086
1535.59, 0.647131
1536.05, 0.647176
1536.5, 0.647355
1536.96, 0.647847
1537.41, 0.647982
1537.87, 0.647892
1538.32, 0.648161
1538.78, 0.648205
1539.24, 0.648385
1539.7, 0.648429
1540.15, 0.648564
1540.61, 0.649146
1541.07, 0.649235
1541.53, 0.649146
1541.98, 0.649190
1542.44, 0.649549
1542.9, 0.649817
1543.36, 0.649862
1543.82, 0.650086
1544.28, 0.650310
1544.74, 0.650399
1545.2, 0.650623
1545.66, 0.650623
1546.12, 0.650623
1546.59, 0.651116
1547.05, 0.651429
1547.51, 0.651742
1547.97, 0.651698
1548.43, 0.651698
1548.9, 0.651921
1549.36, 0.652145
1549.82, 0.652414
1550.29, 0.652951
1550.75, 0.653041
1551.21, 0.652906
1551.68, 0.652996
1552.14, 0.653309
1552.61, 0.653578
1553.07, 0.653623
1553.54, 0.653757
1554.0, 0.654115
1554.47, 0.654250
1554.93, 0.654429
1555.4, 0.654697
1555.87, 0.654966
1556.34, 0.655056
1556.8, 0.655100
1557.27, 0.655190
1557.74, 0.655414
1558.21, 0.655772
1558.68, 0.656040
1559.14, 0.656085
1559.61, 0.656264
1560.08, 0.656264
1560.55, 0.656399
1561.02, 0.656488
1561.49, 0.656936
1561.96, 0.657160
1562.43, 0.657294
1562.9, 0.657339
1563.38, 0.657384
1563.85, 0.657697
1564.32, 0.657966
1564.79, 0.658100
1565.26, 0.658279
1565.74, 0.658190
1566.21, 0.658279
1566.68, 0.658369
1567.16, 0.658592
1567.63, 0.659085
1568.1, 0.659264
1568.58, 0.659175
1569.05, 0.659354
1569.53, 0.659443
1570.0, 0.659488
1570.48, 0.659980
1570.96, 0.660294
1571.43, 0.660204
1571.91, 0.660159
1572.39, 0.660473
1572.86, 0.660652
1573.34, 0.660742
1573.82, 0.660831
1574.3, 0.660965
1574.77, 0.661010
1575.25, 0.661144
1575.73, 0.661279
1576.21, 0.661503
1576.69, 0.661458
1577.17, 0.661682
1577.65, 0.661950
1578.13, 0.662174
1578.61, 0.662443
1579.09, 0.662712
1579.57, 0.662667
1580.05, 0.662488
1580.54, 0.662577
1581.02, 0.662891
1581.5, 0.662935
1581.98, 0.663293
1582.47, 0.663428
1582.95, 0.663562
1583.43, 0.663517
1583.92, 0.663741
1584.4, 0.664010
1584.88, 0.664010
1585.37, 0.664234
1585.85, 0.664368
1586.34, 0.664368
1586.82, 0.664502
1587.31, 0.664547
1587.8, 0.664771
1588.28, 0.665040
1588.77, 0.665263
1589.26, 0.665263
1589.74, 0.665308
1590.23, 0.665577
1590.72, 0.665666
1591.21, 0.665711
1591.7, 0.665711
1592.19, 0.665801
1592.67, 0.666383
1593.16, 0.666517
1593.65, 0.666472
1594.14, 0.666741
1594.63, 0.667144
1595.12, 0.667323
1595.61, 0.667592
1596.11, 0.667860
1596.6, 0.667905
1597.09, 0.668129
1597.58, 0.668263
1598.08, 0.668263
1598.57, 0.668532
1599.06, 0.668756
1599.55, 0.668845
1600.05, 0.668980
1600.54, 0.669293
1601.04, 0.669606
1601.53, 0.669741
1602.03, 0.669741
1602.52, 0.670054
1603.02, 0.670099
1603.51, 0.670099
1604.01, 0.670547
1604.5, 0.670860
1605.0, 0.670994
1605.5, 0.671129
1606.0, 0.671352
1606.49, 0.671576
1606.99, 0.671576
1607.49, 0.671890
1607.99, 0.672248
1608.49, 0.672382
1608.99, 0.672248
1609.49, 0.672248
1609.99, 0.672830
1610.49, 0.673188
1610.99, 0.673412
1611.49, 0.673322
1611.99, 0.673278
1612.49, 0.673367
1612.99, 0.673681
1613.49, 0.673904
1614.0, 0.674128
1614.5, 0.674218
1615.0, 0.674397
1615.51, 0.674800
1616.01, 0.674845
1616.51, 0.675024
1617.02, 0.675248
1617.52, 0.675203
1618.03, 0.675516
1618.53, 0.675874
1619.04, 0.676009
1619.54, 0.676233
1620.05, 0.676591
1620.55, 0.676456
1621.06, 0.676456
1621.57, 0.676904
1622.08, 0.677083
1622.58, 0.677083
1623.09, 0.677352
1623.6, 0.677531
1624.11, 0.677620
1624.62, 0.677710
1625.13, 0.678023
1625.64, 0.678337
1626.15, 0.678337
1626.66, 0.678471
1627.17, 0.678829
1627.68, 0.679143
1628.19, 0.679277
1628.7, 0.679143
1629.21, 0.679098
1629.72, 0.679367
1630.24, 0.679546
1630.75, 0.679590
1631.26, 0.679635
1631.78, 0.679859
1632.29, 0.679949
1632.8, 0.680172
1633.32, 0.680352
1633.83, 0.680531
1634.35, 0.680755
1634.86, 0.680844
1635.38, 0.680889
1635.9, 0.681157
1636.41, 0.681337
1636.93, 0.681426
1637.45, 0.681426
1637.96, 0.681605
1638.48, 0.681829
1639.0, 0.681919
1639.52, 0.681784
1640.04, 0.681919
1640.56, 0.682053
1641.08, 0.682232
1641.59, 0.682545
1642.11, 0.682590
1642.63, 0.682590
1643.16, 0.682680
1643.68, 0.682769
1644.2, 0.682859
1644.72, 0.682993
1645.24, 0.683127
1645.76, 0.683441
1646.29, 0.683620
1646.81, 0.683575
1647.33, 0.683709
1647.86, 0.683799
1648.38, 0.683844
1648.9, 0.683844
1649.43, 0.683888
1649.95, 0.684068
1650.48, 0.684247
1651.0, 0.684515
1651.53, 0.684650
1652.06, 0.684515
1652.58, 0.684471
1653.11, 0.684605
1653.64, 0.684605
1654.17, 0.684784
1654.69, 0.685097
1655.22, 0.685232
1655.75, 0.685366
1656.28, 0.685097
1656.81, 0.685053
1657.34, 0.685411
1657.87, 0.685724
1658.4, 0.685769
1658.93, 0.685903
1659.46, 0.685993
1659.99, 0.686082
1660.52, 0.686306
1661.05, 0.686351
1661.59, 0.686306
1662.12, 0.686441
1662.65, 0.686530
1663.19, 0.686485
1663.72, 0.686530
1664.26, 0.686844
1664.79, 0.687023
1665.32, 0.687112
1665.86, 0.687291
1666.39, 0.687649
1666.93, 0.687694
1667.47, 0.687694
1668.0, 0.687963
1668.54, 0.688231
1669.08, 0.688231
1669.61, 0.688231
1670.15, 0.688590
1670.69, 0.688724
1671.23, 0.688679
1671.77, 0.688724
1672.31, 0.688813
1672.85, 0.689037
1673.39, 0.689306
1673.93, 0.689037
1674.47, 0.689037
1675.01, 0.689575
1675.55, 0.689798
1676.09, 0.689709
1676.64, 0.689754
1677.18, 0.690022
1677.72, 0.690336
1678.26, 0.690380
1678.81, 0.690560
1679.35, 0.690828
1679.89, 0.690828
1680.44, 0.691007
1680.98, 0.691142
1681.53, 0.691052
1682.07, 0.691186
1682.62, 0.691365
1683.17, 0.691634
1683.71, 0.691947
1684.26, 0.691813
1684.81, 0.691903
1685.36, 0.692082
1685.9, 0.692216
1686.45, 0.692395
1687.0, 0.692574
1687.55, 0.692664
1688.1, 0.692888
1688.65, 0.693067
1689.2, 0.693291
1689.75, 0.693067
1690.3, 0.693156
1690.85, 0.693514
1691.41, 0.693425
1691.96, 0.693559
1692.51, 0.693917
1693.06, 0.694052
1693.61, 0.694186
1694.17, 0.694186
1694.72, 0.694096
1695.28, 0.694096
1695.83, 0.694320
1696.39, 0.694455
1696.94, 0.694634
1697.5, 0.694634
1698.05, 0.694768
1698.61, 0.694947
1699.17, 0.694992
1699.72, 0.695126
1700.28, 0.694858
1700.84, 0.695171
1701.4, 0.695395
1701.95, 0.695305
1702.51, 0.695350
1703.07, 0.695574
1703.63, 0.695574
1704.19, 0.695664
1704.75, 0.695664
1705.31, 0.695708
1705.88, 0.695977
1706.44, 0.696201
1707.0, 0.696066
1707.56, 0.695932
1708.12, 0.695887
1708.69, 0.695977
1709.25, 0.695977
1709.81, 0.695843
1710.38, 0.696066
1710.94, 0.696111
1711.51, 0.696245
1712.07, 0.696290
1712.64, 0.696290
1713.2, 0.696156
1713.77, 0.696380
1714.34, 0.696425
1714.9, 0.696380
1715.47, 0.696335
1716.04, 0.696335
1716.61, 0.696245
1717.18, 0.696111
1717.74, 0.696245
1718.31, 0.696380
1718.88, 0.696245
1719.45, 0.696245
1720.02, 0.696335
1720.59, 0.696335
1721.17, 0.696335
1721.74, 0.696380
1722.31, 0.696335
1722.88, 0.696156
1723.45, 0.696245
1724.03, 0.696245
1724.6, 0.696290
1725.18, 0.696469
1725.75, 0.696469
1726.33, 0.696469
1726.9, 0.696559
1727.48, 0.696604
1728.05, 0.696559
1728.63, 0.696514
1729.2, 0.696335
1729.78, 0.696380
1730.36, 0.696425
1730.94, 0.696425
1731.51, 0.696290
1732.09, 0.696425
1732.67, 0.696559
1733.25, 0.696335
1733.83, 0.696245
1734.41, 0.696425
1734.99, 0.696648
1735.57, 0.696962
1736.15, 0.696962
1736.73, 0.696962
1737.32, 0.696783
1737.9, 0.696872
1738.48, 0.697007
1739.07, 0.697230
1739.65, 0.697096
1740.23, 0.696917
1740.82, 0.697141
1741.4, 0.697320
1741.99, 0.697365
1742.57, 0.697544
1743.16, 0.697589
1743.74, 0.697633
1744.33, 0.697723
1744.92, 0.697902
1745.51, 0.697857
1746.09, 0.697902
1746.68, 0.697812
1747.27, 0.697902
1747.86, 0.698171
1748.45, 0.698215
1749.04, 0.698171
1749.63, 0.698305
1750.22, 0.698395
1750.81, 0.698439
1751.4, 0.698618
1751.99, 0.698753
1752.59, 0.698797
1753.18, 0.698753
1753.77, 0.698574
1754.37, 0.698753
1754.96, 0.698887
1755.56, 0.698932
1756.15, 0.698977
1756.74, 0.698932
1757.34, 0.698753
1757.94, 0.698842
1758.53, 0.698932
1759.13, 0.699021
1759.73, 0.698932
1760.32, 0.699156
1760.92, 0.699021
1761.52, 0.698977
1762.12, 0.699021
1762.72, 0.699066
1763.32, 0.699066
1763.92, 0.699021
1764.52, 0.698932
1765.12, 0.698842
1765.72, 0.698887
1766.32, 0.699021
1766.92, 0.699111
1767.53, 0.699156
1768.13, 0.699066
1768.73, 0.699066
1769.34, 0.698887
1769.94, 0.699111
1770.55, 0.699200
1771.15, 0.698977
1771.76, 0.698797
1772.36, 0.698842
1772.97, 0.698618
1773.57, 0.698663
1774.18, 0.698574
1774.79, 0.698663
1775.4, 0.698484
1776.0, 0.698260
1776.61, 0.698036
1777.22, 0.697857
1777.83, 0.697589
1778.44, 0.697633
1779.05, 0.697812
1779.66, 0.697544
1780.27, 0.697230
1780.88, 0.697051
1781.5, 0.696917
1782.11, 0.696648
1782.72, 0.696335
1783.33, 0.695977
1783.95, 0.695887
1784.56, 0.695529
1785.18, 0.695350
1785.79, 0.695171
1786.41, 0.694858
1787.02, 0.694634
1787.64, 0.694410
1788.26, 0.694410
1788.87, 0.694231
1789.49, 0.693783
1790.11, 0.693604
1790.73, 0.693335
1791.35, 0.693201
1791.96, 0.692932
1792.58, 0.692753
1793.21, 0.692664
1793.83, 0.692529
1794.45, 0.692574
1795.07, 0.692440
1795.69, 0.692216
1796.31, 0.692261
1796.93, 0.692306
1797.56, 0.692216
1798.18, 0.692306
1798.8, 0.692171
1799.43, 0.692082
1800.05, 0.691947
1800.68, 0.692037
1801.3, 0.692037
1801.93, 0.692037
1802.56, 0.691947
1803.18, 0.691947
1803.81, 0.692171
1804.44, 0.691992
1805.07, 0.691768
1805.7, 0.691813
1806.33, 0.691679
1806.95, 0.691634
1807.58, 0.691500
1808.22, 0.691365
1808.85, 0.691231
1809.48, 0.691007
1810.11, 0.690918
1810.74, 0.690604
1811.38, 0.690470
1812.01, 0.690470
1812.64, 0.690291
1813.28, 0.690246
1813.91, 0.689933
1814.55, 0.689664
1815.18, 0.689440
1815.82, 0.689395
1816.45, 0.689351
1817.09, 0.689395
1817.73, 0.689261
1818.36, 0.689172
1819.0, 0.689306
1819.64, 0.688858
1820.28, 0.688813
1820.92, 0.689172
1821.56, 0.689440
1822.2, 0.689798
1822.84, 0.690112
1823.48, 0.690425
1824.12, 0.690425
1824.76, 0.690649
1825.41, 0.690560
1826.05, 0.690604
1826.69, 0.691321
1827.34, 0.691768
1827.98, 0.691947
1828.63, 0.692306
1829.27, 0.692529
1829.92, 0.692977
1830.56, 0.693111
1831.21, 0.693291
1831.86, 0.693425
1832.5, 0.693604
1833.15, 0.693649
1833.8, 0.693604
1834.45, 0.693425
1835.1, 0.693335
1835.75, 0.693201
1836.4, 0.693201
1837.05, 0.692932
1837.7, 0.692843
1838.35, 0.693067
1839.01, 0.692485
1839.66, 0.691992
1840.31, 0.691724
1840.96, 0.690962
1841.62, 0.690157
1842.27, 0.690291
1842.93, 0.690246
1843.58, 0.690067
1844.24, 0.690291
1844.9, 0.690873
1845.55, 0.691500
1846.21, 0.691947
1846.87, 0.692485
1847.53, 0.693514
1848.18, 0.694410
1848.84, 0.695664
1849.5, 0.696335
1850.16, 0.697051
1850.82, 0.697857
1851.48, 0.698350
1852.14, 0.698484
1852.81, 0.698708
1853.47, 0.698753
1854.13, 0.699380
1854.8, 0.699827
1855.46, 0.699827
1856.12, 0.699603
1856.79, 0.699782
1857.45, 0.700230
1858.12, 0.700275
1858.79, 0.700096
1859.45, 0.699872
1860.12, 0.700230
1860.79, 0.700320
1861.46, 0.700499
1862.12, 0.700544
1862.79, 0.700544
1863.46, 0.700409
1864.13, 0.700141
1864.8, 0.700006
1865.48, 0.699962
1866.15, 0.699603
1866.82, 0.699111
1867.49, 0.698574
1868.16, 0.698708
1868.84, 0.698708
1869.51, 0.698260
1870.19, 0.697544
1870.86, 0.697230
1871.54, 0.697633
1872.21, 0.696783
1872.89, 0.696066
1873.56, 0.696290
1874.24, 0.696380
1874.92, 0.696022
1875.6, 0.695484
1876.28, 0.694902
1876.96, 0.694410
1877.64, 0.694141
1878.32, 0.693604
1879.0, 0.693067
1879.68, 0.692440
1880.36, 0.691813
1881.04, 0.691365
1881.73, 0.691052
1882.41, 0.690828
1883.09, 0.690336
1883.78, 0.689575
1884.46, 0.689306
1885.15, 0.688992
1885.83, 0.688590
1886.52, 0.688097
1887.21, 0.687784
1887.89, 0.687246
1888.58, 0.686844
1889.27, 0.686261
1889.96, 0.685724
1890.65, 0.685545
1891.34, 0.685276
1892.03, 0.684829
1892.72, 0.684381
1893.41, 0.683933
1894.1, 0.683486
1894.79, 0.682993
1895.49, 0.682366
1896.18, 0.681739
1896.87, 0.681113
1897.57, 0.680307
1898.26, 0.679725
1898.96, 0.678829
1899.65, 0.678113
1900.35, 0.677665
1901.05, 0.677262
1901.74, 0.676546
1902.44, 0.675695
1903.14, 0.675337
1903.84, 0.675158
1904.54, 0.674173
1905.24, 0.673367
1905.94, 0.673143
1906.64, 0.672785
1907.34, 0.672696
1908.04, 0.672472
1908.75, 0.672382
1909.45, 0.672069
1910.15, 0.671979
1910.86, 0.671666
1911.56, 0.671442
1912.27, 0.671397
1912.97, 0.670815
1913.68, 0.670860
1914.39, 0.670905
1915.09, 0.670860
1915.8, 0.671173
1916.51, 0.671531
1917.22, 0.671666
1917.93, 0.671755
1918.64, 0.671845
1919.35, 0.671531
1920.06, 0.671711
1920.77, 0.672248
1921.48, 0.672516
1922.19, 0.672696
1922.91, 0.672830
1923.62, 0.672964
1924.33, 0.673322
1925.05, 0.673367
1925.76, 0.673322
1926.48, 0.673098
1927.19, 0.673098
1927.91, 0.673233
1928.63, 0.673591
1929.35, 0.673636
1930.07, 0.673546
1930.78, 0.673546
1931.5, 0.673546
1932.22, 0.673815
1932.94, 0.673815
1933.66, 0.673770
1934.39, 0.673815
1935.11, 0.673501
1935.83, 0.673278
1936.55, 0.673322
1937.28, 0.673412
1938.0, 0.673591
1938.73, 0.673501
1939.45, 0.673367
1940.18, 0.673278
1940.9, 0.673367
1941.63, 0.673546
1942.36, 0.673457
1943.09, 0.673412
1943.81, 0.673860
1944.54, 0.673994
1945.27, 0.674173
1946.0, 0.674083
1946.73, 0.674128
1947.47, 0.674263
1948.2, 0.674442
1948.93, 0.674621
1949.66, 0.674621
1950.4, 0.674621
1951.13, 0.674666
1951.86, 0.674755
1952.6, 0.674755
1953.34, 0.674845
1954.07, 0.674800
1954.81, 0.674845
1955.55, 0.674979
1956.29, 0.675068
1957.02, 0.675024
1957.76, 0.674934
1958.5, 0.674800
1959.24, 0.674800
1959.98, 0.674979
1960.72, 0.675068
1961.47, 0.675024
1962.21, 0.675068
1962.95, 0.675024
1963.7, 0.674889
1964.44, 0.674800
1965.18, 0.674710
1965.93, 0.674845
1966.67, 0.674845
1967.42, 0.674755
1968.17, 0.674755
1968.92, 0.674845
1969.66, 0.674710
1970.41, 0.674710
1971.16, 0.674666
1971.91, 0.674710
1972.66, 0.674666
1973.41, 0.674531
1974.16, 0.674576
1974.92, 0.674576
1975.67, 0.674576
1976.42, 0.674576
1977.18, 0.674442
1977.93, 0.674397
1978.69, 0.674397
1979.44, 0.674218
1980.2, 0.674173
1980.95, 0.674352
1981.71, 0.674083
1982.47, 0.673725
1983.23, 0.673725
1983.99, 0.673860
1984.74, 0.673725
1985.51, 0.673636
1986.27, 0.673636
1987.03, 0.673457
1987.79, 0.673501
1988.55, 0.673636
1989.32, 0.673322
1990.08, 0.673009
1990.84, 0.672964
1991.61, 0.672964
1992.37, 0.672740
1993.14, 0.672606
1993.9, 0.672472
1994.67, 0.672203
1995.44, 0.672024
1996.21, 0.671934
1996.98, 0.671711
1997.75, 0.671442
1998.52, 0.671397
1999.29, 0.671352
2000.06, 0.671218
2000.83, 0.671218
2001.6, 0.671039
2002.38, 0.670994
2003.15, 0.670860
2003.93, 0.670591
2004.7, 0.670412
2005.48, 0.670457
2006.25, 0.670636
2007.03, 0.670681
2007.81, 0.670457
2008.58, 0.670412
2009.36, 0.670591
2010.14, 0.670457
2010.92, 0.670233
2011.7, 0.670099
2012.48, 0.670009
2013.26, 0.669964
2014.05, 0.669741
2014.83, 0.669562
2015.61, 0.669427
2016.4, 0.669293
2017.18, 0.669114
2017.97, 0.668935
2018.75, 0.668935
2019.54, 0.668845
2020.32, 0.668666
2021.11, 0.668397
2021.9, 0.668129
2022.69, 0.668129
2023.48, 0.668039
2024.27, 0.667860
2025.06, 0.667681
2025.85, 0.667457
2026.64, 0.667099
2027.44, 0.666875
2028.23, 0.666875
2029.02, 0.666651
2029.82, 0.666293
2030.61, 0.665980
2031.41, 0.665711
2032.2, 0.665666
2033.0, 0.665532
2033.8, 0.665353
2034.6, 0.665263
2035.4, 0.665174
2036.2, 0.665084
2037.0, 0.664860
2037.8, 0.664637
2038.6, 0.664502
2039.4, 0.664323
2040.2, 0.664099
2041.01, 0.663652
2041.81, 0.663607
2042.61, 0.663562
2043.42, 0.663159
2044.22, 0.662756
2045.03, 0.662219
2045.84, 0.661906
2046.65, 0.661637
2047.46, 0.661324
2048.26, 0.661100
2049.07, 0.660742
2049.88, 0.660383
2050.69, 0.659980
2051.51, 0.659577
2052.32, 0.659354
2053.13, 0.659309
2053.94, 0.658995
2054.76, 0.658503
2055.57, 0.658010
2056.39, 0.657652
2057.2, 0.657518
2058.02, 0.657115
2058.84, 0.656443
2059.66, 0.655906
2060.48, 0.655727
2061.29, 0.655279
2062.11, 0.654742
2062.94, 0.654160
2063.76, 0.653399
2064.58, 0.652862
2065.4, 0.652280
2066.22, 0.651608
2067.05, 0.650892
2067.87, 0.649996
2068.7, 0.649146
2069.52, 0.648385
2070.35, 0.647444
2071.18, 0.646594
2072.0, 0.645922
2072.83, 0.645071
2073.66, 0.644355
2074.49, 0.643818
2075.32, 0.643236
2076.15, 0.642609
2076.98, 0.642161
2077.82, 0.641714
2078.65, 0.641131
2079.48, 0.640639
2080.32, 0.640012
2081.15, 0.639206
2081.99, 0.638266
2082.83, 0.637281
2083.66, 0.636296
2084.5, 0.635266
2085.34, 0.634147
2086.18, 0.632894
2087.02, 0.631819
2087.86, 0.631058
2088.7, 0.630476
2089.54, 0.630118
2090.39, 0.629804
2091.23, 0.629625
2092.07, 0.629357
2092.92, 0.628998
2093.76, 0.628551
2094.61, 0.628013
2095.45, 0.627521
2096.3, 0.627252
2097.15, 0.627118
2098.0, 0.626760
2098.85, 0.626402
2099.7, 0.625954
2100.55, 0.625596
2101.4, 0.625282
2102.25, 0.624790
2103.1, 0.624163
2103.96, 0.623626
2104.81, 0.622820
2105.67, 0.621701
2106.52, 0.620223
2107.38, 0.618387
2108.24, 0.615880
2109.09, 0.613194
2109.95, 0.610552
2110.81, 0.608359
2111.67, 0.606657
2112.53, 0.605493
2113.39, 0.605135
2114.25, 0.605135
2115.12, 0.605404
2115.98, 0.605762
2116.84, 0.606165
2117.71, 0.606299
2118.58, 0.606299
2119.44, 0.606075
2120.31, 0.605628
2121.18, 0.605001
2122.04, 0.604419
2122.91, 0.603613
2123.78, 0.602896
2124.65, 0.602135
2125.52, 0.601240
2126.4, 0.600210
2127.27, 0.599270
2128.14, 0.598330
2129.02, 0.597345
2129.89, 0.596091
2130.77, 0.594703
2131.64, 0.593360
2132.52, 0.591703
2133.4, 0.589957
2134.27, 0.587898
2135.15, 0.585883
2136.03, 0.583600
2136.91, 0.581003
2137.79, 0.578227
2138.68, 0.575272
2139.56, 0.572273
2140.44, 0.569049
2141.33, 0.565557
2142.21, 0.561796
2143.1, 0.557856
2143.99, 0.553737
2144.87, 0.549170
2145.76, 0.544022
2146.65, 0.538694
2147.54, 0.533187
2148.43, 0.527456
2149.32, 0.521501
2150.21, 0.515815
2151.1, 0.510353
2151.99, 0.505339
2152.89, 0.500682
2153.78, 0.496340
2154.68, 0.492400
2155.57, 0.488818
2156.47, 0.485236
2157.37, 0.481878
2158.27, 0.478968
2159.16, 0.476192
2160.06, 0.473819
2160.96, 0.471984
2161.86, 0.470641
2162.77, 0.469835
2163.67, 0.469745
2164.57, 0.470059
2165.48, 0.470372
2166.38, 0.470820
2167.29, 0.471133
2168.2, 0.471491
2169.1, 0.471760
2170.01, 0.471984
2170.92, 0.472521
2171.83, 0.473058
2172.74, 0.473506
2173.65, 0.474043
2174.56, 0.474491
2175.47, 0.474894
2176.39, 0.475297
2177.3, 0.475745
2178.22, 0.476103
2179.13, 0.476148
2180.05, 0.476192
2180.96, 0.476058
2181.88, 0.475610
2182.8, 0.475163
2183.72, 0.474446
2184.64, 0.473551
2185.56, 0.472476
2186.48, 0.470999
2187.41, 0.469298
2188.33, 0.467014
2189.25, 0.464641
2190.18, 0.462179
2191.1, 0.459806
2192.03, 0.457657
2192.96, 0.455776
2193.89, 0.454433
2194.82, 0.453359
2195.74, 0.452463
2196.68, 0.451702
2197.61, 0.450717
2198.54, 0.449195
2199.47, 0.446822
2200.4, 0.443016
2201.34, 0.437644
2202.28, 0.430660
2203.21, 0.421616
2204.15, 0.410602
2205.08, 0.397887
2206.02, 0.384365
2206.96, 0.372143
2207.9, 0.363547
2208.84, 0.361666
2209.78, 0.368472
2210.73, 0.382888
2211.67, 0.401647
2212.61, 0.421436
2213.56, 0.439972
2214.5, 0.456538
2215.45, 0.470730
2216.4, 0.482774
2217.35, 0.492982
2218.3, 0.501712
2219.24, 0.509234
2220.2, 0.515860
2221.15, 0.521457
2222.1, 0.526247
2223.05, 0.530500
2224.0, 0.534082
2224.96, 0.537172
2225.91, 0.539768
2226.87, 0.541828
2227.83, 0.543663
2228.79, 0.545365
2229.74, 0.546529
2230.7, 0.547290
2231.66, 0.547917
2232.63, 0.548364
2233.59, 0.548454
2234.55, 0.548275
2235.51, 0.547961
2236.48, 0.547693
2237.44, 0.547335
2238.41, 0.546697
2239.38, 0.546581
2240.34, 0.546639
2241.31, 0.545944
2242.28, 0.545886
2243.25, 0.546234
2244.22, 0.546176
2245.19, 0.546639
2246.17, 0.546524
2247.14, 0.545944
2248.12, 0.546408
2249.09, 0.546813
2250.07, 0.546350
2251.04, 0.545886
2252.02, 0.545597
2253.0, 0.545539
2253.98, 0.545307
2254.96, 0.544380
2255.94, 0.543858
2256.92, 0.543221
2257.91, 0.542584
2258.89, 0.541715
2259.88, 0.541077
2260.86, 0.540730
2261.85, 0.540324
2262.83, 0.539803
2263.82, 0.539339
2264.81, 0.538586
2265.8, 0.537775
2266.79, 0.537601
2267.78, 0.536790
2268.78, 0.535226
2269.77, 0.534009
2270.76, 0.532792
2271.76, 0.531228
2272.75, 0.530127
2273.75, 0.529432
2274.75, 0.527926
2275.75, 0.526245
2276.75, 0.525029
2277.75, 0.523754
2278.75, 0.522537
2279.75, 0.521321
2280.75, 0.519756
2281.76, 0.518076
2282.76, 0.516744
2283.77, 0.515701
2284.77, 0.514484
2285.78, 0.513499
2286.79, 0.512804
2287.8, 0.511935
2288.81, 0.510429
2289.82, 0.509270
2290.83, 0.508343
2291.84, 0.507300
2292.86, 0.506257
2293.87, 0.505504
2294.89, 0.504751
2295.91, 0.503882
2296.92, 0.502897
2297.94, 0.501622
2298.96, 0.500000
2299.98, 0.498783
2301.0, 0.497798
2302.02, 0.496524
2303.04, 0.494959
2304.07, 0.493453
2305.09, 0.491831
2306.12, 0.490672
2307.15, 0.488992
2308.17, 0.487196
2309.2, 0.485168
2310.23, 0.483430
2311.26, 0.481750
2312.29, 0.480591
2313.32, 0.479258
2314.35, 0.478389
2315.39, 0.477694
2316.42, 0.477346
2317.46, 0.477346
2318.5, 0.477172
2319.53, 0.476535
2320.57, 0.476072
2321.61, 0.475203
2322.65, 0.474971
2323.69, 0.474391
2324.73, 0.473812
2325.78, 0.473580
2326.82, 0.473754
2327.86, 0.473754
2328.91, 0.473870
2329.96, 0.474276
2331.01, 0.474855
2332.05, 0.475550
2333.1, 0.476825
2334.15, 0.477520
2335.21, 0.477984
2336.26, 0.478389
2337.31, 0.478273
2338.36, 0.477520
2339.42, 0.476999
2340.48, 0.476419
2341.53, 0.475087
2342.59, 0.473233
2343.65, 0.471379
2344.71, 0.469583
2345.77, 0.468018
2346.83, 0.466222
2347.9, 0.464194
2348.96, 0.462283
2350.02, 0.460139
2351.09, 0.458575
2352.16, 0.457184
2353.23, 0.455620
2354.29, 0.454113
2355.36, 0.452607
2356.43, 0.451854
2357.51, 0.451274
2358.58, 0.451043
2359.65, 0.451274
2360.73, 0.451680
2361.8, 0.452317
2362.88, 0.453013
2363.96, 0.453360
2365.03, 0.453882
2366.11, 0.454229
2367.19, 0.454113
2368.27, 0.453128
2369.36, 0.451912
2370.44, 0.450232
2371.53, 0.448320
2372.61, 0.446234
2373.7, 0.443801
2374.78, 0.441193
2375.87, 0.438586
2376.96, 0.436037
2378.05, 0.433777
2379.14, 0.431750
2380.24, 0.430069
2381.33, 0.428273
2382.42, 0.426883
2383.52, 0.425898
2384.61, 0.425608
2385.71, 0.426014
2386.81, 0.426999
2387.91, 0.428273
2389.01, 0.429722
2390.11, 0.430880
2391.22, 0.432445
2392.32, 0.433951
2393.42, 0.435457
2394.53, 0.436616
2395.64, 0.438239
2396.74, 0.440150
2397.85, 0.442178
2398.96, 0.443858
2400.07, 0.445191
2401.18, 0.446524
2402.3, 0.447451
2403.41, 0.448146
2404.52, 0.448088
2405.64, 0.447624
2406.76, 0.447509
2407.88, 0.447393
2408.99, 0.447161
2410.11, 0.447103
2411.23, 0.446987
2412.36, 0.446060
2413.48, 0.445133
2414.6, 0.444322
2415.73, 0.443685
2416.85, 0.442642
2417.98, 0.441541
2419.11, 0.440730
2420.24, 0.439803
2421.37, 0.438644
2422.5, 0.437485
2423.64, 0.435979
2424.77, 0.434473
2425.9, 0.432792
2427.04, 0.431344
2428.18, 0.429722
2429.31, 0.427810
2430.45, 0.425782
2431.59, 0.423407
2432.73, 0.420683
2433.88, 0.418134
2435.02, 0.415701
2436.16, 0.413210
2437.31, 0.410718
2438.45, 0.408343
2439.6, 0.406257
2440.75, 0.404635
2441.9, 0.403360
2443.05, 0.402491
2444.2, 0.401680
2445.35, 0.400753
2446.51, 0.399710
2447.67, 0.398667
2448.82, 0.398030
2449.98, 0.397277
2451.14, 0.396234
2452.3, 0.395886
2453.46, 0.395365
2454.62, 0.394496
2455.78, 0.393105
2456.94, 0.392120
2458.11, 0.391483
2459.28, 0.390904
2460.44, 0.390150
2461.61, 0.389687
2462.78, 0.389339
2463.95, 0.389050
2465.12, 0.388586
2466.3, 0.388181
2467.47, 0.387717
2468.65, 0.387312
2469.82, 0.386442
2471.0, 0.385573
2472.18, 0.384994
2473.36, 0.384299
2474.54, 0.383256
2475.72, 0.382387
2476.9, 0.381286
2478.08, 0.380185
2479.27, 0.378621
2480.46, 0.376767
2481.64, 0.375318
2482.83, 0.373407
2484.02, 0.371205
2485.21, 0.369293
2486.4, 0.367381
2487.6, 0.366106
2488.79, 0.365295
2489.99, 0.365353
2491.18, 0.365353
2492.38, 0.365006
2493.58, 0.364600
2494.78, 0.364484
2495.98, 0.364310
2497.18, 0.363847
2498.39, 0.363325
2499.59, 0.362920
2500.8, 0.362572
2502.01, 0.362398
2503.21, 0.361935
2504.42, 0.360950
2505.63, 0.359907
2506.84, 0.358980
2508.06, 0.357706
2509.27, 0.356605
2510.49, 0.355678
2511.7, 0.355272
2512.92, 0.354577
2514.14, 0.353998
2515.36, 0.353476
2516.58, 0.352781
2517.8, 0.351796
2519.03, 0.351448
2520.25, 0.351274
2521.48, 0.350232
2522.7, 0.349247
2523.93, 0.348609
2525.16, 0.347856
2526.39, 0.347103
2527.62, 0.346350
2528.86, 0.345481
2530.09, 0.344728
2531.33, 0.344612
2532.56, 0.344264
2533.8, 0.343685
2535.04, 0.343337
2536.28, 0.342874
2537.52, 0.341657
2538.76, 0.340266
2540.01, 0.339166
2541.25, 0.338181
2542.5, 0.337891
2543.75, 0.336790
2544.99, 0.335400
2546.24, 0.334646
2547.49, 0.334473
2548.75, 0.334415
2550.0, 0.334473
2551.26, 0.334704
2552.51, 0.334762
2553.77, 0.334125
2555.03, 0.332850
2556.29, 0.332213
2557.55, 0.331518
2558.81, 0.330938
2560.08, 0.331054
2561.34, 0.331344
2562.61, 0.330359
2563.88, 0.328853
2565.14, 0.326419
2566.41, 0.324102
2567.68, 0.323001
2568.96, 0.322711
2570.23, 0.321611
2571.51, 0.319641
2572.78, 0.319641
2574.06, 0.319061
2575.34, 0.317207
2576.62, 0.317149
2577.9, 0.315875
2579.18, 0.314542
2580.47, 0.314774
2581.75, 0.314890
2583.04, 0.315237
2584.32, 0.315353
2585.61, 0.313152
2586.9, 0.312978
2588.2, 0.312341
2589.49, 0.311182
2590.78, 0.309675
2592.08, 0.308864
2593.37, 0.310487
2594.67, 0.313673
2595.97, 0.311356
2597.27, 0.307242
2598.57, 0.304867
2599.88, 0.304345
2601.18, 0.304461
2602.49, 0.303882
2603.79, 0.303534
2605.1, 0.304113
2606.41, 0.303013
2607.72, 0.300927
2609.03, 0.299710
2610.35, 0.298204
2611.66, 0.296582
2612.98, 0.296060
2614.3, 0.295191
2615.62, 0.295481
2616.94, 0.295655
2618.26, 0.293105
2619.58, 0.292062
2620.91, 0.291020
2622.23, 0.287717
2623.56, 0.285573
2624.89, 0.284067
2626.22, 0.283893
2627.55, 0.281576
2628.88, 0.279085
2630.21, 0.278331
2631.55, 0.275203
2632.89, 0.271553
2634.22, 0.268945
2635.56, 0.265527
2636.9, 0.262804
2638.25, 0.260139
2639.59, 0.257590
2640.93, 0.254867
2642.28, 0.252028
2643.63, 0.248899
2644.98, 0.246582
2646.33, 0.243627
2647.68, 0.240266
2649.03, 0.237138
2650.39, 0.234125
2651.74, 0.231460
2653.1, 0.228505
2654.46, 0.224855
2655.82, 0.221437
2657.18, 0.217149
2658.54, 0.213441
2659.9, 0.209328
2661.27, 0.204635
2662.64, 0.199594
2664.01, 0.195655
2665.38, 0.191889
2666.74, 0.186501
2668.12, 0.180069
2669.49, 0.175377
2670.87, 0.170220
2672.24, 0.162746
2673.62, 0.156373
2675.0, 0.150637
2676.38, 0.145075
2677.76, 0.138702
2679.15, 0.131981
2680.54, 0.124855
2681.92, 0.117961
2683.31, 0.111240
2684.7, 0.103940
2686.09, 0.0966980
2687.48, 0.0891080
2688.88, 0.0812280
2690.27, 0.0734070
2691.67, 0.0662800
2693.07, 0.0593280
2694.47, 0.0530130
2695.87, 0.0479720
2697.27, 0.0435690
2698.67, 0.0393970
2700.08, 0.0359790
2701.49, 0.0329660
2702.9, 0.0300700
2704.31, 0.0279260
2705.72, 0.0268830
2707.13, 0.0264770
2708.54, 0.0268250
2709.96, 0.0277520
2711.38, 0.0290850
2712.8, 0.0297220
2714.22, 0.0303010
2715.64, 0.0307650
2717.06, 0.0310540
2718.49, 0.0309390
2719.91, 0.0300120
2721.34, 0.0282160
2722.77, 0.0263620
2724.2, 0.0254350
2725.63, 0.0253190
2727.07, 0.0259560
2728.5, 0.0268250
2729.94, 0.0272310
2731.38, 0.0271150
2732.82, 0.0264190
2734.26, 0.0258400
2735.7, 0.0253190
2737.15, 0.0253190
2738.59, 0.0264770
2740.04, 0.0283310
2741.49, 0.0305330
2742.94, 0.0324450
2744.39, 0.0343570
2745.84, 0.0362110
2747.3, 0.0375430
2748.76, 0.0381230
2750.21, 0.0377750
2751.67, 0.0364430
2753.14, 0.0337200
2754.6, 0.0300700
2756.06, 0.0256080
2757.53, 0.0210890
2759.0, 0.0179030
2760.46, 0.0181340
2761.94, 0.0228850
2763.41, 0.0303010
2764.88, 0.0381810
2766.36, 0.0457710
2767.83, 0.0528970
2769.31, 0.0593280
2770.79, 0.0658170
2772.27, 0.0716110
2773.76, 0.0762460
2775.24, 0.0801270
2776.73, 0.0833720
2778.22, 0.0859210
2779.71, 0.0885860
2781.2, 0.0917730
2782.69, 0.0954230
2784.18, 0.0984360
2785.68, 0.101159
2787.18, 0.103708
2788.68, 0.105504
2790.18, 0.106895
2791.68, 0.108806
2793.19, 0.110950
2794.69, 0.113036
2796.2, 0.115006
2797.71, 0.116802
2799.22, 0.118250
2800.73, 0.119815
2802.24, 0.121669
2803.76, 0.123233
2805.28, 0.123870
2806.8, 0.124507
2808.32, 0.125319
2809.84, 0.126014
2811.36, 0.126477
2812.89, 0.126767
2814.42, 0.127288
2815.94, 0.127810
2817.48, 0.128158
2819.01, 0.128737
2820.54, 0.129085
2822.08, 0.129432
2823.61, 0.129838
2825.15, 0.130301
2826.69, 0.130939
2828.23, 0.131808
2829.78, 0.132503
2831.32, 0.133198
2832.87, 0.133951
2834.42, 0.134704
2835.97, 0.135458
2837.52, 0.136211
2839.08, 0.136790
2840.63, 0.137196
2842.19, 0.137717
2843.75, 0.138355
2845.31, 0.138760
2846.87, 0.139050
2848.44, 0.139571
2850.0, 0.140266
2851.57, 0.140962
2853.14, 0.141947
2854.71, 0.142758
2856.28, 0.143221
2857.86, 0.143685
2859.43, 0.144380
2861.01, 0.145075
2862.59, 0.145655
2864.17, 0.146118
2865.76, 0.146755
2867.34, 0.147393
2868.93, 0.147914
2870.52, 0.148494
2872.11, 0.149073
2873.7, 0.149421
2875.29, 0.149710
2876.89, 0.150290
2878.49, 0.150753
2880.08, 0.151159
2881.69, 0.151622
2883.29, 0.152028
2884.89, 0.152607
2886.5, 0.152955
2888.11, 0.153302
2889.72, 0.153940
2891.33, 0.154519
2892.94, 0.154751
2894.56, 0.155156
2896.17, 0.155620
2897.79, 0.156257
2899.42, 0.156431
2901.04, 0.156083
2902.66, 0.155388
2904.29, 0.154056
2905.92, 0.152202
2907.55, 0.150000
2909.18, 0.147972
2910.81, 0.146813
2912.45, 0.146871
2914.08, 0.148841
2915.72, 0.152202
2917.36, 0.155968
2919.01, 0.159502
2920.65, 0.162456
2922.3, 0.165122
2923.94, 0.167497
2925.59, 0.169525
2927.25, 0.171437
2928.9, 0.173117
2930.56, 0.174623
2932.21, 0.176014
2933.87, 0.177288
2935.53, 0.178621
2937.2, 0.179664
2938.86, 0.180475
2940.53, 0.181286
2942.2, 0.182213
2943.87, 0.183024
2945.54, 0.183546
2947.22, 0.184357
2948.89, 0.185168
2950.57, 0.185805
2952.25, 0.186327
2953.93, 0.186848
2955.62, 0.187485
2957.3, 0.187949
2958.99, 0.188297
2960.68, 0.188818
2962.37, 0.189339
2964.07, 0.189861
2965.76, 0.190440
2967.46, 0.191020
2969.16, 0.191541
2970.86, 0.192178
2972.56, 0.192468
2974.27, 0.192758
2975.98, 0.193163
2977.69, 0.193685
2979.4, 0.194090
2981.11, 0.194728
2982.83, 0.195249
2984.54, 0.195713
2986.26, 0.196292
2987.98, 0.196755
2989.71, 0.197219
2991.43, 0.197798
2993.16, 0.198725
2994.89, 0.199768
2996.62, 0.200116
2998.35, 0.200579
3000.09, 0.201217
3001.83, 0.201796
3003.57, 0.202607
3005.31, 0.203476
3007.05, 0.203998
3008.79, 0.204461
3010.54, 0.205156
3012.29, 0.205910
3014.04, 0.206431
3015.8, 0.207010
3017.55, 0.207590
3019.31, 0.208111
3021.07, 0.208633
3022.83, 0.209328
3024.59, 0.210081
3026.36, 0.210776
3028.13, 0.211298
3029.9, 0.211993
3031.67, 0.212399
3033.44, 0.212862
3035.22, 0.213557
3037.0, 0.214310
3038.78, 0.214774
3040.56, 0.215122
3042.34, 0.215701
3044.13, 0.216628
3045.92, 0.217439
3047.71, 0.217961
3049.5, 0.218482
3051.3, 0.219177
3053.09, 0.219872
3054.89, 0.220394
3056.69, 0.221147
3058.5, 0.221842
3060.3, 0.222422
3062.11, 0.223001
3063.92, 0.223465
3065.73, 0.223986
3067.55, 0.224507
3069.36, 0.225145
3071.18, 0.225724
3073.0, 0.226304
3074.82, 0.226825
3076.65, 0.227462
3078.48, 0.227926
3080.31, 0.228505
3082.14, 0.229085
3083.97, 0.229606
3085.8, 0.230127
3087.64, 0.230533
3089.48, 0.230765
3091.33, 0.231170
3093.17, 0.231576
3095.02, 0.231981
3096.87, 0.232561
3098.72, 0.233140
3100.57, 0.233546
3102.43, 0.234125
3104.28, 0.234762
3106.14, 0.235226
3108.01, 0.235631
3109.87, 0.236095
3111.74, 0.236674
3113.61, 0.237254
3115.48, 0.237949
3117.35, 0.238354
3119.23, 0.238818
3121.1, 0.239455
3122.98, 0.240093
3124.87, 0.240672
3126.75, 0.241309
3128.64, 0.241889
3130.53, 0.242352
3132.42, 0.242989
3134.31, 0.243511
3136.21, 0.243974
3138.11, 0.244728
3140.01, 0.245307
3141.91, 0.245770
3143.82, 0.246640
3145.73, 0.247393
3147.64, 0.247856
3149.55, 0.248378
3151.46, 0.248899
3153.38, 0.249305
3155.3, 0.249710
3157.22, 0.250348
3159.14, 0.250927
3161.07, 0.251390
3163.0, 0.251738
3164.93, 0.252144
3166.86, 0.252607
3168.8, 0.252955
3170.74, 0.253476
3172.68, 0.253998
3174.62, 0.254461
3176.56, 0.254809
3178.51, 0.255214
3180.46, 0.255852
3182.42, 0.256489
3184.37, 0.256894
3186.33, 0.257358
3188.29, 0.257821
3190.25, 0.258227
3192.21, 0.258691
3194.18, 0.259270
3196.15, 0.259675
3198.12, 0.260197
3200.09, 0.260660
3202.07, 0.261124
3204.05, 0.261703
3206.03, 0.262283
3208.02, 0.262978
3210.0, 0.263557
3211.99, 0.264079
3213.98, 0.264716
3215.98, 0.265122
3217.97, 0.265469
3219.97, 0.265759
3221.97, 0.266280
3223.98, 0.266802
3225.98, 0.267439
3227.99, 0.268076
3230.0, 0.268482
3232.02, 0.268945
3234.03, 0.269409
3236.05, 0.269988
3238.07, 0.270394
3240.1, 0.270741
3242.12, 0.271089
3244.15, 0.271553
3246.18, 0.272016
3248.22, 0.272538
3250.25, 0.273001
3252.29, 0.273349
3254.33, 0.273754
3256.38, 0.274102
3258.43, 0.274392
3260.47, 0.274913
3262.53, 0.275376
3264.58, 0.275956
3266.64, 0.276477
3268.7, 0.276883
3270.76, 0.277520
3272.82, 0.278042
3274.89, 0.278389
3276.96, 0.278737
3279.04, 0.279085
3281.11, 0.279548
3283.19, 0.280185
3285.27, 0.280591
3287.35, 0.281112
3289.44, 0.281576
3291.53, 0.282271
3293.62, 0.282908
3295.71, 0.283372
3297.81, 0.284009
3299.91, 0.284646
3302.01, 0.285168
3304.11, 0.285573
3306.22, 0.286037
3308.33, 0.286558
3310.44, 0.287022
3312.56, 0.287485
3314.68, 0.288007
3316.8, 0.288528
3318.92, 0.289108
3321.05, 0.289571
3323.18, 0.290035
3325.31, 0.290614
3327.44, 0.291135
3329.58, 0.291541
3331.72, 0.291947
3333.86, 0.292410
3336.01, 0.292932
3338.16, 0.293511
3340.31, 0.293916
3342.46, 0.294264
3344.61, 0.294728
3346.77, 0.295249
3348.94, 0.295655
3351.1, 0.296002
3353.27, 0.296350
3355.44, 0.296524
3357.61, 0.296813
3359.79, 0.297161
3361.97, 0.297451
3364.15, 0.297509
3366.33, 0.297624
3368.52, 0.297798
3370.71, 0.297914
3372.9, 0.297972
3375.1, 0.298204
3377.3, 0.298494
3379.5, 0.298609
3381.71, 0.298957
3383.91, 0.299363
3386.12, 0.299768
3388.34, 0.300116
3390.55, 0.300405
3392.77, 0.300463
3394.99, 0.300463
3397.22, 0.300232
3399.45, 0.299942
3401.68, 0.299363
3403.91, 0.298551
3406.15, 0.297798
3408.39, 0.297045
3410.63, 0.296234
3412.87, 0.295655
3415.12, 0.295481
3417.37, 0.296002
3419.63, 0.297335
3421.88, 0.299015
3424.14, 0.301043
3426.41, 0.303360
3428.67, 0.305620
3430.94, 0.307763
3433.21, 0.309675
3435.49, 0.311298
3437.77, 0.312630
3440.05, 0.313905
3442.33, 0.315179
3444.62, 0.316280
3446.91, 0.317323
3449.2, 0.318366
3451.5, 0.319351
3453.8, 0.320220
3456.1, 0.320973
3458.41, 0.321900
3460.72, 0.322653
3463.03, 0.323407
3465.34, 0.323928
3467.66, 0.324392
3469.98, 0.324913
3472.31, 0.325434
3474.63, 0.325840
3476.96, 0.326188
3479.3, 0.326419
3481.64, 0.326709
3483.97, 0.327115
3486.32, 0.327404
3488.66, 0.327520
3491.01, 0.327230
3493.36, 0.326651
3495.72, 0.326014
3498.08, 0.325203
3500.44, 0.324681
3502.81, 0.324797
3505.18, 0.325492
3507.55, 0.326593
3509.92, 0.328215
3512.3, 0.330069
3514.68, 0.331923
3517.06, 0.333604
3519.45, 0.335226
3521.84, 0.336790
3524.24, 0.338123
3526.64, 0.339513
3529.04, 0.340846
3531.44, 0.342120
3533.85, 0.343163
3536.26, 0.344090
3538.67, 0.344843
3541.09, 0.345539
3543.51, 0.346234
3545.93, 0.346813
3548.36, 0.347393
3550.79, 0.347740
3553.22, 0.347914
3555.66, 0.348030
3558.1, 0.347798
3560.54, 0.347161
3562.99, 0.346408
3565.44, 0.345712
3567.9, 0.345307
3570.35, 0.345249
3572.81, 0.345712
3575.28, 0.346755
3577.75, 0.348030
3580.22, 0.349247
3582.69, 0.350521
3585.17, 0.351854
3587.65, 0.353186
3590.14, 0.354461
3592.62, 0.355330
3595.11, 0.356025
3597.61, 0.356663
3600.11, 0.357416
3602.61, 0.358053
3605.11, 0.358633
3607.62, 0.359212
3610.14, 0.359849
3612.65, 0.360429
3615.17, 0.361066
3617.69, 0.361703
3620.22, 0.362225
3622.75, 0.362746
3625.28, 0.363383
3627.82, 0.363963
3630.36, 0.364542
3632.9, 0.365064
3635.45, 0.365643
3638.0, 0.365991
3640.56, 0.366280
3643.12, 0.366628
3645.68, 0.366976
3648.24, 0.367381
3650.81, 0.367671
3653.39, 0.367845
3655.96, 0.367845
3658.54, 0.367903
3661.13, 0.367729
3663.71, 0.367671
3666.3, 0.367555
3668.9, 0.367265
3671.5, 0.366686
3674.1, 0.365701
3676.7, 0.364484
3679.31, 0.363094
3681.93, 0.361298
3684.54, 0.359328
3687.17, 0.357532
3689.79, 0.356141
3692.42, 0.355330
3695.05, 0.355098
3697.69, 0.355504
3700.32, 0.356779
3702.97, 0.358633
3705.61, 0.360892
3708.27, 0.363847
3710.92, 0.367149
3713.58, 0.370336
3716.24, 0.373233
3718.91, 0.375492
3721.58, 0.377230
3724.25, 0.378795
3726.93, 0.380069
3729.61, 0.381112
3732.29, 0.381981
3734.98, 0.382619
3737.67, 0.382329
3740.37, 0.380880
3743.07, 0.380591
3745.78, 0.383662
3748.49, 0.386790
3751.2, 0.388354
3753.91, 0.389397
3756.63, 0.390324
3759.36, 0.391077
3762.09, 0.391657
3764.82, 0.392178
3767.55, 0.392642
3770.29, 0.393221
3773.04, 0.393685
3775.78, 0.394206
3778.54, 0.394612
3781.29, 0.395017
3784.05, 0.395539
3786.82, 0.395886
3789.59, 0.396118
3792.36, 0.396582
3795.13, 0.396987
3797.92, 0.397219
3800.7, 0.397682
3803.49, 0.398146
3806.28, 0.398436
3809.08, 0.398783
3811.88, 0.399131
3814.68, 0.399363
3817.49, 0.399652
3820.31, 0.399884
3823.12, 0.400174
3825.94, 0.400579
3828.77, 0.400811
3831.6, 0.401043
3834.43, 0.401159
3837.27, 0.401274
3840.11, 0.401448
3842.96, 0.401738
3845.81, 0.401912
3848.67, 0.402028
3851.53, 0.402201
3854.39, 0.402433
3857.26, 0.402491
3860.13, 0.402549
3863.01, 0.402723
3865.89, 0.402839
3868.77, 0.402897
3871.66, 0.402897
3874.55, 0.402839
3877.45, 0.402839
3880.35, 0.403013
3883.26, 0.403013
3886.17, 0.403013
3889.09, 0.403013
3892.01, 0.403013
3894.93, 0.402955
3897.86, 0.402897
3900.79, 0.402781
3903.73, 0.402665
3906.67, 0.402607
3909.62, 0.402549
3912.57, 0.402433
3915.52, 0.402375
3918.48, 0.402317
3921.45, 0.402201
3924.42, 0.402086
3927.39, 0.401970
3930.37, 0.401854
3933.35, 0.401738
3936.34, 0.401564
3939.33, 0.401390
3942.32, 0.401274
3945.32, 0.401159
3948.33, 0.401159
3951.34, 0.401101
3954.35, 0.400985
3957.37, 0.400811
3960.39, 0.400637
3963.42, 0.400405
3966.45, 0.400290
3969.49, 0.400232
3972.53, 0.400116
3975.58, 0.400000
3978.63, 0.399768
3981.68, 0.399594
3984.75, 0.399536
3987.81, 0.399478
3990.88, 0.399305
3993.95, 0.399131
3997.03, 0.399073
4000.12, 0.399073
4003.21, 0.399015
4006.3, 0.398783
4009.4, 0.398551
4012.5, 0.398493
4015.61, 0.398262
4018.72, 0.398030
4021.84, 0.397798
4024.96, 0.397624
4028.09, 0.397335
4031.22, 0.397103
4034.36, 0.396929
4037.5, 0.396755
4040.65, 0.396582
4043.8, 0.396350
4046.96, 0.396060
4050.12, 0.395828
4053.29, 0.395539
4056.46, 0.395365
4059.64, 0.395075
4062.82, 0.394843
4066.0, 0.394612
4069.19, 0.394380
4072.39, 0.394206
4075.59, 0.394090
4078.8, 0.393685
4082.01, 0.393395
4085.23, 0.393163
4088.45, 0.392989
4091.68, 0.392816
4094.91, 0.392526
4098.15, 0.392294
4101.39, 0.392120
4104.63, 0.391889
4107.89, 0.391657
4111.14, 0.391425
4114.41, 0.391309
4117.67, 0.390904
4120.95, 0.390672
4124.23, 0.390556
4127.51, 0.390324
4130.8, 0.390093
4134.09, 0.389861
4137.39, 0.389629
4140.7, 0.389397
4144.01, 0.389166
4147.32, 0.389108
4150.64, 0.388992
4153.97, 0.388818
4157.3, 0.388470
4160.64, 0.388239
4163.98, 0.388123
4167.33, 0.388065
4170.68, 0.387833
4174.04, 0.387601
4177.4, 0.387369
4180.77, 0.387254
4184.14, 0.387196
4187.52, 0.386964
4190.91, 0.386732
4194.3, 0.386616
4197.69, 0.386790
4201.1, 0.387022
4204.5, 0.387196
4207.92, 0.387659
4211.34, 0.388123
4214.76, 0.388412
4218.19, 0.388760
4221.62, 0.389050
4225.06, 0.389108
4228.51, 0.389108
4231.96, 0.388702
4235.42, 0.388007
4238.88, 0.387196
4242.35, 0.386095
4245.83, 0.384589
4249.31, 0.382677
4252.79, 0.380185
4256.28, 0.377752
4259.78, 0.376245
4263.29, 0.375318
4266.79, 0.374739
4270.31, 0.375203
4273.83, 0.376477
4277.35, 0.377926
4280.89, 0.379258
4284.42, 0.380359
4287.97, 0.381054
4291.52, 0.381460
4295.07, 0.381634
4298.63, 0.381518
4302.2, 0.381286
4305.78, 0.380996
4309.35, 0.380475
4312.94, 0.380127
4316.53, 0.379606
4320.13, 0.379084
4323.73, 0.378563
4327.34, 0.377984
4330.96, 0.377288
4334.58, 0.376651
4338.21, 0.376014
4341.84, 0.375492
4345.48, 0.374971
4349.12, 0.374449
4352.77, 0.373870
4356.43, 0.373407
4360.1, 0.372885
4363.76, 0.372480
4367.44, 0.372190
4371.12, 0.371842
4374.81, 0.371553
4378.51, 0.371263
4382.21, 0.370915
4385.92, 0.370626
4389.63, 0.370220
4393.35, 0.369699
4397.08, 0.369177
4400.81, 0.368656
4404.55, 0.368192
4408.29, 0.367787
4412.04, 0.367323
4415.8, 0.366860
4419.57, 0.366396
4423.34, 0.365933
4427.12, 0.365469
4430.9, 0.365064
4434.69, 0.364716
4438.49, 0.364252
4442.29, 0.363615
4446.1, 0.363094
4449.92, 0.362456
4453.74, 0.361587
4457.57, 0.360602
4461.41, 0.359617
4465.25, 0.358459
4469.1, 0.356952
4472.95, 0.355446
4476.82, 0.354055
4480.69, 0.352665
4484.56, 0.351506
4488.44, 0.350463
4492.33, 0.349826
4496.23, 0.349247
4500.13, 0.348609
4504.04, 0.348146
4507.96, 0.347798
4511.88, 0.347335
4515.81, 0.346871
4519.75, 0.346697
4523.69, 0.346639
4527.65, 0.346408
4531.6, 0.346118
4535.57, 0.345655
4539.54, 0.345017
4543.52, 0.344264
4547.5, 0.343453
4551.5, 0.342468
4555.5, 0.341251
4559.5, 0.339861
4563.52, 0.338412
4567.54, 0.336906
4571.56, 0.335400
4575.6, 0.333835
4579.64, 0.332271
4583.69, 0.330533
4587.75, 0.328737
4591.81, 0.326883
4595.88, 0.324971
4599.96, 0.322827
4604.04, 0.320568
4608.14, 0.318018
4612.24, 0.315469
4616.34, 0.312746
4620.46, 0.310081
4624.58, 0.307242
4628.71, 0.304577
4632.84, 0.301970
4636.99, 0.299421
4641.14, 0.296813
4645.3, 0.294322
4649.47, 0.292062
4653.64, 0.290035
4657.82, 0.288239
4662.01, 0.286848
4666.21, 0.285863
4670.41, 0.285052
4674.62, 0.284299
4678.84, 0.283835
4683.07, 0.283372
4687.3, 0.282966
4691.54, 0.282619
4695.79, 0.282387
4700.05, 0.282155
4704.31, 0.281981
4708.59, 0.281923
4712.87, 0.281750
4717.15, 0.281518
4721.45, 0.281286
4725.76, 0.280996
4730.07, 0.280707
4734.39, 0.280475
4738.72, 0.280243
4743.05, 0.279780
4747.39, 0.279374
4751.75, 0.278911
4756.1, 0.278389
4760.47, 0.277752
4764.85, 0.276999
4769.23, 0.276014
4773.62, 0.274855
4778.02, 0.273465
4782.43, 0.272132
4786.85, 0.270684
4791.27, 0.269061
4795.7, 0.267323
4800.14, 0.265643
4804.59, 0.263847
4809.05, 0.261993
4813.51, 0.260139
4817.99, 0.258227
4822.47, 0.256199
4826.96, 0.254287
4831.46, 0.252491
4835.96, 0.250695
4840.48, 0.248899
4845.0, 0.247335
4849.54, 0.245655
4854.08, 0.244032
4858.63, 0.242526
4863.18, 0.240962
4867.75, 0.239281
4872.33, 0.237659
4876.91, 0.235921
4881.5, 0.234241
4886.1, 0.232619
4890.71, 0.231112
4895.33, 0.229722
4899.96, 0.228447
4904.59, 0.227231
4909.24, 0.226361
4913.89, 0.225434
4918.55, 0.224449
4923.22, 0.223522
4927.9, 0.222595
4932.59, 0.221553
4937.29, 0.220336
4942.0, 0.218945
4946.71, 0.217497
4951.44, 0.215817
4956.17, 0.213963
4960.91, 0.211877
4965.67, 0.209733
4970.43, 0.207532
4975.2, 0.205330
4979.98, 0.203129
4984.76, 0.201043
4989.56, 0.198957
4994.37, 0.196929
4999.18, 0.195075
5004.01, 0.192989
5008.84, 0.190730
5013.69, 0.188644
5018.54, 0.186501
5023.4, 0.184125
5028.28, 0.181518
5033.16, 0.178795
5038.05, 0.175840
5042.95, 0.173001
5047.86, 0.169988
5052.78, 0.166802
5057.71, 0.163673
5062.65, 0.160487
5067.6, 0.157300
5072.56, 0.154171
5077.53, 0.151043
5082.5, 0.148030
5087.49, 0.144901
5092.49, 0.141831
5097.5, 0.138876
5102.51, 0.135979
5107.54, 0.133140
5112.58, 0.130475
5117.62, 0.128158
5122.68, 0.125956
5127.75, 0.123812
5132.82, 0.122016
5137.91, 0.120452
5143.01, 0.119003
5148.12, 0.117903
5153.23, 0.116802
5158.36, 0.115817
5163.5, 0.114948
5168.65, 0.114311
5173.81, 0.113847
5178.98, 0.113499
5184.15, 0.113384
5189.34, 0.113499
5194.54, 0.113615
5199.75, 0.113789
5204.98, 0.114079
5210.21, 0.114600
5215.45, 0.115122
5220.7, 0.115353
5225.96, 0.115875
5231.23, 0.116512
5236.52, 0.117265
5241.81, 0.118076
5247.12, 0.118714
5252.44, 0.119409
5257.76, 0.120162
5263.1, 0.120973
5268.45, 0.121726
5273.81, 0.122306
5279.18, 0.122769
5284.56, 0.123175
5289.95, 0.123465
5295.36, 0.123407
5300.77, 0.123233
5306.2, 0.123059
5311.63, 0.122711
5317.08, 0.122248
5322.54, 0.121669
5328.01, 0.120973
5333.49, 0.120220
5338.98, 0.119351
5344.49, 0.118424
5350.0, 0.117555
5355.53, 0.116280
5361.07, 0.114774
5366.62, 0.113268
5372.18, 0.111819
5377.75, 0.110371
5383.34, 0.108806
5388.93, 0.107126
5394.54, 0.105504
5400.16, 0.103998
5405.79, 0.102491
5411.44, 0.100927
5417.09, 0.0997100
5422.76, 0.0984940
5428.43, 0.0970450
5434.12, 0.0955970
5439.83, 0.0939740
5445.54, 0.0922940
5451.26, 0.0906140
5457.0, 0.0888180
5462.75, 0.0872540
5468.52, 0.0855160
5474.29, 0.0840090
5480.08, 0.0830820
5485.88, 0.0826770
5491.69, 0.0829080
5497.51, 0.0837770
5503.35, 0.0852840
5509.2, 0.0872540
5515.06, 0.0895130
5520.93, 0.0920630
5526.82, 0.0946700
5532.71, 0.0971030
5538.63, 0.0994790
5544.55, 0.101796
5550.49, 0.103882
5556.44, 0.105620
5562.4, 0.107126
5568.37, 0.108343
5574.36, 0.109386
5580.36, 0.110081
5586.37, 0.110255
5592.4, 0.110255
5598.44, 0.110313
5604.49, 0.110081
5610.56, 0.109560
5616.63, 0.109096
5622.73, 0.108343
5628.83, 0.107590
5634.95, 0.106952
5641.08, 0.106257
5647.23, 0.105214
5653.39, 0.104171
5659.56, 0.103187
5665.74, 0.102317
5671.94, 0.101796
5678.15, 0.101333
5684.38, 0.100811
5690.62, 0.100579
5696.87, 0.100406
5703.14, 0.100406
5709.42, 0.100637
5715.72, 0.100637
5722.03, 0.100463
5728.35, 0.100348
5734.69, 0.100348
5741.03, 0.100290
5747.4, 0.100232
5753.78, 0.0997100
5760.17, 0.0994790
5766.58, 0.0995360
5773.0, 0.0988410
5779.44, 0.0980300
5785.88, 0.0975670
5792.35, 0.0971610
5798.83, 0.0968710
5805.32, 0.0966980
5811.83, 0.0967550
5818.35, 0.0972770
5824.89, 0.0976250
5831.45, 0.0975670
5838.01, 0.0975670
5844.59, 0.0977980
5851.19, 0.0982620
5857.8, 0.0987250
5864.43, 0.0991890
5871.07, 0.0995360
5877.73, 0.100406
5884.4, 0.100695
5891.09, 0.100637
5897.79, 0.100811
5904.5, 0.100348
5911.23, 0.100058
5917.98, 0.0998840
5924.75, 0.0995940
5931.53, 0.0997680
5938.32, 0.0998260
5945.13, 0.0990150
5951.96, 0.0983780
5958.8, 0.0980880
5965.65, 0.0979140
5972.53, 0.0975090
5979.42, 0.0969870
5986.32, 0.0966980
5993.24, 0.0960020
6000.18, 0.0950750
6007.13, 0.0942640
6014.1, 0.0935110
6021.08, 0.0925260
6028.09, 0.0913090
6035.1, 0.0903820
6042.14, 0.0902660
6049.19, 0.0906140
6056.25, 0.0899770
6063.34, 0.0895130
6070.44, 0.0894550
6077.55, 0.0891080
6084.69, 0.0885280
6091.84, 0.0880070
6099.0, 0.0876010
6106.19, 0.0873120
6113.39, 0.0873120
6120.61, 0.0867900
6127.84, 0.0863270
6135.09, 0.0862110
6142.36, 0.0865010
6149.65, 0.0867900
6156.95, 0.0873120
6164.27, 0.0877750
6171.61, 0.0882970
6178.97, 0.0891660
6186.34, 0.0899770
6193.73, 0.0902660
6201.14, 0.0904980
6208.57, 0.0907300
6216.01, 0.0910200
6223.47, 0.0910780
6230.95, 0.0908460
6238.45, 0.0903820
6245.97, 0.0898030
6253.5, 0.0891080
6261.06, 0.0884120
6268.63, 0.0876590
6276.21, 0.0869640
6283.82, 0.0863270
6291.45, 0.0855740
6299.1, 0.0849360
6306.76, 0.0843570
6314.44, 0.0840090
6322.14, 0.0836620
6329.86, 0.0833140
6337.6, 0.0833140
6345.35, 0.0833140
6353.13, 0.0828500
6360.92, 0.0825030
6368.74, 0.0823870
6376.57, 0.0820390
6384.43, 0.0815760
6392.3, 0.0809960
6400.19, 0.0805330
6408.1, 0.0805910
6416.03, 0.0805330
6423.98, 0.0796060
6431.95, 0.0789110
6439.94, 0.0782150
6447.95, 0.0775780
6455.98, 0.0771730
6464.03, 0.0769410
6472.1, 0.0768250
6480.19, 0.0767090
6488.31, 0.0767670
6496.44, 0.0767090
6504.59, 0.0762460
6512.76, 0.0760140
6520.95, 0.0759560
6529.16, 0.0756080
6537.4, 0.0754340
6545.65, 0.0752030
6553.92, 0.0749130
6562.22, 0.0745080
6570.54, 0.0741600
6578.88, 0.0734070
6587.23, 0.0724800
6595.61, 0.0715530
6604.02, 0.0706840
6612.44, 0.0698150
6620.89, 0.0688300
6629.35, 0.0683080
6637.84, 0.0675550
6646.35, 0.0663380
6654.88, 0.0655270
6663.44, 0.0650060
6672.01, 0.0646000
6680.61, 0.0643110
6689.23, 0.0637890
6697.88, 0.0632680
6706.54, 0.0629780
6715.23, 0.0627460
6723.94, 0.0621090
6732.67, 0.0612980
6741.42, 0.0605450
6750.2, 0.0596760
6759.0, 0.0587490
6767.82, 0.0579950
6776.67, 0.0571840
6785.54, 0.0566050
6794.44, 0.0558520
6803.35, 0.0550980
6812.29, 0.0547510
6821.26, 0.0546350
6830.24, 0.0544610
6839.25, 0.0543450
6848.29, 0.0544030
6857.35, 0.0545770
6866.43, 0.0545190
6875.54, 0.0541710
6884.67, 0.0539400
6893.82, 0.0536500
6903.0, 0.0534760
6912.2, 0.0531870
6921.43, 0.0526650
6930.69, 0.0520860
6939.96, 0.0515060
6949.27, 0.0510430
6958.59, 0.0505210
6967.95, 0.0497680
6977.33, 0.0490730
6986.73, 0.0485520
6996.16, 0.0479140
7005.61, 0.0472770
7015.09, 0.0466400
7024.6, 0.0458860
7034.13, 0.0451910
7043.69, 0.0446700
7053.27, 0.0439170
7062.88, 0.0432210
7072.52, 0.0427000
7082.18, 0.0421780
7091.87, 0.0415410
7101.58, 0.0410780
7111.32, 0.0407300
7121.09, 0.0402090
7130.88, 0.0395710
7140.71, 0.0391080
7150.56, 0.0386440
7160.43, 0.0381230
7170.33, 0.0376590
7180.27, 0.0370800
7190.23, 0.0364430
7200.21, 0.0360950
7210.23, 0.0355740
7220.27, 0.0350520
7230.34, 0.0343570
7240.44, 0.0338350
7250.56, 0.0333140
7260.72, 0.0327930
7270.9, 0.0322710
7281.12, 0.0316340
7291.36, 0.0309970
7301.63, 0.0304170
7311.93, 0.0297800
7322.25, 0.0293160
7332.61, 0.0289110
7343.0, 0.0283890
7353.41, 0.0279260
7363.86, 0.0275200
7374.33, 0.0271150
7384.83, 0.0267090
7395.37, 0.0261880
7405.93, 0.0258400
7416.53, 0.0255500
7427.15, 0.0252030
7437.81, 0.0247970
7448.5, 0.0245080
7459.22, 0.0241600
7469.96, 0.0237540
7480.74, 0.0233490
7491.55, 0.0229430
7502.39, 0.0226540
7513.27, 0.0222480
7524.17, 0.0217840
7535.11, 0.0213210
7546.08, 0.0208570
7557.08, 0.0205680
7568.11, 0.0201620
7579.17, 0.0196990
7590.27, 0.0191770
7601.4, 0.0186560
7612.56, 0.0181920
7623.76, 0.0177290
7634.98, 0.0173230
7646.24, 0.0170920
7657.54, 0.0167440
7668.87, 0.0163960
7680.23, 0.0160490
7691.62, 0.0157590
7703.05, 0.0154110
7714.51, 0.0150640
7726.01, 0.0146580
7737.54, 0.0143110
7749.11, 0.0139630
7760.71, 0.0136150
7772.35, 0.0132100
7784.02, 0.0128040
7795.72, 0.0124570
7807.46, 0.0120510
7819.23, 0.0116450
7831.04, 0.0112980
7842.89, 0.0108340
7854.77, 0.0104870
7866.69, 0.0102550
7878.65, 0.0100230
7890.64, 0.00967600
7902.67, 0.00944400
7914.74, 0.00921200
7926.84, 0.00886400
7938.98, 0.00845900
7951.16, 0.00816900
7963.37, 0.00793700
7975.62, 0.00776400
7987.91, 0.00759000
8000.24, 0.00741600
8012.6, 0.00718400
8025.01, 0.00718400
8037.45, 0.00706800
8049.93, 0.00683700
8062.45, 0.00666300
8075.01, 0.00654700
8087.61, 0.00625700
8100.24, 0.00619900
8112.91, 0.00625700
8125.63, 0.00625700
8138.39, 0.00625700
8151.18, 0.00625700
8164.02, 0.00625700
8176.9, 0.00637300
8189.81, 0.00637300
8202.77, 0.00637300
8215.77, 0.00643100
8228.82, 0.00660500
8241.9, 0.00677900
8255.02, 0.00706800
8268.19, 0.00730000
8281.39, 0.00759000
8294.65, 0.00793700
8307.94, 0.00828500
8321.28, 0.00874900
8334.66, 0.00927000
8348.08, 0.00973300
8361.54, 0.0105450
8375.05, 0.0112980
8388.6, 0.0119930
8402.2, 0.0128040
8415.84, 0.0137310
8429.52, 0.0148320
8443.25, 0.0161650
8457.02, 0.0176130
8470.84, 0.0191190
8484.7, 0.0208000
8498.61, 0.0226540
8512.57, 0.0245080
8526.57, 0.0265350
8540.62, 0.0289110
8554.71, 0.0316340
8568.85, 0.0345310
8583.04, 0.0376590
8597.27, 0.0411360
8611.55, 0.0449590
8625.88, 0.0492470
8640.26, 0.0541140
8654.68, 0.0595020
8669.16, 0.0654110
8683.68, 0.0721320
8698.25, 0.0797220
8712.87, 0.0882390
8727.53, 0.0974510
8742.25, 0.107474
8757.02, 0.118076
8771.83, 0.128969
8786.7, 0.139919
8801.62, 0.150695
8816.59, 0.160429
8831.61, 0.168424
8846.68, 0.173928
8861.8, 0.176419
8876.97, 0.175087
8892.2, 0.168945
8907.48, 0.156894
8922.81, 0.139108
8938.2, 0.118250
8953.63, 0.0973930
8969.13, 0.0781580
8984.67, 0.0620510
9000.27, 0.0521440
9015.92, 0.0499420
9031.63, 0.0539980
9047.39, 0.0618770
9063.21, 0.0721320
9079.08, 0.0837770
9095.01, 0.0962920
9111.0, 0.109212
9127.04, 0.122248
9143.13, 0.135805
9159.28, 0.150232
9175.49, 0.165701
9191.76, 0.181518
9208.09, 0.197393
9224.47, 0.213152
9240.92, 0.227984
9257.42, 0.241599
9273.98, 0.253998
9290.6, 0.264137
9307.28, 0.271379
9324.02, 0.275319
9340.82, 0.276072
9357.68, 0.275145
9374.6, 0.275029
9391.58, 0.276419
9408.62, 0.278215
9425.73, 0.278679
9442.9, 0.277462
9460.13, 0.274218
9477.42, 0.269235
9494.78, 0.262920
9512.2, 0.255794
9529.69, 0.248146
9547.24, 0.241078
9564.86, 0.234067
9582.54, 0.226941
9600.28, 0.219235
9618.1, 0.210602
9635.97, 0.201390
9653.92, 0.191251
9671.93, 0.179606
9690.01, 0.166454
9708.16, 0.151970
9726.37, 0.136501
9744.65, 0.121031
9763.0, 0.107879
9781.43, 0.0987250
9799.92, 0.0948440
9818.48, 0.0965240
9837.1, 0.102897
9855.8, 0.111935
9874.58, 0.121321
9893.42, 0.128563
9912.34, 0.131576
9931.33, 0.130243
9950.39, 0.125203
9969.52, 0.118076
9988.74, 0.110834
10008.0, 0.104056
10027.4, 0.0980300
10046.8, 0.0922940
10066.3, 0.0871380
10085.9, 0.0826770
10105.6, 0.0787950
10125.3, 0.0752030
10145.1, 0.0720740
10165.0, 0.0691190
10185.0, 0.0662220
10205.0, 0.0633840
10225.2, 0.0603130
10245.4, 0.0569520
10265.7, 0.0538820
10286.0, 0.0513330
10306.5, 0.0485520
10327.0, 0.0457130
10347.6, 0.0429900
10368.3, 0.0403820
10389.1, 0.0379490
10409.9, 0.0356890
10430.9, 0.0335460
10451.9, 0.0314020
10473.0, 0.0296640
10494.2, 0.0286210
10515.5, 0.0286210
10536.9, 0.0302430
10558.4, 0.0333720
10579.9, 0.0380070
10601.5, 0.0430470
10623.3, 0.0472190
10645.1, 0.0498840
10667.0, 0.0509850
10689.0, 0.0509270
10711.1, 0.0504630
10733.2, 0.0500580
10755.5, 0.0505210
10777.9, 0.0523170
10800.3, 0.0555620
10822.9, 0.0599650
10845.5, 0.0645420
10868.2, 0.0685980
10891.1, 0.0724800
10914.0, 0.0764190
10937.0, 0.0801270
10960.2, 0.0822130
10983.4, 0.0820970
11006.7, 0.0800690
11030.1, 0.0773460
11053.6, 0.0747390
11077.3, 0.0723640
11101.0, 0.0703360
11124.8, 0.0687140
11148.7, 0.0673810
11172.7, 0.0662220
11196.9, 0.0650060
11221.1, 0.0640210
11245.4, 0.0633260
11269.9, 0.0626300
11294.4, 0.0618190
11319.1, 0.0612400
11343.9, 0.0605450
11368.8, 0.0598490
11393.7, 0.0593280
11418.8, 0.0589800
11444.0, 0.0585170
11469.4, 0.0582270
11494.8, 0.0579950
11520.3, 0.0574160
11546.0, 0.0567210
11571.8, 0.0559680
11597.7, 0.0550980
11623.7, 0.0544610
11649.8, 0.0539400
11676.0, 0.0531290
11702.4, 0.0520860
11728.9, 0.0511590
11755.5, 0.0503480
11782.2, 0.0494210
11809.0, 0.0483780
11836.0, 0.0475670
11863.0, 0.0468130
11890.3, 0.0457710
11917.6, 0.0444960
11945.0, 0.0433370
11972.6, 0.0421200
12000.4, 0.0411360
12028.2, 0.0404400
12056.2, 0.0392820
12084.3, 0.0378330
12112.5, 0.0366740
12140.9, 0.0358050
12169.4, 0.0344730
12198.0, 0.0330820
12226.8, 0.0318080
12255.7, 0.0303010
12284.7, 0.0285630
12313.9, 0.0269990
12343.2, 0.0256080
12372.7, 0.0237540
12402.3, 0.0223640
12432.0, 0.0213790
12461.9, 0.0208000
12491.9, 0.0208570
12522.1, 0.0219580
12552.4, 0.0232910
12582.9, 0.0242180
12613.5, 0.0245080
12644.3, 0.0250290
12675.2, 0.0253770
12706.3, 0.0257820
12737.5, 0.0265350
12768.9, 0.0268830
12800.4, 0.0265350
12832.1, 0.0260140
12863.9, 0.0253770
12895.9, 0.0247390
12928.1, 0.0243340
12960.4, 0.0237540
12992.9, 0.0227110
13025.5, 0.0218420
13058.3, 0.0211470
13091.3, 0.0207420
13124.4, 0.0203360
13157.8, 0.0197570
13191.2, 0.0192930
13224.9, 0.0191190
13258.7, 0.0188300
13292.7, 0.0188880
13326.9, 0.0186560
13361.2, 0.0183660
13395.7, 0.0180760
13430.4, 0.0181920
13465.3, 0.0183660
13500.4, 0.0183080
13535.7, 0.0177870
13571.1, 0.0172070
13606.7, 0.0164540
13642.5, 0.0159910
13678.5, 0.0157010
13714.7, 0.0150060
13751.1, 0.0139630
13787.6, 0.0134990
13824.4, 0.0130940
13861.4, 0.0123990
13898.5, 0.0120510
13935.9, 0.0117030
13973.5, 0.0117610
14011.2, 0.0119930
14049.2, 0.0122250
14087.4, 0.0126300
14125.8, 0.0130940
14164.3, 0.0142530
14203.2, 0.0154690
14242.2, 0.0161070
14281.4, 0.0166860
14320.9, 0.0177290
14360.5, 0.0184240
14400.4, 0.0188300
14440.5, 0.0195250
14480.9, 0.0203360
14521.4, 0.0203360
14562.2, 0.0201620
14603.3, 0.0201040
14644.5, 0.0203940
14686.0, 0.0202200
14727.7, 0.0200460
14769.7, 0.0201040
14811.9, 0.0203940
14854.3, 0.0206840
14897.0, 0.0204520
14939.9, 0.0203940
14983.1, 0.0205100
15026.5, 0.0211470
15070.2, 0.0219580
15114.2, 0.0220160
15158.3, 0.0227690
15202.8, 0.0234070
15247.5, 0.0239280
15292.5, 0.0245650
15337.7, 0.0256660
15383.2, 0.0270570
15429.0, 0.0286790
15475.1, 0.0301270
15521.4, 0.0309970
15568.0, 0.0313440
15614.9, 0.0325610
15662.1, 0.0341830
15709.6, 0.0355160
15757.3, 0.0369640
15805.4, 0.0392820
15853.7, 0.0419470
15902.3, 0.0456550
15951.2, 0.0507530
16000.5, 0.0568950
16050.0, 0.0636730
16099.8, 0.0719580
16150.0, 0.0809390
16200.5, 0.0904980
16251.3, 0.100695
16302.4, 0.111240
16353.8, 0.120452
16405.5, 0.128100
16457.6, 0.134357
16510.0, 0.138528
16562.8, 0.142120
16615.9, 0.147567
16669.3, 0.155620
16723.1, 0.165353
16777.2, 0.175145
16831.7, 0.184704
16886.5, 0.193974
16941.7, 0.203244
16997.2, 0.211356
17053.1, 0.219409
17109.4, 0.228215
17166.1, 0.236095
17223.1, 0.243047
17280.5, 0.250232
17338.3, 0.258169
17396.5, 0.265006
17455.1, 0.269641
17514.0, 0.273175
17573.4, 0.276072
17633.2, 0.278273
17693.4, 0.278157
17754.0, 0.276535
17815.0, 0.274971
17876.4, 0.273522
17938.3, 0.271437
18000.5, 0.270220
18063.3, 0.269583
18126.4, 0.268424
18190.0, 0.266628
18254.1, 0.262978
18318.6, 0.259270
18383.5, 0.255330
18449.0, 0.249594
18514.9, 0.241657
18581.2, 0.232908
18648.0, 0.223117
18715.4, 0.211877
18783.2, 0.200058
18851.5, 0.189166
18920.3, 0.178853
18989.6, 0.167961
19059.4, 0.156547
19129.7, 0.146060
19200.6, 0.136674
19272.0, 0.127288
19343.9, 0.119235
19416.3, 0.111645
19489.3, 0.103708
19562.8, 0.0955970
19637.0, 0.0888180
19711.6, 0.0835460
19786.8, 0.0790850
19862.6, 0.0747390
19939.0, 0.0694090
20016.0, 0.0633840
20093.6, 0.0569520
20171.8, 0.0522600
20250.6, 0.0501160
20330.0, 0.0520860
20410.0, 0.0610080
20490.7, 0.0789110
20572.0, 0.105041
20654.0, 0.136327
20736.6, 0.166686
20819.9, 0.190151
20903.8, 0.206894
20988.5, 0.218772
21073.8, 0.226535
21159.8, 0.231054
21246.5, 0.232155
21334.0, 0.228389
21422.1, 0.219119
21511.0, 0.204809
21600.7, 0.188586
21691.0, 0.172943
21782.1, 0.159386
21874.0, 0.148378
21966.7, 0.139166
22060.2, 0.130243
22154.5, 0.122190
22249.6, 0.115122
22345.5, 0.111414
22442.2, 0.107706
22539.8, 0.102839
22638.2, 0.101448
22737.5, 0.106895
22837.7, 0.118308
22938.7, 0.136848
23040.7, 0.154693
23143.5, 0.167149
23247.3, 0.172364
23352.1, 0.170742
23457.7, 0.168018
23564.4, 0.165527
23672.0, 0.163731
23780.5, 0.162688
23890.1, 0.160371
24000.7, 0.160950
24112.3, 0.158517
24225.0, 0.155098
24338.7, 0.153071
24453.5, 0.155678
24569.4, 0.154171
24686.4, 0.148841
24804.5, 0.145365
24923.8, 0.137833
