Database of Origin,USGS Spectral Database
Sample Description,See USGS database for additional info
Date Added,2017-02-22 02:48:44.050912

Data ID,USGS_zoi01          
Sample ID,zoisite_hs347.23707
Mineral Name,zoisite

Wavelength
229.1, 0.0565710
236.1, 0.0566010
242.1, 0.0562740
248.1, 0.0539860
253.6, 0.0546590
258.6, 0.0567950
263.6, 0.0576060
268.6, 0.0579330
273.1, 0.0579830
277.1, 0.0589490
281.1, 0.0596720
285.1, 0.0609370
289.1, 0.0610990
293.1, 0.0618460
297.1, 0.0648710
301.1, 0.0692030
305.1, 0.0726180
309.1, 0.0773930
313.1, 0.0811560
317.1, 0.0902320
321.1, 0.100340
325.1, 0.115828
329.1, 0.135915
333.1, 0.164286
337.1, 0.193468
341.1, 0.221380
345.1, 0.248297
349.1, 0.275715
353.1, 0.296983
357.1, 0.315818
360.6, 0.330250
363.6, 0.340107
366.6, 0.347560
369.6, 0.349005
372.6, 0.350883
375.6, 0.348538
378.6, 0.346106
381.1, 0.338806
383.1, 0.332545
385.1, 0.325279
387.1, 0.317089
389.1, 0.305793
391.1, 0.295965
393.1, 0.286756
395.1, 0.277279
397.1, 0.268794
399.1, 0.260765
401.1, 0.253466
403.1, 0.245550
405.1, 0.238991
407.1, 0.231848
409.1, 0.225493
411.1, 0.220894
412.8, 0.215569
415.8, 0.208810
418.8, 0.203449
421.8, 0.197919
424.8, 0.194215
427.8, 0.193335
430.8, 0.193410
433.8, 0.195946
436.8, 0.199321
439.8, 0.203735
442.8, 0.211155
445.8, 0.219615
448.8, 0.229378
451.3, 0.238168
453.3, 0.246134
455.3, 0.250737
457.3, 0.263396
459.3, 0.271677
461.3, 0.280135
463.3, 0.285028
465.3, 0.287339
467.3, 0.285558
469.3, 0.284695
471.3, 0.282036
473.3, 0.277868
475.3, 0.268988
477.3, 0.261276
479.3, 0.253700
481.3, 0.253631
483.3, 0.255601
485.3, 0.247950
487.3, 0.249332
489.3, 0.251121
491.3, 0.246442
493.3, 0.239220
495.3, 0.231303
497.3, 0.221354
499.3, 0.213497
501.3, 0.205761
503.3, 0.197632
505.3, 0.190785
507.3, 0.184425
509.3, 0.179114
511.3, 0.174159
513.3, 0.168912
515.3, 0.165808
517.3, 0.163593
519.3, 0.160032
521.3, 0.158719
523.3, 0.157275
525.3, 0.155907
527.3, 0.155098
529.3, 0.154599
531.3, 0.156056
533.3, 0.155912
535.3, 0.157810
537.3, 0.160813
539.3, 0.161719
541.3, 0.164692
543.3, 0.166914
545.3, 0.171013
547.3, 0.174174
549.3, 0.178455
551.3, 0.183853
553.3, 0.189432
555.3, 0.195484
557.3, 0.202805
559.3, 0.209993
561.3, 0.218509
563.3, 0.229055
565.3, 0.239440
567.3, 0.249557
569.3, 0.261100
571.3, 0.274749
573.3, 0.287867
575.3, 0.302988
577.3, 0.316372
579.3, 0.330614
581.3, 0.346376
583.3, 0.360440
585.3, 0.377172
587.3, 0.392009
589.3, 0.408716
591.3, 0.424339
593.3, 0.437040
595.3, 0.451000
597.3, 0.463444
599.3, 0.476525
601.1, 0.488161
602.7, 0.495690
604.3, 0.503646
605.9, 0.511237
607.5, 0.518094
609.1, 0.524229
610.7, 0.528476
612.3, 0.532990
613.9, 0.537137
615.5, 0.540617
617.1, 0.543174
618.7, 0.544458
620.3, 0.546647
621.9, 0.546724
623.5, 0.546042
625.1, 0.546045
626.7, 0.545280
628.3, 0.544056
629.9, 0.541632
631.7, 0.539060
633.7, 0.536227
635.7, 0.533700
637.7, 0.529310
639.7, 0.525878
641.7, 0.522772
643.7, 0.518297
645.7, 0.513518
647.7, 0.509739
649.7, 0.504135
651.7, 0.499425
653.7, 0.494843
655.7, 0.489507
657.7, 0.485093
659.7, 0.480667
661.7, 0.476065
663.7, 0.471913
665.7, 0.465804
667.7, 0.462471
670.2, 0.456306
673.2, 0.449524
676.2, 0.444247
679.2, 0.437482
682.2, 0.430958
685.2, 0.425591
688.2, 0.421093
691.2, 0.415613
694.2, 0.409498
697.2, 0.404980
700.2, 0.400405
702.0, 0.397567
704.0, 0.393887
706.0, 0.391378
708.0, 0.388030
710.0, 0.385538
712.0, 0.383029
714.0, 0.381228
716.0, 0.378474
718.0, 0.375209
720.0, 0.372940
722.0, 0.370723
724.0, 0.369277
726.0, 0.366516
728.0, 0.365694
730.0, 0.363024
732.0, 0.361054
734.0, 0.358681
736.0, 0.356655
738.0, 0.355564
740.0, 0.355247
742.0, 0.353024
744.0, 0.351243
746.0, 0.349801
748.0, 0.348351
750.5, 0.347353
753.5, 0.345253
756.5, 0.345130
759.5, 0.343562
762.5, 0.341988
765.5, 0.341253
768.5, 0.341194
771.5, 0.340294
774.5, 0.340476
777.5, 0.338976
781.0, 0.339609
785.0, 0.339053
789.0, 0.338879
793.0, 0.340827
797.0, 0.340485
801.5, 0.340804
806.5, 0.343615
811.5, 0.344757
816.5, 0.346660
822.0, 0.349629
828.0, 0.351879
835.0, 0.356229
843.0, 0.363733
851.0, 0.375010
859.0, 0.384793
871.0, 0.395231
883.0, 0.408160
894.0, 0.427181
904.0, 0.439849
914.0, 0.452584
924.0, 0.466385
933.0, 0.483818
941.0, 0.495449
949.0, 0.509145
957.0, 0.523723
964.0, 0.536442
970.0, 0.545641
976.0, 0.553193
982.0, 0.563094
988.0, 0.573136
994.0, 0.581157
1000.0, 0.589702
1006.0, 0.598783
1012.0, 0.604494
1018.0, 0.616587
1023.5, 0.624834
1028.5, 0.628114
1033.5, 0.631976
1038.5, 0.639784
1043.5, 0.646200
1048.5, 0.650744
1053.5, 0.655610
1058.5, 0.659121
1063.5, 0.662937
1068.5, 0.667607
1073.5, 0.671340
1078.5, 0.676326
1083.5, 0.677967
1088.5, 0.683438
1093.5, 0.686931
1098.5, 0.688754
1103.5, 0.691383
1108.5, 0.694016
1113.5, 0.697868
1118.5, 0.702968
1123.5, 0.704161
1128.5, 0.707020
1133.5, 0.708913
1138.5, 0.712931
1143.5, 0.716472
1148.5, 0.718307
1153.5, 0.719365
1158.5, 0.722625
1163.5, 0.726493
1168.5, 0.727277
1173.5, 0.730220
1178.5, 0.733357
1183.5, 0.737278
1188.5, 0.741521
1193.5, 0.744185
1198.5, 0.749021
1203.5, 0.751659
1208.5, 0.757156
1213.5, 0.759976
1218.5, 0.765301
1223.5, 0.767887
1228.5, 0.772442
1233.5, 0.775961
1238.5, 0.778747
1243.5, 0.783535
1248.5, 0.785627
1253.5, 0.789711
1258.5, 0.792665
1263.5, 0.798855
1268.5, 0.800213
1273.5, 0.803406
1278.5, 0.808250
1283.5, 0.812027
1288.5, 0.817204
1293.5, 0.821329
1298.5, 0.822162
1303.5, 0.825301
1308.5, 0.832814
1313.5, 0.834858
1318.5, 0.836934
1323.5, 0.841157
1328.5, 0.841525
1333.5, 0.844316
1338.5, 0.847613
1343.5, 0.847728
1348.5, 0.849706
1353.5, 0.850133
1358.5, 0.852573
1363.5, 0.851364
1368.5, 0.852840
1373.5, 0.853120
1378.5, 0.851207
1383.5, 0.844652
1388.5, 0.827835
1393.5, 0.825107
1398.5, 0.839161
1403.5, 0.840324
1408.5, 0.836907
1413.5, 0.835846
1418.5, 0.836402
1423.5, 0.835597
1428.5, 0.836575
1433.5, 0.837234
1438.5, 0.836247
1443.5, 0.834941
1448.5, 0.835087
1453.5, 0.835432
1458.5, 0.837605
1463.5, 0.837945
1468.5, 0.836456
1473.5, 0.836537
1478.5, 0.835774
1483.5, 0.834456
1488.5, 0.828620
1493.5, 0.829243
1498.5, 0.825116
1503.5, 0.817263
1508.5, 0.813336
1513.5, 0.808613
1518.5, 0.801770
1523.5, 0.790311
1528.5, 0.783346
1534.0, 0.774572
1540.0, 0.763832
1546.0, 0.753888
1552.0, 0.742614
1558.0, 0.735522
1564.0, 0.726567
1570.5, 0.717824
1577.5, 0.707962
1584.5, 0.697122
1591.5, 0.688003
1598.5, 0.676418
1605.5, 0.663001
1612.5, 0.650031
1619.5, 0.636739
1626.5, 0.625790
1633.5, 0.615083
1640.5, 0.603812
1647.5, 0.590832
1654.5, 0.581813
1661.5, 0.577749
1668.5, 0.577654
1676.0, 0.580526
1684.0, 0.580709
1692.0, 0.587815
1700.0, 0.587203
1708.0, 0.595814
1716.0, 0.603546
1724.0, 0.611129
1732.0, 0.626101
1740.0, 0.630400
1748.0, 0.644922
1756.0, 0.650559
1764.0, 0.660110
1772.0, 0.665632
1780.0, 0.679597
1788.0, 0.692520
1796.0, 0.696939
1805.0, 0.704609
1815.0, 0.712893
1825.0, 0.714768
1835.0, 0.695791
1845.0, 0.673244
1855.0, 0.675860
1865.0, 0.680761
1875.0, 0.684004
1885.0, 0.681799
1895.0, 0.678826
1905.0, 0.674922
1915.0, 0.668143
1925.0, 0.663412
1935.0, 0.665788
1945.0, 0.679569
1955.0, 0.684466
1965.0, 0.689952
1975.0, 0.699195
1985.0, 0.702791
1995.0, 0.711739
2005.0, 0.712551
2015.0, 0.720120
2025.0, 0.723066
2035.0, 0.725446
2045.0, 0.728455
2055.0, 0.731132
2065.0, 0.725156
2075.0, 0.721076
2085.0, 0.728030
2095.0, 0.727789
2105.0, 0.734653
2115.0, 0.734901
2125.0, 0.733787
2135.0, 0.740302
2145.0, 0.732610
2155.0, 0.730618
2165.0, 0.732224
2175.0, 0.729217
2185.0, 0.718827
2195.0, 0.708268
2205.0, 0.708418
2215.0, 0.700632
2225.0, 0.692220
2235.0, 0.675941
2245.0, 0.642896
2255.0, 0.619997
2265.0, 0.614738
2275.0, 0.601071
2285.0, 0.556865
2295.0, 0.475765
2305.0, 0.495655
2315.0, 0.518143
2325.0, 0.515124
2335.0, 0.488932
2345.0, 0.471340
2355.0, 0.471304
2365.0, 0.503369
2375.0, 0.548729
2386.0, 0.556426
2400.0, 0.539279
2418.0, 0.496889
2440.0, 0.444782
2466.0, 0.347009
2496.0, 0.427454
2528.0, 0.493795
2560.0, 0.457254
2592.0, 0.408857
2624.0, 0.375391
2656.0, 0.349349
2688.0, 0.262511
2720.0, 0.193392
2752.0, 0.155965
2784.0, 0.128691
2816.0, 0.100613
2848.0, 0.0888740
2880.0, 0.0771190
2912.0, 0.0552500
2944.0, 0.0622460
2976.0, 0.0654390
