Database of Origin, USGS Spectral Database
Sample Description, See USGS database for additional info
Date Added,2016-08-03 20:53:56.558935

Data ID,USGS_alu07          
Sample ID, alunite_gds83.1132
Mineral Name, alunite
Material Class,Sulfate

Wavelength
1384.66, 0.683092
1385.03, 0.682544
1385.4, 0.682146
1385.77, 0.681549
1386.14, 0.681051
1386.51, 0.680852
1386.88, 0.680752
1387.25, 0.679906
1387.62, 0.679159
1387.99, 0.678562
1388.36, 0.678362
1388.74, 0.678462
1389.11, 0.678163
1389.48, 0.677367
1389.85, 0.676769
1390.23, 0.676371
1390.6, 0.675823
1390.97, 0.675823
1391.35, 0.675525
1391.72, 0.674529
1392.09, 0.673882
1392.47, 0.673782
1392.84, 0.673583
1393.21, 0.672637
1393.59, 0.672289
1393.96, 0.671791
1394.34, 0.671144
1394.71, 0.670397
1395.09, 0.669551
1395.46, 0.669401
1395.84, 0.669302
1396.22, 0.668903
1396.59, 0.668356
1396.97, 0.667957
1397.35, 0.667410
1397.72, 0.666862
1398.1, 0.666464
1398.48, 0.666016
1398.85, 0.665369
1399.23, 0.664473
1399.61, 0.664124
1399.99, 0.663576
1400.37, 0.662780
1400.74, 0.662183
1401.12, 0.661734
1401.5, 0.661038
1401.88, 0.660390
1402.26, 0.659494
1402.64, 0.659096
1403.02, 0.658548
1403.4, 0.657802
1403.78, 0.656905
1404.16, 0.656407
1404.54, 0.655113
1404.92, 0.654018
1405.3, 0.653968
1405.68, 0.653271
1406.06, 0.652474
1406.44, 0.651429
1406.83, 0.650583
1407.21, 0.650135
1407.59, 0.649338
1407.97, 0.648293
1408.35, 0.647397
1408.74, 0.646600
1409.12, 0.645704
1409.5, 0.644858
1409.89, 0.643961
1410.27, 0.643215
1410.65, 0.642468
1411.04, 0.641572
1411.42, 0.640526
1411.81, 0.639780
1412.19, 0.638684
1412.58, 0.637788
1412.96, 0.636842
1413.35, 0.635797
1413.73, 0.634701
1414.12, 0.633756
1414.5, 0.632710
1414.89, 0.631515
1415.28, 0.630669
1415.66, 0.629623
1416.05, 0.627881
1416.44, 0.626537
1416.82, 0.625442
1417.21, 0.624595
1417.6, 0.623351
1417.98, 0.622006
1418.37, 0.620463
1418.76, 0.618671
1419.15, 0.617526
1419.54, 0.616231
1419.93, 0.614439
1420.32, 0.612398
1420.71, 0.610705
1421.09, 0.608664
1421.48, 0.606424
1421.88, 0.604233
1422.27, 0.601645
1422.66, 0.598907
1423.05, 0.596119
1423.44, 0.592783
1423.83, 0.589497
1424.22, 0.586510
1424.61, 0.583473
1425.0, 0.580337
1425.39, 0.576454
1425.78, 0.572869
1426.18, 0.569583
1426.57, 0.566099
1426.96, 0.562614
1427.36, 0.559179
1427.75, 0.555445
1428.14, 0.552209
1428.54, 0.549023
1428.93, 0.545637
1429.32, 0.542401
1429.72, 0.539514
1430.11, 0.536726
1430.51, 0.534386
1430.9, 0.531698
1431.3, 0.529457
1431.69, 0.527615
1432.09, 0.525873
1432.48, 0.524031
1432.88, 0.522338
1433.28, 0.521193
1433.67, 0.520297
1434.07, 0.519451
1434.46, 0.519102
1434.86, 0.519102
1435.26, 0.519600
1435.66, 0.519998
1436.05, 0.520944
1436.45, 0.522388
1436.85, 0.524031
1437.25, 0.525923
1437.65, 0.527565
1438.05, 0.529009
1438.44, 0.530254
1438.84, 0.531946
1439.24, 0.533490
1439.64, 0.535083
1440.04, 0.536527
1440.44, 0.537572
1440.84, 0.538518
1441.24, 0.539713
1441.65, 0.541256
1442.05, 0.542351
1442.45, 0.543397
1442.85, 0.544293
1443.25, 0.545687
1443.65, 0.546981
1444.05, 0.548226
1444.46, 0.549620
1444.86, 0.551412
1445.26, 0.553055
1445.67, 0.554648
1446.07, 0.556241
1446.47, 0.558282
1446.88, 0.560174
1447.28, 0.561469
1447.68, 0.562365
1448.09, 0.563609
1448.49, 0.564954
1448.9, 0.566148
1449.3, 0.566945
1449.71, 0.567492
1450.11, 0.568438
1450.52, 0.568936
1450.93, 0.569534
1451.33, 0.569932
1451.74, 0.569832
1452.14, 0.569733
1452.55, 0.569733
1452.96, 0.569783
1453.36, 0.569683
1453.77, 0.569683
1454.18, 0.568986
1454.59, 0.568339
1455.0, 0.568090
1455.41, 0.567741
1455.81, 0.567144
1456.22, 0.566696
1456.63, 0.565999
1457.04, 0.565302
1457.45, 0.564257
1457.86, 0.563809
1458.27, 0.563360
1458.68, 0.562564
1459.09, 0.561469
1459.5, 0.561021
1459.91, 0.560672
1460.32, 0.559726
1460.74, 0.558631
1461.15, 0.558083
1461.56, 0.557386
1461.97, 0.556590
1462.39, 0.555793
1462.8, 0.555295
1463.21, 0.554598
1463.62, 0.554101
1464.04, 0.553354
1464.45, 0.552607
1464.86, 0.552109
1465.28, 0.551562
1465.69, 0.550765
1466.11, 0.549819
1466.52, 0.549072
1466.94, 0.549072
1467.35, 0.547977
1467.77, 0.547330
1468.18, 0.546981
1468.6, 0.546135
1469.02, 0.545338
1469.43, 0.544592
1469.85, 0.543546
1470.27, 0.542700
1470.68, 0.541903
1471.1, 0.541206
1471.52, 0.540161
1471.94, 0.539115
1472.35, 0.537871
1472.77, 0.536576
1473.19, 0.535531
1473.61, 0.534685
1474.03, 0.533838
1474.45, 0.532494
1474.87, 0.530801
1475.29, 0.529258
1475.71, 0.527914
1476.13, 0.526520
1476.55, 0.525176
1476.97, 0.523832
1477.39, 0.522338
1477.81, 0.520894
1478.23, 0.519500
1478.65, 0.518306
1479.07, 0.517210
1479.5, 0.515468
1479.92, 0.513775
1480.34, 0.512531
1480.76, 0.511435
1481.19, 0.510091
1481.61, 0.508747
1482.03, 0.507602
1482.46, 0.506258
1482.88, 0.505212
1483.31, 0.504067
1483.73, 0.502673
1484.16, 0.501678
1484.58, 0.500881
1485.01, 0.499935
1485.43, 0.498939
1485.86, 0.497993
1486.28, 0.497346
1486.71, 0.496799
1487.14, 0.496351
1487.56, 0.495952
1487.99, 0.495405
1488.42, 0.494807
1488.84, 0.494807
1489.27, 0.494708
1489.7, 0.494459
1490.13, 0.494359
1490.56, 0.494807
1490.98, 0.495056
1491.41, 0.495654
1491.84, 0.496550
1492.27, 0.496998
1492.7, 0.497794
1493.13, 0.499039
1493.56, 0.500234
1493.99, 0.501478
1494.42, 0.502723
1494.85, 0.504416
1495.29, 0.506009
1495.72, 0.508100
1496.15, 0.510290
1496.58, 0.512381
1497.01, 0.514970
1497.44, 0.517708
1497.88, 0.520098
1498.31, 0.522587
1498.74, 0.525425
1499.18, 0.528213
1499.61, 0.530503
1500.04, 0.533091
1500.48, 0.535780
1500.91, 0.538418
1501.35, 0.540609
1501.78, 0.542700
1502.22, 0.544641
1502.65, 0.546782
1503.09, 0.549172
1503.53, 0.551163
1503.96, 0.552806
1504.4, 0.554549
1504.83, 0.555793
1505.27, 0.556938
1505.71, 0.558183
1506.15, 0.559427
1506.58, 0.560672
1507.02, 0.561966
1507.46, 0.563111
1507.9, 0.564207
1508.34, 0.565103
1508.78, 0.565899
1509.21, 0.566397
1509.66, 0.567094
1510.09, 0.567791
1510.53, 0.568488
1510.97, 0.569335
1511.42, 0.570081
1511.86, 0.570529
1512.3, 0.570928
1512.74, 0.571724
1513.18, 0.572421
1513.62, 0.572919
1514.06, 0.573765
1514.51, 0.574363
1514.95, 0.574910
1515.39, 0.575309
1515.83, 0.576105
1516.28, 0.576703
1516.72, 0.577151
1517.16, 0.577748
1517.61, 0.578196
1518.05, 0.578943
1518.5, 0.579789
1518.94, 0.580337
1519.39, 0.580735
1519.83, 0.581333
1520.28, 0.582179
1520.73, 0.582677
1521.17, 0.583224
1521.62, 0.583921
1522.07, 0.584469
1522.51, 0.585216
1522.96, 0.585913
1523.41, 0.586759
1523.85, 0.587506
1524.3, 0.587904
1524.75, 0.588750
1525.2, 0.589298
1525.65, 0.589746
1526.1, 0.590443
1526.55, 0.591190
1527.0, 0.592086
1527.45, 0.592932
1527.9, 0.593331
1528.35, 0.593828
1528.8, 0.594426
1529.25, 0.595023
1529.7, 0.595571
1530.15, 0.596218
1530.6, 0.596865
1531.05, 0.597214
1531.51, 0.597811
1531.96, 0.598807
1532.41, 0.599305
1532.87, 0.599653
1533.32, 0.600300
1533.77, 0.600948
1534.23, 0.601495
1534.68, 0.602093
1535.14, 0.602491
1535.59, 0.602839
1536.05, 0.603039
1536.5, 0.603586
1536.96, 0.604034
1537.41, 0.604383
1537.87, 0.604930
1538.32, 0.605528
1538.78, 0.605827
1539.24, 0.606125
1539.7, 0.606374
1540.15, 0.606673
1540.61, 0.607071
1541.07, 0.607669
1541.53, 0.607818
1541.98, 0.608166
1542.44, 0.608366
1542.9, 0.608515
1543.36, 0.608764
1543.82, 0.609162
1544.28, 0.609610
1544.74, 0.609859
1545.2, 0.610058
1545.66, 0.610506
1546.12, 0.610805
1546.59, 0.610954
1547.05, 0.611303
1547.51, 0.611552
1547.97, 0.611552
1548.43, 0.612099
1548.9, 0.612348
1549.36, 0.612298
1549.82, 0.612448
1550.29, 0.612846
1550.75, 0.613244
1551.21, 0.613692
1551.68, 0.614041
1552.14, 0.614290
1552.61, 0.614439
1553.07, 0.614589
1553.54, 0.614688
1554.0, 0.615186
1554.47, 0.615485
1554.93, 0.615634
1555.4, 0.615933
1555.87, 0.616480
1556.34, 0.616680
1556.8, 0.617028
1557.27, 0.617476
1557.74, 0.617825
1558.21, 0.617974
1558.68, 0.618223
1559.14, 0.618522
1559.61, 0.618770
1560.08, 0.619069
1560.55, 0.619418
1561.02, 0.619517
1561.49, 0.619716
1561.96, 0.620015
1562.43, 0.620513
1562.9, 0.620762
1563.38, 0.620812
1563.85, 0.621011
1564.32, 0.621359
1564.79, 0.621558
1565.26, 0.621907
1565.74, 0.622305
1566.21, 0.622654
1566.68, 0.622803
1567.16, 0.622903
1567.63, 0.623102
1568.1, 0.623052
1568.58, 0.623400
1569.05, 0.623649
1569.53, 0.623649
1570.0, 0.623948
1570.48, 0.623948
1570.96, 0.624147
1571.43, 0.624296
1571.91, 0.624645
1572.39, 0.624745
1572.86, 0.624844
1573.34, 0.625093
1573.82, 0.625392
1574.3, 0.625740
1574.77, 0.625890
1575.25, 0.625890
1575.73, 0.626039
1576.21, 0.626089
1576.69, 0.626686
1577.17, 0.626636
1577.65, 0.626686
1578.13, 0.626786
1578.61, 0.626985
1579.09, 0.627234
1579.57, 0.627533
1580.05, 0.627831
1580.54, 0.627781
1581.02, 0.627931
1581.5, 0.628229
1581.98, 0.628229
1582.47, 0.628528
1582.95, 0.628578
1583.43, 0.628727
1583.92, 0.628827
1584.4, 0.629026
1584.88, 0.629076
1585.37, 0.629175
1585.85, 0.629325
1586.34, 0.629673
1586.82, 0.629972
1587.31, 0.630072
1587.8, 0.630121
1588.28, 0.630072
1588.77, 0.630121
1589.26, 0.630370
1589.74, 0.630569
1590.23, 0.630968
1590.72, 0.631067
1591.21, 0.631117
1591.7, 0.631067
1592.19, 0.631366
1592.67, 0.631515
1593.16, 0.631764
1593.65, 0.631963
1594.14, 0.632013
1594.63, 0.632312
1595.12, 0.632511
1595.61, 0.632710
1596.11, 0.632710
1596.6, 0.632909
1597.09, 0.633357
1597.58, 0.633407
1598.08, 0.633457
1598.57, 0.633756
1599.06, 0.634253
1599.55, 0.634552
1600.05, 0.634701
1600.54, 0.634751
1601.04, 0.634851
1601.53, 0.635050
1602.03, 0.635448
1602.52, 0.635647
1603.02, 0.635797
1603.51, 0.636095
1604.01, 0.636295
1604.5, 0.636544
1605.0, 0.636792
1605.5, 0.636892
1606.0, 0.636792
1606.49, 0.637041
1606.99, 0.637191
1607.49, 0.637738
1607.99, 0.638087
1608.49, 0.637888
1608.99, 0.638037
1609.49, 0.638137
1609.99, 0.638535
1610.49, 0.638784
1610.99, 0.638933
1611.49, 0.639033
1611.99, 0.639182
1612.49, 0.639381
1612.99, 0.639780
1613.49, 0.640028
1614.0, 0.640178
1614.5, 0.640277
1615.0, 0.640725
1615.51, 0.641024
1616.01, 0.641223
1616.51, 0.641572
1617.02, 0.641771
1617.52, 0.642020
1618.03, 0.642219
1618.53, 0.642418
1619.04, 0.642816
1619.54, 0.642767
1620.05, 0.642667
1620.55, 0.642966
1621.06, 0.643463
1621.57, 0.643563
1622.08, 0.643613
1622.58, 0.643912
1623.09, 0.644161
1623.6, 0.644111
1624.11, 0.644409
1624.62, 0.644858
1625.13, 0.645206
1625.64, 0.645206
1626.15, 0.645355
1626.66, 0.645604
1627.17, 0.645853
1627.68, 0.645853
1628.19, 0.646052
1628.7, 0.646251
1629.21, 0.646152
1629.72, 0.646500
1630.24, 0.646550
1630.75, 0.646500
1631.26, 0.646749
1631.78, 0.646700
1632.29, 0.646849
1632.8, 0.646949
1633.32, 0.647197
1633.83, 0.647397
1634.35, 0.647546
1634.86, 0.647397
1635.38, 0.647546
1635.9, 0.647894
1636.41, 0.648094
1636.93, 0.648143
1637.45, 0.648342
1637.96, 0.648342
1638.48, 0.648492
1639.0, 0.648492
1639.52, 0.648790
1640.04, 0.648840
1640.56, 0.649189
1641.08, 0.649189
1641.59, 0.649288
1642.11, 0.649487
1642.63, 0.649487
1643.16, 0.649587
1643.68, 0.649736
1644.2, 0.649736
1644.72, 0.649985
1645.24, 0.649985
1645.76, 0.649836
1646.29, 0.650035
1646.81, 0.650234
1647.33, 0.650234
1647.86, 0.650284
1648.38, 0.650334
1648.9, 0.650334
1649.43, 0.650384
1649.95, 0.650633
1650.48, 0.650881
1651.0, 0.650782
1651.53, 0.650533
1652.06, 0.650583
1652.58, 0.650682
1653.11, 0.650533
1653.64, 0.650583
1654.17, 0.650782
1654.69, 0.651130
1655.22, 0.651180
1655.75, 0.651130
1656.28, 0.651031
1656.81, 0.651031
1657.34, 0.651180
1657.87, 0.651329
1658.4, 0.651230
1658.93, 0.651429
1659.46, 0.651479
1659.99, 0.651329
1660.52, 0.651479
1661.05, 0.651529
1661.59, 0.651429
1662.12, 0.651280
1662.65, 0.651379
1663.19, 0.651479
1663.72, 0.651827
1664.26, 0.651678
1664.79, 0.651529
1665.32, 0.651578
1665.86, 0.651728
1666.39, 0.651728
1666.93, 0.651977
1667.47, 0.651927
1668.0, 0.651927
1668.54, 0.652126
1669.08, 0.651977
1669.61, 0.651728
1670.15, 0.651728
1670.69, 0.651778
1671.23, 0.651728
1671.77, 0.652126
1672.31, 0.652176
1672.85, 0.652176
1673.39, 0.652076
1673.93, 0.651977
1674.47, 0.651927
1675.01, 0.651827
1675.55, 0.652176
1676.09, 0.652275
1676.64, 0.652275
1677.18, 0.652176
1677.72, 0.652126
1678.26, 0.652126
1678.81, 0.652026
1679.35, 0.651977
1679.89, 0.652076
1680.44, 0.652076
1680.98, 0.652026
1681.53, 0.652126
1682.07, 0.652226
1682.62, 0.652176
1683.17, 0.652176
1683.71, 0.652275
1684.26, 0.652425
1684.81, 0.652275
1685.36, 0.652076
1685.9, 0.652026
1686.45, 0.652176
1687.0, 0.652226
1687.55, 0.652176
1688.1, 0.652076
1688.65, 0.651977
1689.2, 0.651827
1689.75, 0.651927
1690.3, 0.651927
1690.85, 0.651977
1691.41, 0.651728
1691.96, 0.651628
1692.51, 0.651529
1693.06, 0.651578
1693.61, 0.651778
1694.17, 0.651778
1694.72, 0.651678
1695.28, 0.651429
1695.83, 0.651180
1696.39, 0.651280
1696.94, 0.651280
1697.5, 0.651230
1698.05, 0.651031
1698.61, 0.650931
1699.17, 0.650881
1699.72, 0.650832
1700.28, 0.650633
1700.84, 0.650533
1701.4, 0.650433
1701.95, 0.650234
1702.51, 0.650085
1703.07, 0.649886
1703.63, 0.649587
1704.19, 0.649438
1704.75, 0.649239
1705.31, 0.649089
1705.88, 0.648990
1706.44, 0.648790
1707.0, 0.648542
1707.56, 0.648143
1708.12, 0.647944
1708.69, 0.647695
1709.25, 0.647347
1709.81, 0.647098
1710.38, 0.646799
1710.94, 0.646451
1711.51, 0.646152
1712.07, 0.645654
1712.64, 0.645206
1713.2, 0.644858
1713.77, 0.644111
1714.34, 0.643712
1714.9, 0.643463
1715.47, 0.642916
1716.04, 0.642219
1716.61, 0.641721
1717.18, 0.641173
1717.74, 0.640427
1718.31, 0.639730
1718.88, 0.639083
1719.45, 0.638386
1720.02, 0.637689
1720.59, 0.636842
1721.17, 0.636046
1721.74, 0.635199
1722.31, 0.634353
1722.88, 0.633407
1723.45, 0.632561
1724.03, 0.631565
1724.6, 0.630420
1725.18, 0.629375
1725.75, 0.628329
1726.33, 0.627383
1726.9, 0.626288
1727.48, 0.625143
1728.05, 0.623848
1728.63, 0.622803
1729.2, 0.621708
1729.78, 0.620413
1730.36, 0.619119
1730.94, 0.617874
1731.51, 0.616580
1732.09, 0.615534
1732.67, 0.614389
1733.25, 0.612995
1733.83, 0.611701
1734.41, 0.610606
1734.99, 0.609511
1735.57, 0.608216
1736.15, 0.607320
1736.73, 0.606275
1737.32, 0.605229
1737.9, 0.604084
1738.48, 0.602889
1739.07, 0.601595
1739.65, 0.600450
1740.23, 0.599404
1740.82, 0.598259
1741.4, 0.596915
1741.99, 0.595571
1742.57, 0.594376
1743.16, 0.593132
1743.74, 0.591837
1744.33, 0.590841
1744.92, 0.589597
1745.51, 0.588402
1746.09, 0.587257
1746.68, 0.586112
1747.27, 0.584917
1747.86, 0.583672
1748.45, 0.582776
1749.04, 0.581880
1749.63, 0.580934
1750.22, 0.579988
1750.81, 0.578993
1751.4, 0.578146
1751.99, 0.577449
1752.59, 0.576703
1753.18, 0.575956
1753.77, 0.575458
1754.37, 0.574811
1754.96, 0.574064
1755.56, 0.573666
1756.15, 0.573068
1756.74, 0.572620
1757.34, 0.572371
1757.94, 0.572122
1758.53, 0.571874
1759.13, 0.571575
1759.73, 0.571276
1760.32, 0.571326
1760.92, 0.570977
1761.52, 0.570778
1762.12, 0.570828
1762.72, 0.570778
1763.32, 0.570430
1763.92, 0.570181
1764.52, 0.570231
1765.12, 0.570131
1765.72, 0.570032
1766.32, 0.569882
1766.92, 0.570231
1767.53, 0.570679
1768.13, 0.570977
1768.73, 0.571276
1769.34, 0.571923
1769.94, 0.572819
1770.55, 0.573616
1771.15, 0.574562
1771.76, 0.576006
1772.36, 0.577499
1772.97, 0.578893
1773.57, 0.580387
1774.18, 0.581830
1774.79, 0.583125
1775.4, 0.584569
1776.0, 0.585963
1776.61, 0.587406
1777.22, 0.589248
1777.83, 0.590792
1778.44, 0.592385
1779.05, 0.594028
1779.66, 0.595870
1780.27, 0.597562
1780.88, 0.599355
1781.5, 0.601545
1782.11, 0.603536
1782.72, 0.605478
1783.33, 0.607420
1783.95, 0.609262
1784.56, 0.611004
1785.18, 0.612946
1785.79, 0.615037
1786.41, 0.617177
1787.02, 0.619019
1787.64, 0.620911
1788.26, 0.622853
1788.87, 0.624944
1789.49, 0.626836
1790.11, 0.628927
1790.73, 0.631017
1791.35, 0.633108
1791.96, 0.635249
1792.58, 0.637340
1793.21, 0.639331
1793.83, 0.641273
1794.45, 0.642816
1795.07, 0.644260
1795.69, 0.645803
1796.31, 0.647148
1796.93, 0.648442
1797.56, 0.649587
1798.18, 0.650533
1798.8, 0.651379
1799.43, 0.652325
1800.05, 0.653172
1800.68, 0.653968
1801.3, 0.654814
1801.93, 0.655412
1802.56, 0.656159
1803.18, 0.656856
1803.81, 0.657503
1804.44, 0.658150
1805.07, 0.658698
1805.7, 0.659146
1806.33, 0.659743
1806.95, 0.660291
1807.58, 0.660689
1808.22, 0.661038
1808.85, 0.661486
1809.48, 0.661734
1810.11, 0.661983
1810.74, 0.662382
1811.38, 0.662730
1812.01, 0.662879
1812.64, 0.663079
1813.28, 0.663328
1813.91, 0.663626
1814.55, 0.663776
1815.18, 0.663925
1815.82, 0.664124
1816.45, 0.664373
1817.09, 0.664473
1817.73, 0.664622
1818.36, 0.664821
1819.0, 0.664921
1819.64, 0.664871
1820.28, 0.664970
1820.92, 0.665219
1821.56, 0.665269
1822.2, 0.665468
1822.84, 0.665568
1823.48, 0.665568
1824.12, 0.665717
1824.76, 0.665767
1825.41, 0.665568
1826.05, 0.665518
1826.69, 0.665717
1827.34, 0.665568
1827.98, 0.665369
1828.63, 0.665468
1829.27, 0.665369
1829.92, 0.665269
1830.56, 0.665319
1831.21, 0.665219
1831.86, 0.665419
1832.5, 0.665419
1833.15, 0.665419
1833.8, 0.665219
1834.45, 0.664871
1835.1, 0.664721
1835.75, 0.664522
1836.4, 0.664572
1837.05, 0.664373
1837.7, 0.664224
1838.35, 0.664273
1839.01, 0.663825
1839.66, 0.663676
1840.31, 0.663626
1840.96, 0.663377
1841.62, 0.663328
1842.27, 0.663626
1842.93, 0.663726
1843.58, 0.663377
1844.24, 0.663128
1844.9, 0.663128
1845.55, 0.663128
1846.21, 0.662979
1846.87, 0.662680
1847.53, 0.662531
1848.18, 0.662282
1848.84, 0.662581
1849.5, 0.662332
1850.16, 0.662033
1850.82, 0.661934
1851.48, 0.661934
1852.14, 0.661834
1852.81, 0.661486
1853.47, 0.661237
1854.13, 0.661336
1854.8, 0.661237
1855.46, 0.660888
1856.12, 0.660490
1856.79, 0.660340
1857.45, 0.660340
1858.12, 0.660042
1858.79, 0.659494
1859.45, 0.659146
1860.12, 0.659245
1860.79, 0.659096
1861.46, 0.658897
1862.12, 0.658349
1862.79, 0.657951
1863.46, 0.657652
1864.13, 0.657453
1864.8, 0.657304
1865.48, 0.656955
1866.15, 0.656557
1866.82, 0.656009
1867.49, 0.655611
1868.16, 0.655760
1868.84, 0.655462
1869.51, 0.655014
1870.19, 0.654317
1870.86, 0.654018
1871.54, 0.654018
1872.21, 0.653520
1872.89, 0.653072
1873.56, 0.652923
1874.24, 0.652624
1874.92, 0.652076
1875.6, 0.651927
1876.28, 0.651529
1876.96, 0.651130
1877.64, 0.650782
1878.32, 0.650682
1879.0, 0.650433
1879.68, 0.649736
1880.36, 0.649039
1881.04, 0.648641
1881.73, 0.648392
1882.41, 0.647845
1883.09, 0.647197
1883.78, 0.646650
1884.46, 0.646500
1885.15, 0.646102
1885.83, 0.645604
1886.52, 0.645206
1887.21, 0.644858
1887.89, 0.644310
1888.58, 0.643513
1889.27, 0.643115
1889.96, 0.642866
1890.65, 0.642717
1891.34, 0.642119
1892.03, 0.641622
1892.72, 0.641373
1893.41, 0.640825
1894.1, 0.640427
1894.79, 0.640128
1895.49, 0.639680
1896.18, 0.639182
1896.87, 0.638734
1897.57, 0.638336
1898.26, 0.638137
1898.96, 0.637639
1899.65, 0.637290
1900.35, 0.637141
1901.05, 0.636992
1901.74, 0.636494
1902.44, 0.635946
1903.14, 0.635797
1903.84, 0.635647
1904.54, 0.635100
1905.24, 0.634901
1905.94, 0.634801
1906.64, 0.634453
1907.34, 0.634303
1908.04, 0.634104
1908.75, 0.634005
1909.45, 0.633706
1910.15, 0.633606
1910.86, 0.633407
1911.56, 0.633258
1912.27, 0.633108
1912.97, 0.632860
1913.68, 0.632760
1914.39, 0.632959
1915.09, 0.633108
1915.8, 0.632860
1916.51, 0.632611
1917.22, 0.632660
1917.93, 0.632710
1918.64, 0.632611
1919.35, 0.632362
1920.06, 0.632362
1920.77, 0.632660
1921.48, 0.632860
1922.19, 0.632810
1922.91, 0.632760
1923.62, 0.632860
1924.33, 0.633009
1925.05, 0.633108
1925.76, 0.633208
1926.48, 0.633208
1927.19, 0.633308
1927.91, 0.633457
1928.63, 0.633706
1929.35, 0.633855
1930.07, 0.633855
1930.78, 0.633955
1931.5, 0.634104
1932.22, 0.634104
1932.94, 0.634303
1933.66, 0.634403
1934.39, 0.634602
1935.11, 0.634801
1935.83, 0.634901
1936.55, 0.634851
1937.28, 0.635050
1938.0, 0.634901
1938.73, 0.634901
1939.45, 0.634801
1940.18, 0.634751
1940.9, 0.634602
1941.63, 0.634552
1942.36, 0.634403
1943.09, 0.634154
1943.81, 0.634005
1944.54, 0.633905
1945.27, 0.633805
1946.0, 0.633606
1946.73, 0.633108
1947.47, 0.632461
1948.2, 0.631963
1948.93, 0.631615
1949.66, 0.631167
1950.4, 0.630818
1951.13, 0.630370
1951.86, 0.629773
1952.6, 0.629474
1953.34, 0.629076
1954.07, 0.628379
1954.81, 0.627831
1955.55, 0.627433
1956.29, 0.627084
1957.02, 0.626587
1957.76, 0.626139
1958.5, 0.625740
1959.24, 0.625342
1959.98, 0.624844
1960.72, 0.624595
1961.47, 0.624296
1962.21, 0.623948
1962.95, 0.623600
1963.7, 0.623351
1964.44, 0.623201
1965.18, 0.623102
1965.93, 0.622853
1966.67, 0.622753
1967.42, 0.622753
1968.17, 0.622604
1968.92, 0.622255
1969.66, 0.622206
1970.41, 0.622106
1971.16, 0.622156
1971.91, 0.622106
1972.66, 0.621807
1973.41, 0.621758
1974.16, 0.621658
1974.92, 0.621459
1975.67, 0.621260
1976.42, 0.620911
1977.18, 0.620613
1977.93, 0.620214
1978.69, 0.619915
1979.44, 0.619567
1980.2, 0.619268
1980.95, 0.618621
1981.71, 0.618024
1982.47, 0.617476
1983.23, 0.616829
1983.99, 0.616132
1984.74, 0.615435
1985.51, 0.614589
1986.27, 0.613792
1987.03, 0.613045
1987.79, 0.612199
1988.55, 0.611153
1989.32, 0.610108
1990.08, 0.609112
1990.84, 0.608166
1991.61, 0.607171
1992.37, 0.606125
1993.14, 0.605080
1993.9, 0.603984
1994.67, 0.602790
1995.44, 0.601794
1996.21, 0.600848
1996.98, 0.599902
1997.75, 0.598807
1998.52, 0.597761
1999.29, 0.596716
2000.06, 0.595820
2000.83, 0.594924
2001.6, 0.593978
2002.38, 0.593281
2003.15, 0.592534
2003.93, 0.591837
2004.7, 0.591240
2005.48, 0.590543
2006.25, 0.589896
2007.03, 0.589398
2007.81, 0.589049
2008.58, 0.588601
2009.36, 0.588203
2010.14, 0.588004
2010.92, 0.587755
2011.7, 0.587307
2012.48, 0.587157
2013.26, 0.587058
2014.05, 0.587108
2014.83, 0.587058
2015.61, 0.586908
2016.4, 0.586809
2017.18, 0.586560
2017.97, 0.586510
2018.75, 0.586560
2019.54, 0.586610
2020.32, 0.586411
2021.11, 0.586361
2021.9, 0.586211
2022.69, 0.585913
2023.48, 0.585465
2024.27, 0.585166
2025.06, 0.584718
2025.85, 0.584121
2026.64, 0.583672
2027.44, 0.583175
2028.23, 0.582677
2029.02, 0.582229
2029.82, 0.581582
2030.61, 0.580835
2031.41, 0.580138
2032.2, 0.579491
2033.0, 0.578744
2033.8, 0.577848
2034.6, 0.577101
2035.4, 0.576304
2036.2, 0.575558
2037.0, 0.574811
2037.8, 0.574014
2038.6, 0.573317
2039.4, 0.572521
2040.2, 0.571774
2041.01, 0.571276
2041.81, 0.570679
2042.61, 0.569932
2043.42, 0.569285
2044.22, 0.568687
2045.03, 0.568239
2045.84, 0.567741
2046.65, 0.567244
2047.46, 0.566796
2048.26, 0.566198
2049.07, 0.565750
2049.88, 0.565302
2050.69, 0.564655
2051.51, 0.564107
2052.32, 0.563908
2053.13, 0.563410
2053.94, 0.563012
2054.76, 0.562514
2055.57, 0.562116
2056.39, 0.561767
2057.2, 0.561369
2058.02, 0.560921
2058.84, 0.560722
2059.66, 0.560423
2060.48, 0.559975
2061.29, 0.559627
2062.11, 0.559328
2062.94, 0.558930
2063.76, 0.558631
2064.58, 0.558482
2065.4, 0.558332
2066.22, 0.558133
2067.05, 0.557685
2067.87, 0.557386
2068.7, 0.557237
2069.52, 0.556839
2070.35, 0.556590
2071.18, 0.556241
2072.0, 0.555843
2072.83, 0.555494
2073.66, 0.555295
2074.49, 0.554947
2075.32, 0.554598
2076.15, 0.554250
2076.98, 0.554001
2077.82, 0.553603
2078.65, 0.553204
2079.48, 0.552756
2080.32, 0.552109
2081.15, 0.551313
2081.99, 0.550715
2082.83, 0.550317
2083.66, 0.549769
2084.5, 0.549122
2085.34, 0.548475
2086.18, 0.547778
2087.02, 0.547230
2087.86, 0.546583
2088.7, 0.545886
2089.54, 0.545239
2090.39, 0.544592
2091.23, 0.543944
2092.07, 0.543297
2092.92, 0.542700
2093.76, 0.542003
2094.61, 0.541057
2095.45, 0.540460
2096.3, 0.539812
2097.15, 0.538817
2098.0, 0.538020
2098.85, 0.537622
2099.7, 0.536776
2100.55, 0.535929
2101.4, 0.534934
2102.25, 0.534137
2103.1, 0.533091
2103.96, 0.532345
2104.81, 0.531698
2105.67, 0.530752
2106.52, 0.529607
2107.38, 0.528611
2108.24, 0.527615
2109.09, 0.526420
2109.95, 0.525325
2110.81, 0.524230
2111.67, 0.522985
2112.53, 0.521492
2113.39, 0.519998
2114.25, 0.518554
2115.12, 0.516961
2115.98, 0.515418
2116.84, 0.513825
2117.71, 0.512033
2118.58, 0.510240
2119.44, 0.508249
2120.31, 0.506108
2121.18, 0.503918
2122.04, 0.501678
2122.91, 0.499537
2123.78, 0.497048
2124.65, 0.494509
2125.52, 0.492169
2126.4, 0.489431
2127.27, 0.486692
2128.14, 0.484004
2129.02, 0.481117
2129.89, 0.478428
2130.77, 0.475590
2131.64, 0.472902
2132.52, 0.470413
2133.4, 0.467824
2134.27, 0.464887
2135.15, 0.462099
2136.03, 0.459411
2136.91, 0.456672
2137.79, 0.453984
2138.68, 0.451594
2139.56, 0.449105
2140.44, 0.446467
2141.33, 0.443878
2142.21, 0.441289
2143.1, 0.438650
2143.99, 0.436161
2144.87, 0.433423
2145.76, 0.430735
2146.65, 0.428196
2147.54, 0.425458
2148.43, 0.422719
2149.32, 0.420031
2150.21, 0.417492
2151.1, 0.415202
2151.99, 0.412862
2152.89, 0.410622
2153.78, 0.408680
2154.68, 0.406788
2155.57, 0.404897
2156.47, 0.403254
2157.37, 0.401860
2158.27, 0.400765
2159.16, 0.399769
2160.06, 0.398972
2160.96, 0.398425
2161.86, 0.397977
2162.77, 0.397280
2163.67, 0.396732
2164.57, 0.396334
2165.48, 0.395985
2166.38, 0.395388
2167.29, 0.394940
2168.2, 0.394542
2169.1, 0.394243
2170.01, 0.394193
2170.92, 0.394193
2171.83, 0.394442
2172.74, 0.394741
2173.65, 0.395139
2174.56, 0.395886
2175.47, 0.396682
2176.39, 0.397529
2177.3, 0.398474
2178.22, 0.399470
2179.13, 0.400665
2180.05, 0.402158
2180.96, 0.403652
2181.88, 0.405295
2182.8, 0.407037
2183.72, 0.408780
2184.64, 0.410423
2185.56, 0.411916
2186.48, 0.413559
2187.41, 0.415302
2188.33, 0.417193
2189.25, 0.419284
2190.18, 0.421624
2191.1, 0.424213
2192.03, 0.427150
2192.96, 0.430287
2193.89, 0.433622
2194.82, 0.436808
2195.74, 0.439696
2196.68, 0.442534
2197.61, 0.445421
2198.54, 0.448010
2199.47, 0.450400
2200.4, 0.452690
2201.34, 0.454681
2202.28, 0.456623
2203.21, 0.458116
2204.15, 0.458963
2205.08, 0.459361
2206.02, 0.459012
2206.96, 0.458066
2207.9, 0.456523
2208.84, 0.454880
2209.78, 0.452839
2210.73, 0.450798
2211.67, 0.449155
2212.61, 0.448010
2213.56, 0.447811
2214.5, 0.448657
2215.45, 0.450499
2216.4, 0.453387
2217.35, 0.457270
2218.3, 0.462099
2219.24, 0.467426
2220.2, 0.472753
2221.15, 0.477930
2222.1, 0.482959
2223.05, 0.488037
2224.0, 0.492766
2224.96, 0.497396
2225.91, 0.501827
2226.87, 0.506108
2227.83, 0.510390
2228.79, 0.514422
2229.74, 0.518505
2230.7, 0.522537
2231.66, 0.526321
2232.63, 0.530104
2233.59, 0.533788
2234.55, 0.537622
2235.51, 0.541605
2236.48, 0.545637
2237.44, 0.549471
2238.41, 0.553155
2239.38, 0.556590
2240.34, 0.559627
2241.31, 0.562464
2242.28, 0.565003
2243.25, 0.567244
2244.22, 0.569185
2245.19, 0.570878
2246.17, 0.572521
2247.14, 0.573915
2248.12, 0.575309
2249.09, 0.576504
2250.07, 0.577798
2251.04, 0.578644
2252.02, 0.579540
2253.0, 0.580337
2253.98, 0.581084
2254.96, 0.581681
2255.94, 0.582179
2256.92, 0.582627
2257.91, 0.582976
2258.89, 0.583131
2259.88, 0.583339
2260.86, 0.583702
2261.85, 0.584065
2262.83, 0.583909
2263.82, 0.583650
2264.81, 0.583702
2265.8, 0.583546
2266.79, 0.583183
2267.78, 0.583287
2268.78, 0.583391
2269.77, 0.583287
2270.76, 0.583079
2271.76, 0.582924
2272.75, 0.582457
2273.75, 0.581938
2274.75, 0.581471
2275.75, 0.581263
2276.75, 0.580589
2277.75, 0.579603
2278.75, 0.579033
2279.75, 0.578825
2280.75, 0.578203
2281.76, 0.577580
2282.76, 0.576646
2283.77, 0.575660
2284.77, 0.574830
2285.78, 0.574312
2286.79, 0.573378
2287.8, 0.572444
2288.81, 0.571147
2289.82, 0.569954
2290.83, 0.568605
2291.84, 0.567515
2292.86, 0.566270
2293.87, 0.564766
2294.89, 0.562846
2295.91, 0.560875
2296.92, 0.558592
2297.94, 0.555946
2298.96, 0.553663
2299.98, 0.551225
2301.0, 0.547853
2302.02, 0.544532
2303.04, 0.541108
2304.07, 0.537684
2305.09, 0.533793
2306.12, 0.529280
2307.15, 0.524247
2308.17, 0.519578
2309.2, 0.514909
2310.23, 0.509150
2311.26, 0.503392
2312.29, 0.497996
2313.32, 0.492652
2314.35, 0.487361
2315.39, 0.482432
2316.42, 0.478230
2317.46, 0.474702
2318.5, 0.471278
2319.53, 0.467958
2320.57, 0.465727
2321.61, 0.464067
2322.65, 0.463600
2323.69, 0.463392
2324.73, 0.463444
2325.78, 0.464015
2326.82, 0.465312
2327.86, 0.466764
2328.91, 0.468373
2329.96, 0.470033
2331.01, 0.472004
2332.05, 0.473976
2333.1, 0.476155
2334.15, 0.478385
2335.21, 0.480409
2336.26, 0.482691
2337.31, 0.485078
2338.36, 0.487257
2339.42, 0.489384
2340.48, 0.491667
2341.53, 0.493586
2342.59, 0.495350
2343.65, 0.497270
2344.71, 0.499241
2345.77, 0.501109
2346.83, 0.502562
2347.9, 0.504118
2348.96, 0.505778
2350.02, 0.507438
2351.09, 0.508580
2352.16, 0.509306
2353.23, 0.510240
2354.29, 0.511381
2355.36, 0.511900
2356.43, 0.512211
2357.51, 0.512315
2358.58, 0.512834
2359.65, 0.512626
2360.73, 0.512211
2361.8, 0.511796
2362.88, 0.511433
2363.96, 0.511122
2365.03, 0.510240
2366.11, 0.509306
2367.19, 0.508113
2368.27, 0.506401
2369.36, 0.504585
2370.44, 0.502717
2371.53, 0.500486
2372.61, 0.497685
2373.7, 0.494935
2374.78, 0.491822
2375.87, 0.488710
2376.96, 0.485182
2378.05, 0.481654
2379.14, 0.477348
2380.24, 0.473042
2381.33, 0.468632
2382.42, 0.464015
2383.52, 0.459709
2384.61, 0.455143
2385.71, 0.450578
2386.81, 0.446064
2387.91, 0.441603
2389.01, 0.437193
2390.11, 0.432835
2391.22, 0.429255
2392.32, 0.425779
2393.42, 0.422926
2394.53, 0.420435
2395.64, 0.418101
2396.74, 0.415974
2397.85, 0.414469
2398.96, 0.413484
2400.07, 0.412965
2401.18, 0.412135
2402.3, 0.411253
2403.41, 0.410941
2404.52, 0.410786
2405.64, 0.410423
2406.76, 0.410059
2407.88, 0.409593
2408.99, 0.409333
2410.11, 0.408918
2411.23, 0.408451
2412.36, 0.408244
2413.48, 0.407414
2414.6, 0.405961
2415.73, 0.404560
2416.85, 0.403419
2417.98, 0.401655
2419.11, 0.399787
2420.24, 0.397920
2421.37, 0.395326
2422.5, 0.392628
2423.64, 0.389723
2424.77, 0.386506
2425.9, 0.382978
2427.04, 0.379502
2428.18, 0.376130
2429.31, 0.372395
2430.45, 0.368555
2431.59, 0.365183
2432.73, 0.361915
2433.88, 0.358543
2435.02, 0.355378
2436.16, 0.352473
2437.31, 0.349827
2438.45, 0.347648
2439.6, 0.345676
2440.75, 0.343912
2441.9, 0.342616
2443.05, 0.341267
2444.2, 0.340229
2445.35, 0.339866
2446.51, 0.339658
2447.67, 0.339606
2448.82, 0.339866
2449.98, 0.340437
2451.14, 0.341422
2452.3, 0.342460
2453.46, 0.343446
2454.62, 0.344328
2455.78, 0.345365
2456.94, 0.346403
2458.11, 0.346870
2459.28, 0.347388
2460.44, 0.347803
2461.61, 0.348167
2462.78, 0.348582
2463.95, 0.348737
2465.12, 0.348322
2466.3, 0.348115
2467.47, 0.348167
2468.65, 0.347803
2469.82, 0.347544
2471.0, 0.347233
2472.18, 0.347181
2473.36, 0.346922
2474.54, 0.346507
2475.72, 0.346870
2476.9, 0.347233
2478.08, 0.347388
2479.27, 0.347596
2480.46, 0.347959
2481.64, 0.348374
2482.83, 0.348374
2484.02, 0.348322
2485.21, 0.348426
2486.4, 0.347855
2487.6, 0.347077
2488.79, 0.346662
2489.99, 0.345832
2491.18, 0.344224
2492.38, 0.342460
2493.58, 0.340385
2494.78, 0.338102
2495.98, 0.335612
2497.18, 0.333225
2498.39, 0.331202
2499.59, 0.329438
2500.8, 0.327570
2502.01, 0.326066
2503.21, 0.324821
2504.42, 0.323731
2505.63, 0.322538
2506.84, 0.320930
2508.06, 0.319010
2509.27, 0.316727
2510.49, 0.314185
2511.7, 0.311539
2512.92, 0.308478
2514.14, 0.305262
2515.36, 0.302253
2516.58, 0.299451
2517.8, 0.296546
2519.03, 0.294108
2520.25, 0.292032
2521.48, 0.290269
2522.7, 0.289387
2523.93, 0.289387
2525.16, 0.290113
2526.39, 0.291566
2527.62, 0.293537
2528.86, 0.296183
2530.09, 0.299399
2531.33, 0.303083
2532.56, 0.307078
2533.8, 0.310917
2535.04, 0.315015
2536.28, 0.319321
2537.52, 0.323109
2538.76, 0.326740
2540.01, 0.330320
2541.25, 0.333692
2542.5, 0.336701
2543.75, 0.339347
2544.99, 0.341474
2546.24, 0.343497
2547.49, 0.345573
2548.75, 0.347285
2550.0, 0.348426
2551.26, 0.349775
2552.51, 0.351176
2553.77, 0.352110
2555.03, 0.352525
2556.29, 0.353147
2557.55, 0.353303
2558.81, 0.353510
2560.08, 0.354340
2561.34, 0.355222
2562.61, 0.355585
2563.88, 0.355845
2565.14, 0.355534
2566.41, 0.354807
2567.68, 0.354755
2568.96, 0.355741
2570.23, 0.356779
2571.51, 0.356831
2572.78, 0.358128
2574.06, 0.359840
2575.34, 0.359892
2576.62, 0.361137
2577.9, 0.361811
2579.18, 0.362122
2580.47, 0.363160
2581.75, 0.363783
2583.04, 0.364146
2584.32, 0.365754
2585.61, 0.364976
2586.9, 0.364820
2588.2, 0.364820
2589.49, 0.364561
2590.78, 0.364198
2592.08, 0.363783
2593.37, 0.364768
2594.67, 0.369022
2595.97, 0.370579
2597.27, 0.369541
2598.57, 0.369956
2599.88, 0.371980
2601.18, 0.374989
2602.49, 0.378516
2603.79, 0.381422
2605.1, 0.385676
2606.41, 0.389619
2607.72, 0.391642
2609.03, 0.394080
2610.35, 0.396674
2611.66, 0.398646
2612.98, 0.400981
2614.3, 0.402589
2615.62, 0.404768
2616.94, 0.408555
2618.26, 0.409593
2619.58, 0.410734
2620.91, 0.413743
2622.23, 0.414054
2623.56, 0.415144
2624.89, 0.416960
2626.22, 0.420124
2627.55, 0.422407
2628.88, 0.423133
2630.21, 0.426142
2631.55, 0.427854
2632.89, 0.428166
2634.22, 0.429618
2635.56, 0.430241
2636.9, 0.431175
2638.25, 0.432005
2639.59, 0.432990
2640.93, 0.433924
2642.28, 0.434858
2643.63, 0.435273
2644.98, 0.436051
2646.33, 0.436570
2647.68, 0.436103
2649.03, 0.435481
2650.39, 0.435066
2651.74, 0.434806
2653.1, 0.434236
2654.46, 0.432368
2655.82, 0.430915
2657.18, 0.428269
2658.54, 0.426039
2659.9, 0.423652
2661.27, 0.420435
2662.64, 0.416493
2664.01, 0.413276
2665.38, 0.411045
2666.74, 0.407569
2668.12, 0.401914
2669.49, 0.397608
2670.87, 0.395481
2672.24, 0.389463
2673.62, 0.384068
2675.0, 0.380540
2676.38, 0.378568
2677.76, 0.375871
2679.15, 0.372913
2680.54, 0.370216
2681.92, 0.367933
2683.31, 0.366947
2684.7, 0.365650
2686.09, 0.364405
2687.48, 0.363264
2688.88, 0.361707
2690.27, 0.359476
2691.67, 0.357142
2693.07, 0.355170
2694.47, 0.352680
2695.87, 0.348582
2697.27, 0.344483
2698.67, 0.340333
2700.08, 0.336857
2701.49, 0.333744
2702.9, 0.330424
2704.31, 0.327051
2705.72, 0.324146
2707.13, 0.321241
2708.54, 0.319321
2709.96, 0.317609
2711.38, 0.316105
2712.8, 0.312784
2714.22, 0.309620
2715.64, 0.306766
2717.06, 0.304121
2718.49, 0.301111
2719.91, 0.298881
2721.34, 0.296027
2722.77, 0.291773
2724.2, 0.289127
2725.63, 0.285755
2727.07, 0.281190
2728.5, 0.277247
2729.94, 0.273148
2731.38, 0.268842
2732.82, 0.264692
2734.26, 0.260697
2735.7, 0.256183
2737.15, 0.251307
2738.59, 0.247001
2740.04, 0.242695
2741.49, 0.237403
2742.94, 0.231748
2744.39, 0.226301
2745.84, 0.221216
2747.3, 0.215613
2748.76, 0.209958
2750.21, 0.204096
2751.67, 0.198389
2753.14, 0.192630
2754.6, 0.187442
2756.06, 0.181891
2757.53, 0.175562
2759.0, 0.169648
2760.46, 0.164719
2761.94, 0.160309
2763.41, 0.155899
2764.88, 0.151230
2766.36, 0.146769
2767.83, 0.142566
2769.31, 0.138416
2770.79, 0.133902
2772.27, 0.129389
2773.76, 0.124875
2775.24, 0.120621
2776.73, 0.116159
2778.22, 0.111646
2779.71, 0.107340
2781.2, 0.103241
2782.69, 0.0991430
2784.18, 0.0954070
2785.68, 0.0919830
2787.18, 0.0886110
2788.68, 0.0852390
2790.18, 0.0821780
2791.68, 0.0792730
2793.19, 0.0765750
2794.69, 0.0739810
2796.2, 0.0716980
2797.71, 0.0693120
2799.22, 0.0669250
2800.73, 0.0646940
2802.24, 0.0627750
2803.76, 0.0607510
2805.28, 0.0588320
2806.8, 0.0568090
2808.32, 0.0548890
2809.84, 0.0529180
2811.36, 0.0510500
2812.89, 0.0491300
2814.42, 0.0470030
2815.94, 0.0448240
2817.48, 0.0427490
2819.01, 0.0407780
2820.54, 0.0389100
2822.08, 0.0367830
2823.61, 0.0348110
2825.15, 0.0328400
2826.69, 0.0310760
2828.23, 0.0295720
2829.78, 0.0280670
2831.32, 0.0264070
2832.87, 0.0248510
2834.42, 0.0235020
2835.97, 0.0224120
2837.52, 0.0211670
2839.08, 0.0199740
2840.63, 0.0189880
2842.19, 0.0181580
2843.75, 0.0172760
2845.31, 0.0167050
2846.87, 0.0158750
2848.44, 0.0153050
2850.0, 0.0149930
2851.57, 0.0145780
2853.14, 0.0144230
2854.71, 0.0144750
2856.28, 0.0145780
2857.86, 0.0152010
2859.43, 0.0160830
2861.01, 0.0174840
2862.59, 0.0196110
2864.17, 0.0222050
2865.76, 0.0252140
2867.34, 0.0285340
2868.93, 0.0323210
2870.52, 0.0362120
2872.11, 0.0398960
2873.7, 0.0437350
2875.29, 0.0474180
2876.89, 0.0505310
2878.49, 0.0532290
2880.08, 0.0554080
2881.69, 0.0571200
2883.29, 0.0584170
2884.89, 0.0590910
2886.5, 0.0594540
2888.11, 0.0595060
2889.72, 0.0592990
2891.33, 0.0591430
2892.94, 0.0587800
2894.56, 0.0583130
2896.17, 0.0578980
2897.79, 0.0572240
2899.42, 0.0566010
2901.04, 0.0560300
2902.66, 0.0554600
2904.29, 0.0547850
2905.92, 0.0543180
2907.55, 0.0538510
2909.18, 0.0535920
2910.81, 0.0533330
2912.45, 0.0530210
2914.08, 0.0527100
2915.72, 0.0523990
2917.36, 0.0522950
2919.01, 0.0520880
2920.65, 0.0519320
2922.3, 0.0518800
2923.94, 0.0518800
2925.59, 0.0518280
2927.25, 0.0518280
2928.9, 0.0518280
2930.56, 0.0519840
2932.21, 0.0522950
2933.87, 0.0526060
2935.53, 0.0527620
2937.2, 0.0529690
2938.86, 0.0534360
2940.53, 0.0540070
2942.2, 0.0540070
2943.87, 0.0543180
2945.54, 0.0549410
2947.22, 0.0553560
2948.89, 0.0558230
2950.57, 0.0566010
2952.25, 0.0573270
2953.93, 0.0579500
2955.62, 0.0586760
2957.3, 0.0594540
2958.99, 0.0602850
2960.68, 0.0611150
2962.37, 0.0618410
2964.07, 0.0625150
2965.76, 0.0632940
2967.46, 0.0640720
2969.16, 0.0650060
2970.86, 0.0658880
2972.56, 0.0669770
2974.27, 0.0682740
2975.98, 0.0693120
2977.69, 0.0702970
2979.4, 0.0714390
2981.11, 0.0725800
2982.83, 0.0736700
2984.54, 0.0746550
2986.26, 0.0759000
2987.98, 0.0771970
2989.71, 0.0783910
2991.43, 0.0793760
2993.16, 0.0804660
2994.89, 0.0816590
2996.62, 0.0827490
2998.35, 0.0839940
3000.09, 0.0853430
3001.83, 0.0868990
3003.57, 0.0885590
3005.31, 0.0901670
3007.05, 0.0918280
3008.79, 0.0936430
3010.54, 0.0956670
3012.29, 0.0977940
3014.04, 0.0999730
3015.8, 0.102204
3017.55, 0.104486
3019.31, 0.106613
3021.07, 0.108689
3022.83, 0.110764
3024.59, 0.112891
3026.36, 0.114759
3028.13, 0.116419
3029.9, 0.118027
3031.67, 0.119480
3033.44, 0.120880
3035.22, 0.122437
3037.0, 0.123838
3038.78, 0.125135
3040.56, 0.126691
3042.34, 0.128299
3044.13, 0.129908
3045.92, 0.131308
3047.71, 0.132709
3049.5, 0.134421
3051.3, 0.136081
3053.09, 0.137586
3054.89, 0.138831
3056.69, 0.139920
3058.5, 0.140750
3060.3, 0.141581
3062.11, 0.142359
3063.92, 0.142774
3065.73, 0.143189
3067.55, 0.143396
3069.36, 0.143293
3071.18, 0.143085
3073.0, 0.142774
3074.82, 0.142462
3076.65, 0.142203
3078.48, 0.141944
3080.31, 0.141684
3082.14, 0.141529
3083.97, 0.141321
3085.8, 0.141114
3087.64, 0.141114
3089.48, 0.141269
3091.33, 0.141581
3093.17, 0.141944
3095.02, 0.142307
3096.87, 0.142618
3098.72, 0.143085
3100.57, 0.143448
3102.43, 0.143759
3104.28, 0.144175
3106.14, 0.144330
3108.01, 0.144434
3109.87, 0.144797
3111.74, 0.145212
3113.61, 0.145731
3115.48, 0.146561
3117.35, 0.147391
3119.23, 0.148429
3121.1, 0.149778
3122.98, 0.151438
3124.87, 0.153357
3126.75, 0.155484
3128.64, 0.157663
3130.53, 0.159946
3132.42, 0.162333
3134.31, 0.164563
3136.21, 0.166639
3138.11, 0.168766
3140.01, 0.170789
3141.91, 0.172449
3143.82, 0.173850
3145.73, 0.175251
3147.64, 0.176600
3149.55, 0.177845
3151.46, 0.179090
3153.38, 0.180231
3155.3, 0.181528
3157.22, 0.183033
3159.14, 0.184693
3161.07, 0.186560
3163.0, 0.188480
3164.93, 0.190555
3166.86, 0.192734
3168.8, 0.194861
3170.74, 0.196936
3172.68, 0.198856
3174.62, 0.200879
3176.56, 0.202591
3178.51, 0.204096
3180.46, 0.205704
3182.42, 0.207157
3184.37, 0.208506
3186.33, 0.209855
3188.29, 0.211203
3190.25, 0.212604
3192.21, 0.213901
3194.18, 0.215250
3196.15, 0.216547
3198.12, 0.217792
3200.09, 0.219141
3202.07, 0.220646
3204.05, 0.222046
3206.03, 0.223292
3208.02, 0.224692
3210.0, 0.225885
3211.99, 0.227131
3213.98, 0.228376
3215.98, 0.229673
3217.97, 0.230762
3219.97, 0.231904
3221.97, 0.232993
3223.98, 0.233875
3225.98, 0.234861
3227.99, 0.235898
3230.0, 0.236677
3232.02, 0.237299
3234.03, 0.238025
3236.05, 0.238700
3238.07, 0.239478
3240.1, 0.240204
3242.12, 0.240827
3244.15, 0.241398
3246.18, 0.242072
3248.22, 0.242798
3250.25, 0.243525
3252.29, 0.244044
3254.33, 0.244562
3256.38, 0.245081
3258.43, 0.245859
3260.47, 0.246586
3262.53, 0.247208
3264.58, 0.247779
3266.64, 0.248401
3268.7, 0.249076
3270.76, 0.249750
3272.82, 0.250373
3274.89, 0.250892
3276.96, 0.251359
3279.04, 0.252085
3281.11, 0.252759
3283.19, 0.253330
3285.27, 0.254160
3287.35, 0.254938
3289.44, 0.255561
3291.53, 0.256287
3293.62, 0.257013
3295.71, 0.257740
3297.81, 0.258570
3299.91, 0.259504
3302.01, 0.260386
3304.11, 0.261164
3306.22, 0.261890
3308.33, 0.262668
3310.44, 0.263447
3312.56, 0.264121
3314.68, 0.264692
3316.8, 0.265314
3318.92, 0.265885
3321.05, 0.266456
3323.18, 0.267026
3325.31, 0.267649
3327.44, 0.268271
3329.58, 0.268842
3331.72, 0.269465
3333.86, 0.270191
3336.01, 0.271073
3338.16, 0.272007
3340.31, 0.272889
3342.46, 0.273874
3344.61, 0.274860
3346.77, 0.275742
3348.94, 0.276780
3351.1, 0.277869
3353.27, 0.278907
3355.44, 0.279944
3357.61, 0.280878
3359.79, 0.281968
3361.97, 0.282954
3364.15, 0.283939
3366.33, 0.285029
3368.52, 0.286170
3370.71, 0.287260
3372.9, 0.288193
3375.1, 0.289127
3377.3, 0.290217
3379.5, 0.291410
3381.71, 0.292603
3383.91, 0.293796
3386.12, 0.295042
3388.34, 0.296339
3390.55, 0.297739
3392.77, 0.299296
3394.99, 0.300852
3397.22, 0.302357
3399.45, 0.303809
3401.68, 0.305366
3403.91, 0.307026
3406.15, 0.308634
3408.39, 0.310139
3410.63, 0.311643
3412.87, 0.313148
3415.12, 0.314548
3417.37, 0.316001
3419.63, 0.317246
3421.88, 0.318491
3424.14, 0.319736
3426.41, 0.320930
3428.67, 0.321967
3430.94, 0.323005
3433.21, 0.323991
3435.49, 0.324821
3437.77, 0.325651
3440.05, 0.326585
3442.33, 0.327518
3444.62, 0.328348
3446.91, 0.329230
3449.2, 0.330009
3451.5, 0.330994
3453.8, 0.332136
3456.1, 0.333173
3458.41, 0.334211
3460.72, 0.335300
3463.03, 0.336390
3465.34, 0.337531
3467.66, 0.338621
3469.98, 0.339658
3472.31, 0.340903
3474.63, 0.342252
3476.96, 0.343446
3479.3, 0.344587
3481.64, 0.345728
3483.97, 0.346973
3486.32, 0.348270
3488.66, 0.349464
3491.01, 0.350501
3493.36, 0.351591
3495.72, 0.352473
3498.08, 0.353510
3500.44, 0.354704
3502.81, 0.355897
3505.18, 0.356986
3507.55, 0.358076
3509.92, 0.359165
3512.3, 0.360151
3514.68, 0.361085
3517.06, 0.362226
3519.45, 0.363108
3521.84, 0.363834
3524.24, 0.364664
3526.64, 0.365546
3529.04, 0.366273
3531.44, 0.366895
3533.85, 0.367725
3536.26, 0.368504
3538.67, 0.369334
3541.09, 0.370216
3543.51, 0.371098
3545.93, 0.372135
3548.36, 0.373069
3550.79, 0.374003
3553.22, 0.374885
3555.66, 0.375715
3558.1, 0.376493
3560.54, 0.377375
3562.99, 0.378153
3565.44, 0.378983
3567.9, 0.379658
3570.35, 0.380644
3572.81, 0.381577
3575.28, 0.382459
3577.75, 0.383341
3580.22, 0.384327
3582.69, 0.385365
3585.17, 0.386247
3587.65, 0.387232
3590.14, 0.388218
3592.62, 0.389204
3595.11, 0.390189
3597.61, 0.391020
3600.11, 0.391850
3602.61, 0.392680
3605.11, 0.393406
3607.62, 0.394184
3610.14, 0.394962
3612.65, 0.395637
3615.17, 0.396208
3617.69, 0.396726
3620.22, 0.397297
3622.75, 0.397816
3625.28, 0.398490
3627.82, 0.399009
3630.36, 0.399476
3632.9, 0.399995
3635.45, 0.400565
3638.0, 0.401136
3640.56, 0.401759
3643.12, 0.402381
3645.68, 0.403004
3648.24, 0.403523
3650.81, 0.404093
3653.39, 0.404716
3655.96, 0.405235
3658.54, 0.405805
3661.13, 0.406376
3663.71, 0.407050
3666.3, 0.407621
3668.9, 0.408192
3671.5, 0.408659
3674.1, 0.409126
3676.7, 0.409593
3679.31, 0.409904
3681.93, 0.410319
3684.54, 0.410682
3687.17, 0.410941
3689.79, 0.411305
3692.42, 0.411616
3695.05, 0.411927
3697.69, 0.412238
3700.32, 0.412394
3702.97, 0.412602
3705.61, 0.412861
3708.27, 0.413017
3710.92, 0.413069
3713.58, 0.413172
3716.24, 0.413224
3718.91, 0.413380
3721.58, 0.413432
3724.25, 0.413380
3726.93, 0.413484
3729.61, 0.413535
3732.29, 0.413535
3734.98, 0.413587
3737.67, 0.413691
3740.37, 0.413795
3743.07, 0.413847
3745.78, 0.414054
3748.49, 0.414210
3751.2, 0.414158
3753.91, 0.414106
3756.63, 0.414262
3759.36, 0.414314
3762.09, 0.414314
3764.82, 0.414262
3767.55, 0.414262
3770.29, 0.414158
3773.04, 0.414210
3775.78, 0.414106
3778.54, 0.414054
3781.29, 0.413899
3784.05, 0.413639
3786.82, 0.413484
3789.59, 0.413276
3792.36, 0.413017
3795.13, 0.412809
3797.92, 0.412498
3800.7, 0.412187
3803.49, 0.411823
3806.28, 0.411512
3809.08, 0.410993
3811.88, 0.410526
3814.68, 0.410008
3817.49, 0.409541
3820.31, 0.409022
3823.12, 0.408503
3825.94, 0.407829
3828.77, 0.407310
3831.6, 0.406739
3834.43, 0.406117
3837.27, 0.405287
3840.11, 0.404456
3842.96, 0.403523
3845.81, 0.402693
3848.67, 0.401759
3851.53, 0.400773
3854.39, 0.399580
3857.26, 0.398231
3860.13, 0.396623
3863.01, 0.394599
3865.89, 0.392265
3868.77, 0.389723
3871.66, 0.386869
3874.55, 0.383860
3877.45, 0.380851
3880.35, 0.377842
3883.26, 0.374937
3886.17, 0.372239
3889.09, 0.369904
3892.01, 0.368192
3894.93, 0.367103
3897.86, 0.366895
3900.79, 0.367518
3903.73, 0.369126
3906.67, 0.371357
3909.62, 0.373536
3912.57, 0.375248
3915.52, 0.376441
3918.48, 0.377064
3921.45, 0.377168
3924.42, 0.376908
3927.39, 0.376441
3930.37, 0.375871
3933.35, 0.375196
3936.34, 0.374210
3939.33, 0.373328
3942.32, 0.372446
3945.32, 0.371357
3948.33, 0.370268
3951.34, 0.369178
3954.35, 0.368192
3957.37, 0.367155
3960.39, 0.365961
3963.42, 0.364872
3966.45, 0.363731
3969.49, 0.362589
3972.53, 0.361396
3975.58, 0.360099
3978.63, 0.358802
3981.68, 0.357349
3984.75, 0.355949
3987.81, 0.354600
3990.88, 0.353147
3993.95, 0.351539
3997.03, 0.349931
4000.12, 0.348270
4003.21, 0.346714
4006.3, 0.345209
4009.4, 0.343549
4012.5, 0.341889
4015.61, 0.340125
4018.72, 0.338413
4021.84, 0.336805
4024.96, 0.335197
4028.09, 0.333381
4031.22, 0.331721
4034.36, 0.330009
4037.5, 0.328297
4040.65, 0.326533
4043.8, 0.324821
4046.96, 0.323005
4050.12, 0.321241
4053.29, 0.319425
4056.46, 0.317609
4059.64, 0.315794
4062.82, 0.313978
4066.0, 0.312058
4069.19, 0.310035
4072.39, 0.308012
4075.59, 0.306092
4078.8, 0.304121
4082.01, 0.302149
4085.23, 0.300178
4088.45, 0.298206
4091.68, 0.296183
4094.91, 0.294160
4098.15, 0.292188
4101.39, 0.290165
4104.63, 0.288141
4107.89, 0.286170
4111.14, 0.284199
4114.41, 0.282383
4117.67, 0.280463
4120.95, 0.278699
4124.23, 0.276987
4127.51, 0.275379
4130.8, 0.273667
4134.09, 0.272214
4137.39, 0.270917
4140.7, 0.269517
4144.01, 0.268168
4147.32, 0.266974
4150.64, 0.265729
4153.97, 0.264588
4157.3, 0.263343
4160.64, 0.262202
4163.98, 0.261008
4167.33, 0.259659
4170.68, 0.258259
4174.04, 0.256754
4177.4, 0.255146
4180.77, 0.253330
4184.14, 0.251514
4187.52, 0.249647
4190.91, 0.247571
4194.3, 0.245185
4197.69, 0.242747
4201.1, 0.240101
4204.5, 0.237403
4207.92, 0.234601
4211.34, 0.231644
4214.76, 0.228480
4218.19, 0.225159
4221.62, 0.221787
4225.06, 0.218311
4228.51, 0.214835
4231.96, 0.211359
4235.42, 0.207779
4238.88, 0.204200
4242.35, 0.200672
4245.83, 0.197248
4249.31, 0.193876
4252.79, 0.190400
4256.28, 0.186820
4259.78, 0.183396
4263.29, 0.180075
4266.79, 0.176703
4270.31, 0.173175
4273.83, 0.169596
4277.35, 0.165860
4280.89, 0.161969
4284.42, 0.158234
4287.97, 0.154447
4291.52, 0.150504
4295.07, 0.146769
4298.63, 0.143189
4302.2, 0.139920
4305.78, 0.136963
4309.35, 0.134265
4312.94, 0.131775
4316.53, 0.129544
4320.13, 0.127521
4323.73, 0.125653
4327.34, 0.123993
4330.96, 0.122489
4334.58, 0.121295
4338.21, 0.120362
4341.84, 0.119687
4345.48, 0.119480
4349.12, 0.119583
4352.77, 0.119895
4356.43, 0.120413
4360.1, 0.120932
4363.76, 0.121451
4367.44, 0.121762
4371.12, 0.121762
4374.81, 0.121607
4378.51, 0.121088
4382.21, 0.120258
4385.92, 0.119272
4389.63, 0.118235
4393.35, 0.116938
4397.08, 0.115641
4400.81, 0.114447
4404.55, 0.113202
4408.29, 0.112113
4412.04, 0.111179
4415.8, 0.110297
4419.57, 0.109519
4423.34, 0.108792
4427.12, 0.108222
4430.9, 0.107651
4434.69, 0.106977
4438.49, 0.106250
4442.29, 0.105628
4446.1, 0.104798
4449.92, 0.103968
4453.74, 0.103086
4457.57, 0.102359
4461.41, 0.101685
4465.25, 0.101062
4469.1, 0.100336
4472.95, 0.0996100
4476.82, 0.0988310
4480.69, 0.0981570
4484.56, 0.0976900
4488.44, 0.0972750
4492.33, 0.0970160
4496.23, 0.0969120
4500.13, 0.0968080
4504.04, 0.0968080
4507.96, 0.0968080
4511.88, 0.0968600
4515.81, 0.0967040
4519.75, 0.0964970
4523.69, 0.0961860
4527.65, 0.0959780
4531.6, 0.0957190
4535.57, 0.0952000
4539.54, 0.0946290
4543.52, 0.0940070
4547.5, 0.0933320
4551.5, 0.0927610
4555.5, 0.0922430
4559.5, 0.0918790
4563.52, 0.0917240
4567.54, 0.0917240
4571.56, 0.0918280
4575.6, 0.0922950
4579.64, 0.0931250
4583.69, 0.0941620
4587.75, 0.0953550
4591.81, 0.0966520
4595.88, 0.0980530
4599.96, 0.0994540
4604.04, 0.100647
4608.14, 0.101840
4612.24, 0.102930
4616.34, 0.103916
4620.46, 0.105109
4624.58, 0.106510
4628.71, 0.108118
4632.84, 0.109934
4636.99, 0.111853
4641.14, 0.113928
4645.3, 0.115796
4649.47, 0.117249
4653.64, 0.118183
4657.82, 0.118650
4662.01, 0.118598
4666.21, 0.118131
4670.41, 0.117353
4674.62, 0.116367
4678.84, 0.115225
4683.07, 0.114292
4687.3, 0.113669
4691.54, 0.113825
4695.79, 0.114759
4700.05, 0.116626
4704.31, 0.119532
4708.59, 0.123371
4712.87, 0.127832
4717.15, 0.132917
4721.45, 0.138416
4725.76, 0.144278
4730.07, 0.150400
4734.39, 0.157041
4738.72, 0.164356
4743.05, 0.172293
4747.39, 0.181165
4751.75, 0.191074
4756.1, 0.201813
4760.47, 0.213071
4764.85, 0.224225
4769.23, 0.234653
4773.62, 0.244095
4778.02, 0.252189
4782.43, 0.259037
4786.85, 0.264795
4791.27, 0.269672
4795.7, 0.273408
4800.14, 0.275846
4804.59, 0.276572
4809.05, 0.275794
4813.51, 0.273978
4817.99, 0.272007
4822.47, 0.270969
4826.96, 0.271955
4831.46, 0.275379
4835.96, 0.281293
4840.48, 0.289023
4845.0, 0.297636
4849.54, 0.306144
4854.08, 0.313822
4858.63, 0.319736
4863.18, 0.323627
4867.75, 0.325339
4872.33, 0.325599
4876.91, 0.326118
4881.5, 0.328348
4886.1, 0.332239
4890.71, 0.336857
4895.33, 0.341370
4899.96, 0.345417
4904.59, 0.348789
4909.24, 0.351643
4913.89, 0.354133
4918.55, 0.356467
4923.22, 0.358646
4927.9, 0.360670
4932.59, 0.362434
4937.29, 0.364042
4942.0, 0.365287
4946.71, 0.366377
4951.44, 0.367103
4956.17, 0.367622
4960.91, 0.368037
4965.67, 0.368296
4970.43, 0.368400
4975.2, 0.368504
4979.98, 0.368659
4984.76, 0.368815
4989.56, 0.368815
4994.37, 0.368711
4999.18, 0.368555
5004.01, 0.368400
5008.84, 0.368140
5013.69, 0.367933
5018.54, 0.367622
5023.4, 0.367207
5028.28, 0.366688
5033.16, 0.366221
5038.05, 0.365650
5042.95, 0.365235
5047.86, 0.364716
5052.78, 0.364249
5057.71, 0.363627
5062.65, 0.363108
5067.6, 0.362589
5072.56, 0.362174
5077.53, 0.361655
5082.5, 0.361292
5087.49, 0.360722
5092.49, 0.360151
5097.5, 0.359528
5102.51, 0.359010
5107.54, 0.358387
5112.58, 0.357816
5117.62, 0.357194
5122.68, 0.356416
5127.75, 0.355637
5132.82, 0.355067
5137.91, 0.354444
5143.01, 0.353873
5148.12, 0.353303
5153.23, 0.352473
5158.36, 0.351591
5163.5, 0.351020
5168.65, 0.350449
5173.81, 0.349879
5178.98, 0.349256
5184.15, 0.348737
5189.34, 0.348219
5194.54, 0.347700
5199.75, 0.347285
5204.98, 0.346818
5210.21, 0.346403
5215.45, 0.346091
5220.7, 0.345209
5225.96, 0.344535
5231.23, 0.344016
5236.52, 0.343497
5241.81, 0.342875
5247.12, 0.342200
5252.44, 0.341370
5257.76, 0.340592
5263.1, 0.339866
5268.45, 0.339295
5273.81, 0.338673
5279.18, 0.338050
5284.56, 0.337272
5289.95, 0.336753
5295.36, 0.335975
5300.77, 0.335041
5306.2, 0.334211
5311.63, 0.333381
5317.08, 0.332447
5322.54, 0.331565
5328.01, 0.330527
5333.49, 0.329386
5338.98, 0.328089
5344.49, 0.327155
5350.0, 0.326273
5355.53, 0.324717
5361.07, 0.322953
5366.62, 0.321448
5372.18, 0.319840
5377.75, 0.318128
5383.34, 0.316260
5388.93, 0.314393
5394.54, 0.312473
5400.16, 0.310450
5405.79, 0.308271
5411.44, 0.306092
5417.09, 0.303861
5422.76, 0.301734
5428.43, 0.298362
5434.12, 0.294886
5439.83, 0.291617
5445.54, 0.288193
5451.26, 0.284666
5457.0, 0.281345
5462.75, 0.278492
5468.52, 0.275431
5474.29, 0.272526
5480.08, 0.270347
5485.88, 0.268012
5491.69, 0.266248
5497.51, 0.264744
5503.35, 0.263447
5509.2, 0.262305
5515.06, 0.261423
5520.93, 0.260697
5526.82, 0.260178
5532.71, 0.259607
5538.63, 0.259244
5544.55, 0.258985
5550.49, 0.259141
5556.44, 0.259037
5562.4, 0.258674
5568.37, 0.258310
5574.36, 0.258466
5580.36, 0.258674
5586.37, 0.257792
5592.4, 0.256754
5598.44, 0.256235
5604.49, 0.255457
5610.56, 0.254420
5616.63, 0.253382
5622.73, 0.252085
5628.83, 0.250840
5634.95, 0.250062
5641.08, 0.249595
5647.23, 0.248401
5653.39, 0.246897
5659.56, 0.245652
5665.74, 0.244251
5671.94, 0.243732
5678.15, 0.242954
5684.38, 0.241761
5690.62, 0.240827
5696.87, 0.239737
5703.14, 0.238700
5709.42, 0.238440
5715.72, 0.237455
5722.03, 0.236210
5728.35, 0.235172
5734.69, 0.234446
5741.03, 0.233719
5747.4, 0.233356
5753.78, 0.232371
5760.17, 0.232007
5766.58, 0.232474
5773.0, 0.231125
5779.44, 0.229361
5785.88, 0.227961
5792.35, 0.226404
5798.83, 0.225055
5805.32, 0.223343
5811.83, 0.221735
5818.35, 0.220594
5824.89, 0.219037
5831.45, 0.216184
5838.01, 0.213331
5844.59, 0.210529
5851.19, 0.207987
5857.8, 0.205237
5864.43, 0.202176
5871.07, 0.198285
5877.73, 0.195276
5884.4, 0.191126
5891.09, 0.186872
5897.79, 0.184122
5904.5, 0.181269
5911.23, 0.179245
5917.98, 0.178000
5924.75, 0.177066
5931.53, 0.177274
5938.32, 0.178208
5945.13, 0.177793
5951.96, 0.177845
5958.8, 0.178467
5965.65, 0.179816
5972.53, 0.181061
5979.42, 0.181580
5986.32, 0.182669
5993.24, 0.183292
6000.18, 0.182929
6007.13, 0.182721
6014.1, 0.182669
6021.08, 0.182047
6028.09, 0.181269
6035.1, 0.180698
6042.14, 0.181061
6049.19, 0.181995
6056.25, 0.180698
6063.34, 0.179557
6070.44, 0.179868
6077.55, 0.179764
6084.69, 0.179090
6091.84, 0.178830
6099.0, 0.178778
6106.19, 0.178934
6113.39, 0.179557
6120.61, 0.178882
6127.84, 0.178104
6135.09, 0.177845
6142.36, 0.177948
6149.65, 0.177741
6156.95, 0.177741
6164.27, 0.177637
6171.61, 0.177222
6178.97, 0.177222
6186.34, 0.177378
6193.73, 0.176444
6201.14, 0.175354
6208.57, 0.174369
6216.01, 0.173175
6223.47, 0.171567
6230.95, 0.169803
6238.45, 0.167832
6245.97, 0.165757
6253.5, 0.163733
6261.06, 0.161917
6268.63, 0.159998
6276.21, 0.158234
6283.82, 0.156781
6291.45, 0.155484
6299.1, 0.154135
6306.76, 0.153098
6314.44, 0.152060
6322.14, 0.151075
6329.86, 0.150037
6337.6, 0.149518
6345.35, 0.149155
6353.13, 0.147962
6360.92, 0.146976
6368.74, 0.146561
6376.57, 0.145575
6384.43, 0.144226
6392.3, 0.142826
6400.19, 0.141425
6408.1, 0.140647
6416.03, 0.139350
6423.98, 0.136289
6431.95, 0.133591
6439.94, 0.131049
6447.95, 0.128662
6455.98, 0.126380
6464.03, 0.124149
6472.1, 0.121918
6480.19, 0.119635
6488.31, 0.117560
6496.44, 0.114914
6504.59, 0.111594
6512.76, 0.108844
6520.95, 0.106302
6529.16, 0.103501
6537.4, 0.100907
6545.65, 0.0987280
6553.92, 0.0966010
6562.22, 0.0945250
6570.54, 0.0929170
6578.88, 0.0910490
6587.23, 0.0891300
6595.61, 0.0875730
6604.02, 0.0862250
6612.44, 0.0855500
6620.89, 0.0850830
6629.35, 0.0851350
6637.84, 0.0853940
6646.35, 0.0850310
6654.88, 0.0846160
6663.44, 0.0847720
6672.01, 0.0851350
6680.61, 0.0855500
6689.23, 0.0856540
6697.88, 0.0858610
6706.54, 0.0863800
6715.23, 0.0870030
6723.94, 0.0874180
6732.67, 0.0877810
6741.42, 0.0881440
6750.2, 0.0886110
6759.0, 0.0889740
6767.82, 0.0893370
6776.67, 0.0894930
6785.54, 0.0897010
6794.44, 0.0894930
6803.35, 0.0888700
6812.29, 0.0883520
6821.26, 0.0879370
6830.24, 0.0873660
6839.25, 0.0864320
6848.29, 0.0855500
6857.35, 0.0849280
6866.43, 0.0838380
6875.54, 0.0822820
6884.67, 0.0808810
6893.82, 0.0795320
6903.0, 0.0782350
6912.2, 0.0770420
6921.43, 0.0759000
6930.69, 0.0748110
6939.96, 0.0738770
6949.27, 0.0733580
6958.59, 0.0730990
6967.95, 0.0725280
6977.33, 0.0720090
6986.73, 0.0718540
6996.16, 0.0717500
7005.61, 0.0716980
7015.09, 0.0716980
7024.6, 0.0716460
7034.13, 0.0715430
7043.69, 0.0715940
7053.27, 0.0712830
7062.88, 0.0708680
7072.52, 0.0701940
7082.18, 0.0694150
7091.87, 0.0686890
7101.58, 0.0679110
7111.32, 0.0668730
7121.09, 0.0657320
7130.88, 0.0646420
7140.71, 0.0637610
7150.56, 0.0627750
7160.43, 0.0617890
7170.33, 0.0608030
7180.27, 0.0597660
7190.23, 0.0587280
7200.21, 0.0578980
7210.23, 0.0569120
7220.27, 0.0558750
7230.34, 0.0549410
7240.44, 0.0541630
7250.56, 0.0532290
7260.72, 0.0523470
7270.9, 0.0513610
7281.12, 0.0504790
7291.36, 0.0494940
7301.63, 0.0486120
7311.93, 0.0475740
7322.25, 0.0465360
7332.61, 0.0454990
7343.0, 0.0444610
7353.41, 0.0433200
7363.86, 0.0420750
7374.33, 0.0408810
7384.83, 0.0397920
7395.37, 0.0385470
7405.93, 0.0375090
7416.53, 0.0364720
7427.15, 0.0353820
7437.81, 0.0342930
7448.5, 0.0333070
7459.22, 0.0323210
7469.96, 0.0314390
7480.74, 0.0305570
7491.55, 0.0296750
7502.39, 0.0287930
7513.27, 0.0282230
7524.17, 0.0276520
7535.11, 0.0271330
7546.08, 0.0266660
7557.08, 0.0263550
7568.11, 0.0260440
7579.17, 0.0258880
7590.27, 0.0258360
7601.4, 0.0261480
7612.56, 0.0266140
7623.76, 0.0273930
7634.98, 0.0284300
7646.24, 0.0298310
7657.54, 0.0314910
7668.87, 0.0333590
7680.23, 0.0353820
7691.62, 0.0377170
7703.05, 0.0402590
7714.51, 0.0434750
7726.01, 0.0474700
7737.54, 0.0518280
7749.11, 0.0557710
7760.71, 0.0586240
7772.35, 0.0601290
7784.02, 0.0602850
7795.72, 0.0592470
7807.46, 0.0574830
7819.23, 0.0552000
7831.04, 0.0526060
7842.89, 0.0497530
7854.77, 0.0470550
7866.69, 0.0445130
7878.65, 0.0422820
7890.64, 0.0402590
7902.67, 0.0385470
7914.74, 0.0370420
7926.84, 0.0357450
7938.98, 0.0344480
7951.16, 0.0333590
7963.37, 0.0324770
7975.62, 0.0317510
7987.91, 0.0310240
8000.24, 0.0304540
8012.6, 0.0299350
8025.01, 0.0295720
8037.45, 0.0293120
8049.93, 0.0292600
8062.45, 0.0291570
8075.01, 0.0291050
8087.61, 0.0291570
8100.24, 0.0293640
8112.91, 0.0296230
8125.63, 0.0300390
8138.39, 0.0305570
8151.18, 0.0312320
8164.02, 0.0321660
8176.9, 0.0334110
8189.81, 0.0349150
8202.77, 0.0368870
8215.77, 0.0392210
8228.82, 0.0420750
8241.9, 0.0453950
8255.02, 0.0491300
8268.19, 0.0534360
8281.39, 0.0583130
8294.65, 0.0638120
8307.94, 0.0699860
8321.28, 0.0767820
8334.66, 0.0843050
8348.08, 0.0927100
8361.54, 0.102152
8375.05, 0.112528
8388.6, 0.123993
8402.2, 0.136444
8415.84, 0.150037
8429.52, 0.164927
8443.25, 0.181217
8457.02, 0.198960
8470.84, 0.217325
8484.7, 0.235950
8498.61, 0.253641
8512.57, 0.268687
8526.57, 0.278959
8540.62, 0.282175
8554.71, 0.276520
8568.85, 0.264588
8583.04, 0.253486
8597.27, 0.249906
8611.55, 0.254108
8625.88, 0.262046
8640.26, 0.269932
8654.68, 0.276676
8669.16, 0.282227
8683.68, 0.286948
8698.25, 0.290995
8712.87, 0.294886
8727.53, 0.298362
8742.25, 0.301319
8757.02, 0.303913
8771.83, 0.306196
8786.7, 0.308115
8801.62, 0.310035
8816.59, 0.311643
8831.61, 0.312888
8846.68, 0.314030
8861.8, 0.314808
8876.97, 0.314704
8892.2, 0.313926
8907.48, 0.312421
8922.81, 0.310709
8938.2, 0.308738
8953.63, 0.306507
8969.13, 0.304380
8984.67, 0.302460
9000.27, 0.300230
9015.92, 0.298102
9031.63, 0.295664
9047.39, 0.292603
9063.21, 0.289387
9079.08, 0.286274
9095.01, 0.282694
9111.0, 0.278492
9127.04, 0.273926
9143.13, 0.269257
9159.28, 0.264225
9175.49, 0.259037
9191.76, 0.253382
9208.09, 0.246949
9224.47, 0.238959
9240.92, 0.229465
9257.42, 0.217948
9273.98, 0.204718
9290.6, 0.191022
9307.28, 0.178104
9324.02, 0.166690
9340.82, 0.156833
9357.68, 0.148532
9374.6, 0.142255
9391.58, 0.136963
9408.62, 0.132553
9425.73, 0.129129
9442.9, 0.125965
9460.13, 0.123423
9477.42, 0.121192
9494.78, 0.119168
9512.2, 0.117093
9529.69, 0.115070
9547.24, 0.113306
9564.86, 0.111646
9582.54, 0.109986
9600.28, 0.108533
9618.1, 0.106717
9635.97, 0.104175
9653.92, 0.101425
9671.93, 0.0985720
9690.01, 0.0948890
9708.16, 0.0920870
9726.37, 0.0904790
9744.65, 0.0894410
9763.0, 0.0893890
9781.43, 0.0900640
9799.92, 0.0913090
9818.48, 0.0932280
9837.1, 0.0959260
9855.8, 0.0989350
9874.58, 0.101944
9893.42, 0.104019
9912.34, 0.105109
9931.33, 0.106406
9950.39, 0.108429
9969.52, 0.110816
9988.74, 0.112631
10008.0, 0.113773
10027.4, 0.114344
10046.8, 0.114655
10066.3, 0.115122
10085.9, 0.115537
10105.6, 0.116159
10125.3, 0.116782
10145.1, 0.117560
10165.0, 0.118442
10185.0, 0.119428
10205.0, 0.120206
10225.2, 0.120984
10245.4, 0.121607
10265.7, 0.121918
10286.0, 0.122022
10306.5, 0.122074
10327.0, 0.122022
10347.6, 0.121607
10368.3, 0.121140
10389.1, 0.120829
10409.9, 0.120102
10430.9, 0.119220
10451.9, 0.118235
10473.0, 0.117249
10494.2, 0.116471
10515.5, 0.115485
10536.9, 0.114395
10558.4, 0.113513
10579.9, 0.113150
10601.5, 0.113047
10623.3, 0.113047
10645.1, 0.113254
10667.0, 0.113202
10689.0, 0.112683
10711.1, 0.111957
10733.2, 0.111075
10755.5, 0.110297
10777.9, 0.109415
10800.3, 0.108118
10822.9, 0.106665
10845.5, 0.105368
10868.2, 0.104227
10891.1, 0.103034
10914.0, 0.101840
10937.0, 0.100595
10960.2, 0.0990910
10983.4, 0.0977420
11006.7, 0.0964970
11030.1, 0.0952000
11053.6, 0.0939550
11077.3, 0.0927610
11101.0, 0.0915680
11124.8, 0.0904790
11148.7, 0.0898560
11172.7, 0.0893890
11196.9, 0.0890780
11221.1, 0.0888700
11245.4, 0.0885070
11269.9, 0.0882480
11294.4, 0.0879880
11319.1, 0.0878850
11343.9, 0.0875220
11368.8, 0.0868990
11393.7, 0.0861730
11418.8, 0.0856540
11444.0, 0.0850830
11469.4, 0.0840970
11494.8, 0.0828000
11520.3, 0.0814000
11546.0, 0.0799990
11571.8, 0.0785460
11597.7, 0.0770940
11623.7, 0.0757450
11649.8, 0.0741880
11676.0, 0.0725280
11702.4, 0.0708160
11728.9, 0.0691040
11755.5, 0.0672880
11782.2, 0.0655240
11809.0, 0.0636570
11836.0, 0.0616850
11863.0, 0.0597140
11890.3, 0.0578460
11917.6, 0.0562380
11945.0, 0.0545260
11972.6, 0.0529180
12000.4, 0.0514650
12028.2, 0.0497010
12056.2, 0.0478850
12084.3, 0.0462250
12112.5, 0.0449280
12140.9, 0.0433720
12169.4, 0.0415040
12198.0, 0.0395330
12226.8, 0.0379240
12255.7, 0.0362640
12284.7, 0.0348630
12313.9, 0.0334110
12343.2, 0.0321660
12372.7, 0.0308690
12402.3, 0.0295200
12432.0, 0.0281710
12461.9, 0.0268220
12491.9, 0.0256290
12522.1, 0.0245390
12552.4, 0.0236570
12582.9, 0.0227750
12613.5, 0.0216340
12644.3, 0.0207000
12675.2, 0.0196630
12706.3, 0.0186770
12737.5, 0.0175870
12768.9, 0.0167050
12800.4, 0.0159790
12832.1, 0.0153050
12863.9, 0.0144750
12895.9, 0.0136440
12928.1, 0.0129180
12960.4, 0.0123990
12992.9, 0.0119840
13025.5, 0.0121400
13058.3, 0.0121920
13091.3, 0.0123990
13124.4, 0.0131780
13157.8, 0.0143190
13191.2, 0.0157720
13224.9, 0.0173280
13258.7, 0.0194030
13292.7, 0.0222570
13326.9, 0.0255250
13361.2, 0.0292600
13395.7, 0.0334110
13430.4, 0.0382870
13465.3, 0.0437870
13500.4, 0.0497010
13535.7, 0.0562380
13571.1, 0.0635530
13606.7, 0.0712310
13642.5, 0.0791170
13678.5, 0.0868990
13714.7, 0.0946810
13751.1, 0.102255
13787.6, 0.108948
13824.4, 0.114862
13861.4, 0.120465
13898.5, 0.125290
13935.9, 0.128714
13973.5, 0.131256
14011.2, 0.132917
14049.2, 0.133850
14087.4, 0.134058
14125.8, 0.133383
14164.3, 0.132346
14203.2, 0.130530
14242.2, 0.128040
14281.4, 0.124927
14320.9, 0.121036
14360.5, 0.116471
14400.4, 0.111438
14440.5, 0.106302
14480.9, 0.101425
14521.4, 0.0962370
14562.2, 0.0910490
14603.3, 0.0861210
14644.5, 0.0813480
14686.0, 0.0772490
14727.7, 0.0734100
14769.7, 0.0698300
14811.9, 0.0674440
14854.3, 0.0657840
14897.0, 0.0648500
14939.9, 0.0651090
14983.1, 0.0667180
15026.5, 0.0699860
15070.2, 0.0757970
15114.2, 0.0840460
15158.3, 0.0946290
15202.8, 0.106977
15247.5, 0.120569
15292.5, 0.133799
15337.7, 0.145679
15383.2, 0.155640
15429.0, 0.165393
15475.1, 0.176288
15521.4, 0.187131
15568.0, 0.195536
15614.9, 0.200931
15662.1, 0.203525
15709.6, 0.203577
15757.3, 0.201813
15805.4, 0.198493
15853.7, 0.193201
15902.3, 0.184952
15951.2, 0.172709
16000.5, 0.157767
16050.0, 0.141165
16099.8, 0.124720
16150.0, 0.111438
16200.5, 0.105420
16251.3, 0.111075
16302.4, 0.130271
16353.8, 0.157923
16405.5, 0.184330
16457.6, 0.203266
16510.0, 0.214887
16562.8, 0.220075
16615.9, 0.221164
16669.3, 0.218778
16723.1, 0.212241
16777.2, 0.201709
16831.7, 0.189777
16886.5, 0.177637
16941.7, 0.166483
16997.2, 0.156989
17053.1, 0.148947
17109.4, 0.141632
17166.1, 0.136237
17223.1, 0.131723
17280.5, 0.127573
17338.3, 0.123838
17396.5, 0.120932
17455.1, 0.117768
17514.0, 0.115122
17573.4, 0.113202
17633.2, 0.111438
17693.4, 0.110089
17754.0, 0.108740
17815.0, 0.106302
17876.4, 0.104849
17938.3, 0.104071
18000.5, 0.102878
18063.3, 0.100699
18126.4, 0.0987280
18190.0, 0.0972750
18254.1, 0.0953550
18318.6, 0.0936950
18383.5, 0.0919310
18449.0, 0.0895970
18514.9, 0.0884550
18581.2, 0.0881960
18648.0, 0.0878850
18715.4, 0.0876770
18783.2, 0.0882480
18851.5, 0.0887670
18920.3, 0.0888190
18989.6, 0.0875220
19059.4, 0.0858100
19129.7, 0.0862250
19200.6, 0.0868990
19272.0, 0.0870030
19343.9, 0.0866910
19416.3, 0.0859650
19489.3, 0.0854460
19562.8, 0.0847200
19637.0, 0.0849790
19711.6, 0.0852390
19786.8, 0.0835270
19862.6, 0.0814000
19939.0, 0.0791690
20016.0, 0.0772490
20093.6, 0.0757450
20171.8, 0.0723730
20250.6, 0.0691040
20330.0, 0.0669250
20410.0, 0.0678070
20490.7, 0.0707640
20572.0, 0.0743440
20654.0, 0.0794800
20736.6, 0.0834230
20819.9, 0.0853940
20903.8, 0.0868990
20988.5, 0.0868470
21073.8, 0.0857060
21159.8, 0.0847720
21246.5, 0.0836820
21334.0, 0.0818150
21422.1, 0.0788580
21511.0, 0.0765230
21600.7, 0.0756410
21691.0, 0.0744480
21782.1, 0.0737730
21874.0, 0.0721650
21966.7, 0.0702460
22060.2, 0.0694150
22154.5, 0.0691040
22249.6, 0.0693640
22345.5, 0.0709200
22442.2, 0.0716460
22539.8, 0.0710760
22638.2, 0.0719060
22737.5, 0.0750700
22837.7, 0.0754340
22938.7, 0.0748110
23040.7, 0.0749670
23143.5, 0.0744480
23247.3, 0.0735660
23352.1, 0.0731510
23457.7, 0.0711790
23564.4, 0.0714910
23672.0, 0.0701420
23780.5, 0.0667180
23890.1, 0.0653690
24000.7, 0.0664060
24112.3, 0.0649540
24225.0, 0.0615300
24338.7, 0.0598700
24453.5, 0.0611670
24569.4, 0.0590390
24686.4, 0.0546820
24804.5, 0.0514650
24923.8, 0.0514650
