Database of Origin, USGS Spectral Database
Sample Description, See USGS database for additional info
Date Added,2016-08-10 05:19:28.290328

Data ID,USGS_oli21          
Sample ID, olivine_ki3005.16805
Mineral Name, olivine
Material Class,Nesosilicate

Wavelength
1419.15, 0.224656
1419.54, 0.224736
1419.93, 0.224937
1420.32, 0.224978
1420.71, 0.224937
1421.09, 0.225259
1421.48, 0.225661
1421.88, 0.225702
1422.27, 0.225621
1422.66, 0.225903
1423.05, 0.226104
1423.44, 0.225983
1423.83, 0.226023
1424.22, 0.226064
1424.61, 0.226184
1425.0, 0.226546
1425.39, 0.227029
1425.78, 0.226908
1426.18, 0.226788
1426.57, 0.226868
1426.96, 0.227270
1427.36, 0.227592
1427.75, 0.227512
1428.14, 0.227472
1428.54, 0.227632
1428.93, 0.227673
1429.32, 0.227793
1429.72, 0.228035
1430.11, 0.228477
1430.51, 0.228397
1430.9, 0.228437
1431.3, 0.228920
1431.69, 0.229081
1432.09, 0.228960
1432.48, 0.228960
1432.88, 0.228920
1433.28, 0.229161
1433.67, 0.229644
1434.07, 0.229966
1434.46, 0.230046
1434.86, 0.229805
1435.26, 0.230006
1435.66, 0.230328
1436.05, 0.230448
1436.45, 0.230448
1436.85, 0.230649
1437.25, 0.230810
1437.65, 0.231212
1438.05, 0.231333
1438.44, 0.231052
1438.84, 0.231132
1439.24, 0.231494
1439.64, 0.231494
1440.04, 0.231615
1440.44, 0.231816
1440.84, 0.232218
1441.24, 0.232620
1441.65, 0.232500
1442.05, 0.232379
1442.45, 0.232500
1442.85, 0.232862
1443.25, 0.233143
1443.65, 0.233344
1444.05, 0.233425
1444.46, 0.233465
1444.86, 0.233666
1445.26, 0.234229
1445.67, 0.234471
1446.07, 0.234270
1446.47, 0.234511
1446.88, 0.234591
1447.28, 0.234712
1447.68, 0.234712
1448.09, 0.235114
1448.49, 0.235275
1448.9, 0.235275
1449.3, 0.235637
1449.71, 0.235919
1450.11, 0.235919
1450.52, 0.235919
1450.93, 0.236120
1451.33, 0.236120
1451.74, 0.236160
1452.14, 0.236442
1452.55, 0.236562
1452.96, 0.236844
1453.36, 0.237045
1453.77, 0.237085
1454.18, 0.237327
1454.59, 0.237648
1455.0, 0.237769
1455.41, 0.237608
1455.81, 0.237769
1456.22, 0.238051
1456.63, 0.238212
1457.04, 0.238212
1457.45, 0.238372
1457.86, 0.238574
1458.27, 0.238895
1458.68, 0.239177
1459.09, 0.239579
1459.5, 0.239579
1459.91, 0.239539
1460.32, 0.239619
1460.74, 0.239700
1461.15, 0.239981
1461.56, 0.240142
1461.97, 0.240142
1462.39, 0.240223
1462.8, 0.240464
1463.21, 0.240746
1463.62, 0.241108
1464.04, 0.241148
1464.45, 0.241550
1464.86, 0.241550
1465.28, 0.241792
1465.69, 0.241993
1466.11, 0.242073
1466.52, 0.242154
1466.94, 0.242435
1467.35, 0.242797
1467.77, 0.243039
1468.18, 0.243199
1468.6, 0.243199
1469.02, 0.243521
1469.43, 0.243561
1469.85, 0.243561
1470.27, 0.243964
1470.68, 0.244446
1471.1, 0.244607
1471.52, 0.244406
1471.94, 0.244567
1472.35, 0.244929
1472.77, 0.245291
1473.19, 0.245573
1473.61, 0.245935
1474.03, 0.246136
1474.45, 0.246257
1474.87, 0.246619
1475.29, 0.246578
1475.71, 0.246578
1476.13, 0.246779
1476.55, 0.247021
1476.97, 0.247463
1477.39, 0.247825
1477.81, 0.248026
1478.23, 0.248067
1478.65, 0.248308
1479.07, 0.248509
1479.5, 0.248710
1479.92, 0.248992
1480.34, 0.249273
1480.76, 0.249434
1481.19, 0.249877
1481.61, 0.250118
1482.03, 0.249997
1482.46, 0.250239
1482.88, 0.250641
1483.31, 0.250882
1483.73, 0.251084
1484.16, 0.251325
1484.58, 0.251687
1485.01, 0.251848
1485.43, 0.252009
1485.86, 0.252170
1486.28, 0.252733
1486.71, 0.252934
1487.14, 0.253135
1487.56, 0.253658
1487.99, 0.253738
1488.42, 0.254060
1488.84, 0.254181
1489.27, 0.254302
1489.7, 0.254664
1490.13, 0.254865
1490.56, 0.255146
1490.98, 0.255267
1491.41, 0.255508
1491.84, 0.255629
1492.27, 0.255750
1492.7, 0.256353
1493.13, 0.256795
1493.56, 0.256876
1493.99, 0.256715
1494.42, 0.256876
1494.85, 0.257318
1495.29, 0.257882
1495.72, 0.258163
1496.15, 0.258284
1496.58, 0.258485
1497.01, 0.258686
1497.44, 0.258968
1497.88, 0.259410
1498.31, 0.259491
1498.74, 0.259370
1499.18, 0.259973
1499.61, 0.260295
1500.04, 0.260496
1500.48, 0.260617
1500.91, 0.261140
1501.35, 0.261421
1501.78, 0.261622
1502.22, 0.261944
1502.65, 0.262145
1503.09, 0.262387
1503.53, 0.262668
1503.96, 0.262829
1504.4, 0.263151
1504.83, 0.263312
1505.27, 0.263392
1505.71, 0.263513
1506.15, 0.263875
1506.58, 0.264519
1507.02, 0.264720
1507.46, 0.264921
1507.9, 0.265283
1508.34, 0.265484
1508.78, 0.265725
1509.21, 0.266007
1509.66, 0.266248
1510.09, 0.266651
1510.53, 0.266570
1510.97, 0.266771
1511.42, 0.267093
1511.86, 0.267334
1512.3, 0.267696
1512.74, 0.268260
1513.18, 0.268380
1513.62, 0.268541
1514.06, 0.268581
1514.51, 0.268903
1514.95, 0.269346
1515.39, 0.269547
1515.83, 0.269627
1516.28, 0.269828
1516.72, 0.269949
1517.16, 0.270190
1517.61, 0.270472
1518.05, 0.270834
1518.5, 0.271196
1518.94, 0.271276
1519.39, 0.271558
1519.83, 0.271840
1520.28, 0.272161
1520.73, 0.272604
1521.17, 0.272845
1521.62, 0.273167
1522.07, 0.273449
1522.51, 0.273971
1522.96, 0.274213
1523.41, 0.274253
1523.85, 0.274414
1524.3, 0.274776
1524.75, 0.275058
1525.2, 0.275460
1525.65, 0.275701
1526.1, 0.275943
1526.55, 0.276144
1527.0, 0.276305
1527.45, 0.276787
1527.9, 0.277350
1528.35, 0.277632
1528.8, 0.277914
1529.25, 0.278155
1529.7, 0.278276
1530.15, 0.278517
1530.6, 0.278959
1531.05, 0.279120
1531.51, 0.279482
1531.96, 0.279965
1532.41, 0.280367
1532.87, 0.280689
1533.32, 0.281051
1533.77, 0.281252
1534.23, 0.281373
1534.68, 0.281936
1535.14, 0.282378
1535.59, 0.282539
1536.05, 0.282620
1536.5, 0.282942
1536.96, 0.283465
1537.41, 0.283947
1537.87, 0.284028
1538.32, 0.284350
1538.78, 0.284832
1539.24, 0.285154
1539.7, 0.285275
1540.15, 0.285677
1540.61, 0.285918
1541.07, 0.286240
1541.53, 0.286602
1541.98, 0.286884
1542.44, 0.287125
1542.9, 0.287447
1543.36, 0.287849
1543.82, 0.288412
1544.28, 0.288774
1544.74, 0.289176
1545.2, 0.289498
1545.66, 0.289780
1546.12, 0.289941
1546.59, 0.290343
1547.05, 0.290946
1547.51, 0.291148
1547.97, 0.291469
1548.43, 0.292032
1548.9, 0.292274
1549.36, 0.292555
1549.82, 0.292797
1550.29, 0.293320
1550.75, 0.293722
1551.21, 0.294205
1551.68, 0.294526
1552.14, 0.295009
1552.61, 0.295250
1553.07, 0.295452
1553.54, 0.295974
1554.0, 0.296216
1554.47, 0.296457
1554.93, 0.296819
1555.4, 0.297181
1555.87, 0.297463
1556.34, 0.297945
1556.8, 0.298308
1557.27, 0.298509
1557.74, 0.298991
1558.21, 0.299394
1558.68, 0.299715
1559.14, 0.299997
1559.61, 0.300238
1560.08, 0.300520
1560.55, 0.301003
1561.02, 0.301606
1561.49, 0.301888
1561.96, 0.302008
1562.43, 0.302491
1562.9, 0.302692
1563.38, 0.303014
1563.85, 0.303215
1564.32, 0.303497
1564.79, 0.303899
1565.26, 0.304341
1565.74, 0.304864
1566.21, 0.305186
1566.68, 0.305427
1567.16, 0.305749
1567.63, 0.306031
1568.1, 0.306352
1568.58, 0.306715
1569.05, 0.307237
1569.53, 0.307760
1570.0, 0.307841
1570.48, 0.307841
1570.96, 0.308283
1571.43, 0.308846
1571.91, 0.309249
1572.39, 0.309530
1572.86, 0.309892
1573.34, 0.310295
1573.82, 0.310455
1574.3, 0.310777
1574.77, 0.311099
1575.25, 0.311381
1575.73, 0.311743
1576.21, 0.312185
1576.69, 0.312386
1577.17, 0.312628
1577.65, 0.312909
1578.13, 0.313352
1578.61, 0.313714
1579.09, 0.313995
1579.57, 0.314438
1580.05, 0.314961
1580.54, 0.315162
1581.02, 0.315484
1581.5, 0.315805
1581.98, 0.316288
1582.47, 0.316529
1582.95, 0.316811
1583.43, 0.317334
1583.92, 0.317414
1584.4, 0.317535
1584.88, 0.317857
1585.37, 0.318500
1585.85, 0.318983
1586.34, 0.319144
1586.82, 0.319224
1587.31, 0.319747
1587.8, 0.320230
1588.28, 0.320592
1588.77, 0.320914
1589.26, 0.321195
1589.74, 0.321517
1590.23, 0.322080
1590.72, 0.322483
1591.21, 0.322845
1591.7, 0.323046
1592.19, 0.323368
1592.67, 0.323850
1593.16, 0.324454
1593.65, 0.324816
1594.14, 0.325097
1594.63, 0.325500
1595.12, 0.325862
1595.61, 0.326264
1596.11, 0.326586
1596.6, 0.326827
1597.09, 0.327310
1597.58, 0.327712
1598.08, 0.328195
1598.57, 0.328677
1599.06, 0.329240
1599.55, 0.329482
1600.05, 0.329723
1600.54, 0.330246
1601.04, 0.330849
1601.53, 0.331171
1602.03, 0.331453
1602.52, 0.331855
1603.02, 0.332378
1603.51, 0.332820
1604.01, 0.333384
1604.5, 0.333746
1605.0, 0.334269
1605.5, 0.334751
1606.0, 0.335073
1606.49, 0.335274
1606.99, 0.335556
1607.49, 0.336038
1607.99, 0.336320
1608.49, 0.336682
1608.99, 0.337326
1609.49, 0.337889
1609.99, 0.338371
1610.49, 0.338693
1610.99, 0.338935
1611.49, 0.339256
1611.99, 0.339779
1612.49, 0.340021
1612.99, 0.340343
1613.49, 0.340705
1614.0, 0.341067
1614.5, 0.341509
1615.0, 0.341992
1615.51, 0.342676
1616.01, 0.343198
1616.51, 0.343641
1617.02, 0.344204
1617.52, 0.344164
1618.03, 0.344445
1618.53, 0.345089
1619.04, 0.345572
1619.54, 0.345934
1620.05, 0.346296
1620.55, 0.346899
1621.06, 0.347261
1621.57, 0.347704
1622.08, 0.347985
1622.58, 0.348267
1623.09, 0.348709
1623.6, 0.349192
1624.11, 0.349594
1624.62, 0.349795
1625.13, 0.350157
1625.64, 0.350720
1626.15, 0.351042
1626.66, 0.351605
1627.17, 0.352088
1627.68, 0.352410
1628.19, 0.352571
1628.7, 0.353013
1629.21, 0.353416
1629.72, 0.353858
1630.24, 0.354180
1630.75, 0.354461
1631.26, 0.354783
1631.78, 0.355467
1632.29, 0.355668
1632.8, 0.355708
1633.32, 0.356151
1633.83, 0.356513
1634.35, 0.357076
1634.86, 0.357559
1635.38, 0.357800
1635.9, 0.358122
1636.41, 0.358363
1636.93, 0.358645
1637.45, 0.359087
1637.96, 0.359570
1638.48, 0.359892
1639.0, 0.360294
1639.52, 0.360576
1640.04, 0.360897
1640.56, 0.361219
1641.08, 0.361621
1641.59, 0.362104
1642.11, 0.362506
1642.63, 0.362748
1643.16, 0.363029
1643.68, 0.363391
1644.2, 0.363874
1644.72, 0.364276
1645.24, 0.364477
1645.76, 0.364880
1646.29, 0.365523
1646.81, 0.365765
1647.33, 0.365925
1647.86, 0.366328
1648.38, 0.366730
1648.9, 0.366891
1649.43, 0.367132
1649.95, 0.367535
1650.48, 0.367897
1651.0, 0.368460
1651.53, 0.368983
1652.06, 0.369144
1652.58, 0.369465
1653.11, 0.369908
1653.64, 0.370270
1654.17, 0.370712
1654.69, 0.371074
1655.22, 0.371436
1655.75, 0.371879
1656.28, 0.372482
1656.81, 0.372804
1657.34, 0.373005
1657.87, 0.373246
1658.4, 0.373769
1658.93, 0.374212
1659.46, 0.374735
1659.99, 0.375057
1660.52, 0.375338
1661.05, 0.375740
1661.59, 0.376223
1662.12, 0.376625
1662.65, 0.376907
1663.19, 0.377349
1663.72, 0.377913
1664.26, 0.378154
1664.79, 0.378556
1665.32, 0.378999
1665.86, 0.379481
1666.39, 0.380004
1666.93, 0.380366
1667.47, 0.380648
1668.0, 0.381090
1668.54, 0.381412
1669.08, 0.381935
1669.61, 0.382377
1670.15, 0.383021
1670.69, 0.383303
1671.23, 0.383705
1671.77, 0.384268
1672.31, 0.384670
1672.85, 0.384952
1673.39, 0.385394
1673.93, 0.385837
1674.47, 0.386078
1675.01, 0.386400
1675.55, 0.386963
1676.09, 0.387526
1676.64, 0.388210
1677.18, 0.388693
1677.72, 0.389015
1678.26, 0.389296
1678.81, 0.389779
1679.35, 0.390463
1679.89, 0.390785
1680.44, 0.391227
1680.98, 0.391750
1681.53, 0.392152
1682.07, 0.392393
1682.62, 0.392675
1683.17, 0.393158
1683.71, 0.393721
1684.26, 0.394123
1684.81, 0.394324
1685.36, 0.394767
1685.9, 0.395290
1686.45, 0.395611
1687.0, 0.396134
1687.55, 0.396657
1688.1, 0.396899
1688.65, 0.397381
1689.2, 0.397623
1689.75, 0.398146
1690.3, 0.398588
1690.85, 0.399071
1691.41, 0.399393
1691.96, 0.399634
1692.51, 0.400076
1693.06, 0.400358
1693.61, 0.400640
1694.17, 0.401082
1694.72, 0.401685
1695.28, 0.402007
1695.83, 0.402088
1696.39, 0.402450
1696.94, 0.403093
1697.5, 0.403335
1698.05, 0.403737
1698.61, 0.404260
1699.17, 0.404702
1699.72, 0.405105
1700.28, 0.405346
1700.84, 0.405587
1701.4, 0.405869
1701.95, 0.406271
1702.51, 0.406593
1703.07, 0.406754
1703.63, 0.407277
1704.19, 0.407759
1704.75, 0.408001
1705.31, 0.408323
1705.88, 0.408644
1706.44, 0.409006
1707.0, 0.409409
1707.56, 0.409851
1708.12, 0.410133
1708.69, 0.410454
1709.25, 0.410656
1709.81, 0.411138
1710.38, 0.411460
1710.94, 0.411701
1711.51, 0.411903
1712.07, 0.412345
1712.64, 0.412747
1713.2, 0.413069
1713.77, 0.413310
1714.34, 0.413632
1714.9, 0.413914
1715.47, 0.414195
1716.04, 0.414678
1716.61, 0.414839
1717.18, 0.415281
1717.74, 0.415724
1718.31, 0.415925
1718.88, 0.416207
1719.45, 0.416609
1720.02, 0.416931
1720.59, 0.417252
1721.17, 0.417735
1721.74, 0.418017
1722.31, 0.418339
1722.88, 0.418701
1723.45, 0.419063
1724.03, 0.419384
1724.6, 0.419626
1725.18, 0.419907
1725.75, 0.420591
1726.33, 0.420873
1726.9, 0.421034
1727.48, 0.421315
1728.05, 0.421758
1728.63, 0.422039
1729.2, 0.422522
1729.78, 0.422844
1730.36, 0.423246
1730.94, 0.423769
1731.51, 0.423890
1732.09, 0.423970
1732.67, 0.424412
1733.25, 0.424895
1733.83, 0.425338
1734.41, 0.425700
1734.99, 0.426062
1735.57, 0.426625
1736.15, 0.427027
1736.73, 0.427309
1737.32, 0.427711
1737.9, 0.427992
1738.48, 0.428234
1739.07, 0.428717
1739.65, 0.429320
1740.23, 0.429762
1740.82, 0.430004
1741.4, 0.430325
1741.99, 0.430647
1742.57, 0.431090
1743.16, 0.431572
1743.74, 0.431975
1744.33, 0.432377
1744.92, 0.432819
1745.51, 0.433262
1746.09, 0.433745
1746.68, 0.434026
1747.27, 0.434268
1747.86, 0.434670
1748.45, 0.434992
1749.04, 0.435354
1749.63, 0.435877
1750.22, 0.436440
1750.81, 0.436721
1751.4, 0.437164
1751.99, 0.437646
1752.59, 0.437968
1753.18, 0.438451
1753.77, 0.438974
1754.37, 0.439336
1754.96, 0.439617
1755.56, 0.439979
1756.15, 0.440301
1756.74, 0.440864
1757.34, 0.441508
1757.94, 0.441709
1758.53, 0.442031
1759.13, 0.442433
1759.73, 0.442835
1760.32, 0.443077
1760.92, 0.443399
1761.52, 0.443720
1762.12, 0.444203
1762.72, 0.444605
1763.32, 0.445128
1763.92, 0.445450
1764.52, 0.445812
1765.12, 0.446013
1765.72, 0.446496
1766.32, 0.446979
1766.92, 0.447220
1767.53, 0.447381
1768.13, 0.447582
1768.73, 0.447984
1769.34, 0.448507
1769.94, 0.448829
1770.55, 0.449312
1771.15, 0.449513
1771.76, 0.449593
1772.36, 0.449794
1772.97, 0.450277
1773.57, 0.450639
1774.18, 0.451122
1774.79, 0.451484
1775.4, 0.451886
1776.0, 0.452127
1776.61, 0.452369
1777.22, 0.452771
1777.83, 0.453213
1778.44, 0.453455
1779.05, 0.453575
1779.66, 0.453777
1780.27, 0.454058
1780.88, 0.454460
1781.5, 0.454782
1782.11, 0.454943
1782.72, 0.455144
1783.33, 0.455265
1783.95, 0.455667
1784.56, 0.456069
1785.18, 0.456391
1785.79, 0.456633
1786.41, 0.456914
1787.02, 0.457276
1787.64, 0.457477
1788.26, 0.457839
1788.87, 0.458242
1789.49, 0.458362
1790.11, 0.458604
1790.73, 0.458764
1791.35, 0.459086
1791.96, 0.459328
1792.58, 0.459489
1793.21, 0.459851
1793.83, 0.460052
1794.45, 0.460293
1795.07, 0.460575
1795.69, 0.460816
1796.31, 0.461258
1796.93, 0.461419
1797.56, 0.461580
1798.18, 0.461661
1798.8, 0.462023
1799.43, 0.462385
1800.05, 0.462787
1800.68, 0.463109
1801.3, 0.463189
1801.93, 0.463551
1802.56, 0.463913
1803.18, 0.463994
1803.81, 0.464235
1804.44, 0.464436
1805.07, 0.464758
1805.7, 0.465241
1806.33, 0.465402
1806.95, 0.465643
1807.58, 0.466005
1808.22, 0.466246
1808.85, 0.466287
1809.48, 0.466528
1810.11, 0.467131
1810.74, 0.467654
1811.38, 0.467614
1812.01, 0.468097
1812.64, 0.468499
1813.28, 0.468459
1813.91, 0.468740
1814.55, 0.469263
1815.18, 0.470188
1815.82, 0.470309
1816.45, 0.470269
1817.09, 0.470389
1817.73, 0.470912
1818.36, 0.471315
1819.0, 0.471435
1819.64, 0.473085
1820.28, 0.474412
1820.92, 0.473809
1821.56, 0.473969
1822.2, 0.473607
1822.84, 0.473447
1823.48, 0.473607
1824.12, 0.474010
1824.76, 0.474372
1825.41, 0.476423
1826.05, 0.478394
1826.69, 0.476624
1827.34, 0.475699
1827.98, 0.476866
1828.63, 0.477509
1829.27, 0.477670
1829.92, 0.478153
1830.56, 0.479520
1831.21, 0.479279
1831.86, 0.478676
1832.5, 0.479158
1833.15, 0.478796
1833.8, 0.479078
1834.45, 0.480808
1835.1, 0.481612
1835.75, 0.482940
1836.4, 0.482859
1837.05, 0.483060
1837.7, 0.483704
1838.35, 0.481693
1839.01, 0.483221
1839.66, 0.485273
1840.31, 0.483744
1840.96, 0.484669
1841.62, 0.487083
1842.27, 0.485192
1842.93, 0.483463
1843.58, 0.483503
1844.24, 0.483623
1844.9, 0.483905
1845.55, 0.484428
1846.21, 0.487405
1846.87, 0.489858
1847.53, 0.489014
1848.18, 0.488571
1848.84, 0.486882
1849.5, 0.486520
1850.16, 0.486841
1850.82, 0.487123
1851.48, 0.486882
1852.14, 0.487807
1852.81, 0.489496
1853.47, 0.491668
1854.13, 0.490341
1854.8, 0.488370
1855.46, 0.488893
1856.12, 0.491226
1856.79, 0.491105
1857.45, 0.489456
1858.12, 0.489014
1858.79, 0.491025
1859.45, 0.493961
1860.12, 0.492634
1860.79, 0.490864
1861.46, 0.490341
1862.12, 0.490542
1862.79, 0.490663
1863.46, 0.491548
1864.13, 0.492030
1864.8, 0.491548
1865.48, 0.491427
1866.15, 0.491508
1866.82, 0.493559
1867.49, 0.496174
1868.16, 0.494685
1868.84, 0.493559
1869.51, 0.494203
1870.19, 0.497018
1870.86, 0.498547
1871.54, 0.494927
1872.21, 0.496334
1872.89, 0.499150
1873.56, 0.496616
1874.24, 0.494725
1874.92, 0.495329
1875.6, 0.495208
1876.28, 0.496455
1876.96, 0.497099
1877.64, 0.495088
1878.32, 0.494484
1879.0, 0.494685
1879.68, 0.495168
1880.36, 0.495450
1881.04, 0.495409
1881.73, 0.495248
1882.41, 0.495450
1883.09, 0.496576
1883.78, 0.497984
1884.46, 0.496978
1885.15, 0.496334
1885.83, 0.496576
1886.52, 0.497139
1887.21, 0.496938
1887.89, 0.496616
1888.58, 0.496817
1889.27, 0.498466
1889.96, 0.499995
1890.65, 0.498547
1891.34, 0.498346
1892.03, 0.498788
1892.72, 0.498507
1893.41, 0.498989
1894.1, 0.498708
1894.79, 0.498466
1895.49, 0.498466
1896.18, 0.498627
1896.87, 0.499351
1897.57, 0.499995
1898.26, 0.500277
1898.96, 0.502972
1899.65, 0.503655
1900.35, 0.501885
1901.05, 0.500558
1901.74, 0.501001
1902.44, 0.503374
1903.14, 0.502610
1903.84, 0.501282
1904.54, 0.503857
1905.24, 0.505425
1905.94, 0.504621
1906.64, 0.504460
1907.34, 0.502891
1908.04, 0.502408
1908.75, 0.502770
1909.45, 0.503052
1910.15, 0.503736
1910.86, 0.504581
1911.56, 0.504782
1912.27, 0.504621
1912.97, 0.506632
1913.68, 0.506914
1914.39, 0.505184
1915.09, 0.505144
1915.8, 0.505707
1916.51, 0.505667
1917.22, 0.505264
1917.93, 0.505546
1918.64, 0.506270
1919.35, 0.508402
1920.06, 0.510494
1920.77, 0.509770
1921.48, 0.507155
1922.19, 0.506672
1922.91, 0.507356
1923.62, 0.508684
1924.33, 0.508402
1925.05, 0.507919
1925.76, 0.508040
1926.48, 0.508684
1927.19, 0.509247
1927.91, 0.509971
1928.63, 0.510172
1929.35, 0.509568
1930.07, 0.509729
1930.78, 0.509971
1931.5, 0.510091
1932.22, 0.509971
1932.94, 0.510252
1933.66, 0.510775
1934.39, 0.510695
1935.11, 0.510896
1935.83, 0.511620
1936.55, 0.511660
1937.28, 0.511459
1938.0, 0.511861
1938.73, 0.512304
1939.45, 0.512465
1940.18, 0.512424
1940.9, 0.512746
1941.63, 0.512666
1942.36, 0.512505
1943.09, 0.512585
1943.81, 0.513068
1944.54, 0.513470
1945.27, 0.513430
1946.0, 0.513309
1946.73, 0.513430
1947.47, 0.513631
1948.2, 0.514033
1948.93, 0.514194
1949.66, 0.514114
1950.4, 0.513953
1951.13, 0.514033
1951.86, 0.514275
1952.6, 0.514798
1953.34, 0.514999
1954.07, 0.515079
1954.81, 0.514999
1955.55, 0.514959
1956.29, 0.515160
1957.02, 0.515321
1957.76, 0.515321
1958.5, 0.515361
1959.24, 0.515401
1959.98, 0.515602
1960.72, 0.515683
1961.47, 0.516085
1962.21, 0.516286
1962.95, 0.516125
1963.7, 0.516286
1964.44, 0.516246
1965.18, 0.516366
1965.93, 0.516568
1966.67, 0.516809
1967.42, 0.516809
1968.17, 0.516889
1968.92, 0.516889
1969.66, 0.517050
1970.41, 0.517131
1971.16, 0.517010
1971.91, 0.517090
1972.66, 0.517332
1973.41, 0.517493
1974.16, 0.517774
1974.92, 0.517855
1975.67, 0.517815
1976.42, 0.517895
1977.18, 0.517976
1977.93, 0.518016
1978.69, 0.518056
1979.44, 0.518257
1980.2, 0.518337
1980.95, 0.518458
1981.71, 0.518780
1982.47, 0.519021
1983.23, 0.519021
1983.99, 0.519102
1984.74, 0.519303
1985.51, 0.519464
1986.27, 0.519584
1987.03, 0.519504
1987.79, 0.519504
1988.55, 0.519745
1989.32, 0.519947
1990.08, 0.520067
1990.84, 0.520228
1991.61, 0.520429
1992.37, 0.520550
1993.14, 0.520751
1993.9, 0.520952
1994.67, 0.521113
1995.44, 0.521274
1996.21, 0.521435
1996.98, 0.521555
1997.75, 0.521797
1998.52, 0.521797
1999.29, 0.521918
2000.06, 0.522119
2000.83, 0.522320
2001.6, 0.522481
2002.38, 0.522521
2003.15, 0.522762
2003.93, 0.523124
2004.7, 0.523245
2005.48, 0.523366
2006.25, 0.523647
2007.03, 0.523848
2007.81, 0.523888
2008.58, 0.524291
2009.36, 0.524532
2010.14, 0.524532
2010.92, 0.524773
2011.7, 0.525055
2012.48, 0.525256
2013.26, 0.525417
2014.05, 0.525618
2014.83, 0.525779
2015.61, 0.526061
2016.4, 0.526262
2017.18, 0.526423
2017.97, 0.526624
2018.75, 0.526744
2019.54, 0.526825
2020.32, 0.527026
2021.11, 0.527549
2021.9, 0.527670
2022.69, 0.527790
2023.48, 0.527871
2024.27, 0.527911
2025.06, 0.528152
2025.85, 0.528555
2026.64, 0.528555
2027.44, 0.528595
2028.23, 0.528756
2029.02, 0.528957
2029.82, 0.529158
2030.61, 0.529359
2031.41, 0.529560
2032.2, 0.529681
2033.0, 0.529681
2033.8, 0.529761
2034.6, 0.529922
2035.4, 0.530003
2036.2, 0.530123
2037.0, 0.530405
2037.8, 0.530646
2038.6, 0.530646
2039.4, 0.530767
2040.2, 0.530807
2041.01, 0.530928
2041.81, 0.530928
2042.61, 0.530888
2043.42, 0.531049
2044.22, 0.531169
2045.03, 0.531491
2045.84, 0.531451
2046.65, 0.531370
2047.46, 0.531451
2048.26, 0.531531
2049.07, 0.531732
2049.88, 0.531813
2050.69, 0.531692
2051.51, 0.531773
2052.32, 0.532054
2053.13, 0.532094
2053.94, 0.531853
2054.76, 0.531813
2055.57, 0.532014
2056.39, 0.532054
2057.2, 0.532054
2058.02, 0.532215
2058.84, 0.532215
2059.66, 0.532094
2060.48, 0.532215
2061.29, 0.532416
2062.11, 0.532456
2062.94, 0.532497
2063.76, 0.532617
2064.58, 0.532617
2065.4, 0.532537
2066.22, 0.532497
2067.05, 0.532497
2067.87, 0.532497
2068.7, 0.532698
2069.52, 0.532778
2070.35, 0.532859
2071.18, 0.532818
2072.0, 0.532778
2072.83, 0.532778
2073.66, 0.532899
2074.49, 0.533020
2075.32, 0.532979
2076.15, 0.533060
2076.98, 0.533020
2077.82, 0.533020
2078.65, 0.533060
2079.48, 0.533060
2080.32, 0.533221
2081.15, 0.533422
2081.99, 0.533462
2082.83, 0.533422
2083.66, 0.533422
2084.5, 0.533462
2085.34, 0.533583
2086.18, 0.533703
2087.02, 0.533744
2087.86, 0.533703
2088.7, 0.533784
2089.54, 0.533904
2090.39, 0.534025
2091.23, 0.534307
2092.07, 0.534468
2092.92, 0.534669
2093.76, 0.534588
2094.61, 0.534709
2095.45, 0.534789
2096.3, 0.534870
2097.15, 0.534910
2098.0, 0.535071
2098.85, 0.535272
2099.7, 0.535353
2100.55, 0.535192
2101.4, 0.535433
2102.25, 0.535594
2103.1, 0.535715
2103.96, 0.535916
2104.81, 0.536036
2105.67, 0.536238
2106.52, 0.536238
2107.38, 0.536398
2108.24, 0.536559
2109.09, 0.536881
2109.95, 0.537082
2110.81, 0.537203
2111.67, 0.537243
2112.53, 0.537364
2113.39, 0.537605
2114.25, 0.537726
2115.12, 0.537967
2115.98, 0.538128
2116.84, 0.538289
2117.71, 0.538450
2118.58, 0.538490
2119.44, 0.538611
2120.31, 0.538892
2121.18, 0.539053
2122.04, 0.539174
2122.91, 0.539335
2123.78, 0.539415
2124.65, 0.539496
2125.52, 0.539496
2126.4, 0.539657
2127.27, 0.539938
2128.14, 0.539979
2129.02, 0.540019
2129.89, 0.540180
2130.77, 0.540260
2131.64, 0.540461
2132.52, 0.540542
2133.4, 0.540662
2134.27, 0.540904
2135.15, 0.541065
2136.03, 0.541145
2136.91, 0.541225
2137.79, 0.541306
2138.68, 0.541587
2139.56, 0.541668
2140.44, 0.541748
2141.33, 0.541748
2142.21, 0.541547
2143.1, 0.541668
2143.99, 0.541990
2144.87, 0.542030
2145.76, 0.542070
2146.65, 0.542231
2147.54, 0.542155
2148.43, 0.542155
2149.32, 0.542422
2150.21, 0.542727
2151.1, 0.542918
2151.99, 0.542498
2152.89, 0.542269
2153.78, 0.542117
2154.68, 0.542193
2155.57, 0.542307
2156.47, 0.542574
2157.37, 0.542803
2158.27, 0.542765
2159.16, 0.542536
2160.06, 0.542574
2160.96, 0.542765
2161.86, 0.543413
2162.77, 0.543032
2163.67, 0.542384
2164.57, 0.542079
2165.48, 0.542574
2166.38, 0.542727
2167.29, 0.542651
2168.2, 0.542498
2169.1, 0.542307
2170.01, 0.542117
2170.92, 0.542269
2171.83, 0.542040
2172.74, 0.542079
2173.65, 0.542612
2174.56, 0.542727
2175.47, 0.542689
2176.39, 0.542727
2177.3, 0.542346
2178.22, 0.542231
2179.13, 0.542269
2180.05, 0.542231
2180.96, 0.542002
2181.88, 0.542269
2182.8, 0.542384
2183.72, 0.542307
2184.64, 0.542231
2185.56, 0.542498
2186.48, 0.542689
2187.41, 0.542765
2188.33, 0.542727
2189.25, 0.542346
2190.18, 0.542117
2191.1, 0.542612
2192.03, 0.542956
2192.96, 0.542536
2193.89, 0.542231
2194.82, 0.542612
2195.74, 0.542689
2196.68, 0.542612
2197.61, 0.542574
2198.54, 0.542765
2199.47, 0.542612
2200.4, 0.542918
2201.34, 0.542803
2202.28, 0.542803
2203.21, 0.542956
2204.15, 0.543528
2205.08, 0.543871
2206.02, 0.543451
2206.96, 0.543223
2207.9, 0.543108
2208.84, 0.542879
2209.78, 0.543375
2210.73, 0.543718
2211.67, 0.543718
2212.61, 0.543909
2213.56, 0.543871
2214.5, 0.543680
2215.45, 0.543985
2216.4, 0.544252
2217.35, 0.544481
2218.3, 0.544519
2219.24, 0.544519
2220.2, 0.544519
2221.15, 0.544900
2222.1, 0.544710
2223.05, 0.544672
2224.0, 0.544977
2224.96, 0.544939
2225.91, 0.544977
2226.87, 0.545358
2227.83, 0.544939
2228.79, 0.544977
2229.74, 0.545777
2230.7, 0.546349
2231.66, 0.546006
2232.63, 0.545587
2233.59, 0.545549
2234.55, 0.545663
2235.51, 0.545892
2236.48, 0.545930
2237.44, 0.546540
2238.41, 0.546693
2239.38, 0.546464
2240.34, 0.546845
2241.31, 0.546998
2242.28, 0.546654
2243.25, 0.546578
2244.22, 0.546807
2245.19, 0.547150
2246.17, 0.547608
2247.14, 0.547341
2248.12, 0.546998
2249.09, 0.547074
2250.07, 0.547112
2251.04, 0.546883
2252.02, 0.546998
2253.0, 0.547188
2253.98, 0.547188
2254.96, 0.547074
2255.94, 0.547226
2256.92, 0.547112
2257.91, 0.547074
2258.89, 0.547074
2259.88, 0.546959
2260.86, 0.546769
2261.85, 0.546769
2262.83, 0.546921
2263.82, 0.546578
2264.81, 0.546502
2265.8, 0.546731
2266.79, 0.546693
2267.78, 0.546731
2268.78, 0.546654
2269.77, 0.546959
2270.76, 0.547036
2271.76, 0.546769
2272.75, 0.546464
2273.75, 0.546654
2274.75, 0.546502
2275.75, 0.546540
2276.75, 0.546654
2277.75, 0.546578
2278.75, 0.546426
2279.75, 0.546578
2280.75, 0.546502
2281.76, 0.546311
2282.76, 0.546159
2283.77, 0.546006
2284.77, 0.545854
2285.78, 0.545930
2286.79, 0.545930
2287.8, 0.545816
2288.81, 0.545816
2289.82, 0.545663
2290.83, 0.545358
2291.84, 0.545396
2292.86, 0.545510
2293.87, 0.545358
2294.89, 0.544824
2295.91, 0.544672
2296.92, 0.544786
2297.94, 0.544824
2298.96, 0.544557
2299.98, 0.544672
2301.0, 0.544786
2302.02, 0.544481
2303.04, 0.544252
2304.07, 0.544328
2305.09, 0.544443
2306.12, 0.544519
2307.15, 0.544214
2308.17, 0.544023
2309.2, 0.544061
2310.23, 0.544290
2311.26, 0.544214
2312.29, 0.544443
2313.32, 0.544405
2314.35, 0.544328
2315.39, 0.544519
2316.42, 0.544824
2317.46, 0.544939
2318.5, 0.545015
2319.53, 0.545091
2320.57, 0.545015
2321.61, 0.545053
2322.65, 0.545167
2323.69, 0.544862
2324.73, 0.545091
2325.78, 0.545205
2326.82, 0.545091
2327.86, 0.545282
2328.91, 0.545472
2329.96, 0.545434
2331.01, 0.545739
2332.05, 0.545472
2333.1, 0.545244
2334.15, 0.545434
2335.21, 0.545625
2336.26, 0.545625
2337.31, 0.545739
2338.36, 0.545663
2339.42, 0.545434
2340.48, 0.545358
2341.53, 0.545472
2342.59, 0.545739
2343.65, 0.545854
2344.71, 0.545816
2345.77, 0.545663
2346.83, 0.545663
2347.9, 0.545739
2348.96, 0.545587
2350.02, 0.545510
2351.09, 0.545739
2352.16, 0.546121
2353.23, 0.546502
2354.29, 0.546311
2355.36, 0.546426
2356.43, 0.547074
2357.51, 0.547074
2358.58, 0.546845
2359.65, 0.547188
2360.73, 0.547570
2361.8, 0.547417
2362.88, 0.547341
2363.96, 0.547455
2365.03, 0.547836
2366.11, 0.547684
2367.19, 0.547722
2368.27, 0.547798
2369.36, 0.547951
2370.44, 0.547951
2371.53, 0.548408
2372.61, 0.548904
2373.7, 0.549057
2374.78, 0.549057
2375.87, 0.548866
2376.96, 0.548752
2378.05, 0.548904
2379.14, 0.548866
2380.24, 0.549209
2381.33, 0.549476
2382.42, 0.549476
2383.52, 0.549400
2384.61, 0.549362
2385.71, 0.549629
2386.81, 0.549629
2387.91, 0.549324
2389.01, 0.549286
2390.11, 0.549629
2391.22, 0.550010
2392.32, 0.550429
2393.42, 0.550162
2394.53, 0.550277
2395.64, 0.550315
2396.74, 0.550315
2397.85, 0.550239
2398.96, 0.550086
2400.07, 0.550048
2401.18, 0.550201
2402.3, 0.550582
2403.41, 0.550315
2404.52, 0.550201
2405.64, 0.550391
2406.76, 0.550429
2407.88, 0.550124
2408.99, 0.549896
2410.11, 0.549819
2411.23, 0.550277
2412.36, 0.550391
2413.48, 0.550162
2414.6, 0.549972
2415.73, 0.550277
2416.85, 0.550277
2417.98, 0.550239
2419.11, 0.550315
2420.24, 0.549857
2421.37, 0.549552
2422.5, 0.549743
2423.64, 0.549896
2424.77, 0.549591
2425.9, 0.549286
2427.04, 0.549591
2428.18, 0.549629
2429.31, 0.549362
2430.45, 0.549362
2431.59, 0.549095
2432.73, 0.548752
2433.88, 0.548828
2435.02, 0.548866
2436.16, 0.548675
2437.31, 0.548599
2438.45, 0.548408
2439.6, 0.548294
2440.75, 0.548256
2441.9, 0.547836
2443.05, 0.547570
2444.2, 0.547798
2445.35, 0.547798
2446.51, 0.547493
2447.67, 0.547684
2448.82, 0.547455
2449.98, 0.547265
2451.14, 0.547417
2452.3, 0.547303
2453.46, 0.547226
2454.62, 0.547112
2455.78, 0.547112
2456.94, 0.546845
2458.11, 0.546426
2459.28, 0.546349
2460.44, 0.546540
2461.61, 0.546769
2462.78, 0.546731
2463.95, 0.546540
2465.12, 0.546426
2466.3, 0.546159
2467.47, 0.546121
2468.65, 0.546197
2469.82, 0.546006
2471.0, 0.546044
2472.18, 0.546502
2473.36, 0.546387
2474.54, 0.546197
2475.72, 0.546311
2476.9, 0.546387
2478.08, 0.546349
2479.27, 0.546197
2480.46, 0.546502
2481.64, 0.546426
2482.83, 0.546311
2484.02, 0.546426
2485.21, 0.546464
2486.4, 0.546693
2487.6, 0.546845
2488.79, 0.546540
2489.99, 0.546273
2491.18, 0.546540
2492.38, 0.546731
2493.58, 0.547112
2494.78, 0.547074
2495.98, 0.546998
2497.18, 0.547036
2498.39, 0.547303
2499.59, 0.547303
2500.8, 0.547150
2502.01, 0.547455
2503.21, 0.547531
2504.42, 0.547531
2505.63, 0.547760
2506.84, 0.547608
2508.06, 0.547531
2509.27, 0.547760
2510.49, 0.548103
2511.7, 0.547836
2512.92, 0.547913
2514.14, 0.548142
2515.36, 0.548523
2516.58, 0.548599
2517.8, 0.548752
2519.03, 0.548752
2520.25, 0.548408
2521.48, 0.548447
2522.7, 0.549171
2523.93, 0.549629
2525.16, 0.549400
2526.39, 0.549247
2527.62, 0.549400
2528.86, 0.549781
2530.09, 0.550887
2531.33, 0.551840
2532.56, 0.551840
2533.8, 0.550696
2535.04, 0.552222
2536.28, 0.552794
2537.52, 0.550811
2538.76, 0.550201
2540.01, 0.550048
2541.25, 0.552069
2542.5, 0.554891
2543.75, 0.553632
2544.99, 0.551764
2546.24, 0.552870
2547.49, 0.554510
2548.75, 0.552679
2550.0, 0.553709
2551.26, 0.556187
2552.51, 0.556912
2553.77, 0.552870
2555.03, 0.550506
2556.29, 0.550544
2557.55, 0.550696
2558.81, 0.553823
2560.08, 0.562212
2561.34, 0.567398
2562.61, 0.566178
2563.88, 0.564195
2565.14, 0.556683
2566.41, 0.551230
2567.68, 0.554433
2568.96, 0.561564
2570.23, 0.557598
2571.51, 0.554776
2572.78, 0.565110
2574.06, 0.559772
2575.34, 0.557255
2576.62, 0.560992
2577.9, 0.554395
2579.18, 0.552374
2580.47, 0.558361
2581.75, 0.558704
2583.04, 0.568237
2584.32, 0.564767
2585.61, 0.557789
2586.9, 0.562670
2588.2, 0.559276
2589.49, 0.554776
2590.78, 0.551192
2592.08, 0.556645
2593.37, 0.582422
2594.67, 0.598208
2595.97, 0.570639
2597.27, 0.552527
2598.57, 0.548256
2599.88, 0.550925
2601.18, 0.555463
2602.49, 0.557941
2603.79, 0.564958
2605.1, 0.572012
2606.41, 0.563242
2607.72, 0.557102
2609.03, 0.556378
2610.35, 0.552412
2611.66, 0.550162
2612.98, 0.551878
2614.3, 0.551154
2615.62, 0.564424
2616.94, 0.567894
2618.26, 0.557484
2619.58, 0.565987
2620.91, 0.559505
2622.23, 0.546082
2623.56, 0.545244
2624.89, 0.551688
2626.22, 0.561945
2627.55, 0.553594
2628.88, 0.559734
2630.21, 0.569152
2631.55, 0.554738
2632.89, 0.551650
2634.22, 0.550696
2635.56, 0.544786
2636.9, 0.543947
2638.25, 0.543718
2639.59, 0.544328
2640.93, 0.545663
2642.28, 0.546044
2643.63, 0.545739
2644.98, 0.550658
2646.33, 0.548142
2647.68, 0.543871
2649.03, 0.542803
2650.39, 0.546273
2651.74, 0.553099
2653.1, 0.551116
2654.46, 0.548942
2655.82, 0.548408
2657.18, 0.544290
2658.54, 0.550391
2659.9, 0.551993
2661.27, 0.549591
2662.64, 0.549896
2664.01, 0.566025
2665.38, 0.577045
2666.74, 0.572203
2668.12, 0.560649
2669.49, 0.578761
2670.87, 0.571859
2672.24, 0.548294
2673.62, 0.547379
2675.0, 0.556530
2676.38, 0.563547
2677.76, 0.559314
2679.15, 0.554700
2680.54, 0.542765
2681.92, 0.542117
2683.31, 0.544672
2684.7, 0.543604
2686.09, 0.543108
2687.48, 0.540020
2688.88, 0.537236
2690.27, 0.534910
2691.67, 0.539295
2693.07, 0.550468
2694.47, 0.548370
2695.87, 0.538189
2697.27, 0.529724
2698.67, 0.526978
2700.08, 0.529610
2701.49, 0.528199
2702.9, 0.520801
2704.31, 0.518132
2705.72, 0.516378
2707.13, 0.518323
2708.54, 0.525148
2709.96, 0.532241
2711.38, 0.524576
2712.8, 0.509514
2714.22, 0.506349
2715.64, 0.505968
2717.06, 0.508065
2718.49, 0.514509
2719.91, 0.528999
2721.34, 0.517102
2722.77, 0.511573
2724.2, 0.516912
2725.63, 0.503604
2727.07, 0.491440
2728.5, 0.487131
2729.94, 0.484919
2731.38, 0.482632
2732.82, 0.483775
2734.26, 0.488046
2735.7, 0.480267
2737.15, 0.477636
2738.59, 0.488161
2740.04, 0.487703
2741.49, 0.473518
2742.94, 0.459714
2744.39, 0.454109
2745.84, 0.451135
2747.3, 0.447894
2748.76, 0.445301
2750.21, 0.443661
2751.67, 0.442059
2753.14, 0.443585
2754.6, 0.454490
2756.06, 0.446140
2757.53, 0.430734
2759.0, 0.426273
2760.46, 0.427722
2761.94, 0.432870
2763.41, 0.430201
2764.88, 0.424328
2766.36, 0.424405
2767.83, 0.423718
2769.31, 0.422727
2770.79, 0.422231
2772.27, 0.415977
2773.76, 0.411364
2775.24, 0.410143
2776.73, 0.410067
2778.22, 0.408199
2779.71, 0.407398
2781.2, 0.407017
2782.69, 0.404385
2784.18, 0.402822
2785.68, 0.406750
2787.18, 0.407207
2788.68, 0.401221
2790.18, 0.397217
2791.68, 0.395958
2793.19, 0.395272
2794.69, 0.394624
2796.2, 0.394128
2797.71, 0.393327
2799.22, 0.392679
2800.73, 0.395158
2802.24, 0.400115
2803.76, 0.398818
2805.28, 0.394166
2806.8, 0.392565
2808.32, 0.392031
2809.84, 0.391192
2811.36, 0.390696
2812.89, 0.391383
2814.42, 0.392374
2815.94, 0.391459
2817.48, 0.391497
2819.01, 0.392488
2820.54, 0.391573
2822.08, 0.389781
2823.61, 0.388485
2825.15, 0.388218
2826.69, 0.388446
2828.23, 0.388256
2829.78, 0.388370
2831.32, 0.389552
2832.87, 0.391001
2834.42, 0.391573
2835.97, 0.391306
2837.52, 0.391306
2839.08, 0.390506
2840.63, 0.389857
2842.19, 0.389590
2843.75, 0.389400
2845.31, 0.389095
2846.87, 0.389057
2848.44, 0.389362
2850.0, 0.388713
2851.57, 0.388256
2853.14, 0.388752
2854.71, 0.388218
2856.28, 0.386921
2857.86, 0.386464
2859.43, 0.386464
2861.01, 0.385930
2862.59, 0.385358
2864.17, 0.385243
2865.76, 0.385243
2867.34, 0.384862
2868.93, 0.384443
2870.52, 0.384481
2872.11, 0.384252
2873.7, 0.383261
2875.29, 0.382803
2876.89, 0.382803
2878.49, 0.382612
2880.08, 0.382307
2881.69, 0.381964
2883.29, 0.381773
2884.89, 0.381621
2886.5, 0.381354
2888.11, 0.381278
2889.72, 0.380820
2891.33, 0.380629
2892.94, 0.380401
2894.56, 0.380096
2896.17, 0.379714
2897.79, 0.379600
2899.42, 0.380172
2901.04, 0.380401
2902.66, 0.379562
2904.29, 0.379257
2905.92, 0.378799
2907.55, 0.378532
2909.18, 0.378227
2910.81, 0.377808
2912.45, 0.377808
2914.08, 0.377693
2915.72, 0.377388
2917.36, 0.377007
2919.01, 0.376816
2920.65, 0.377045
2922.3, 0.377160
2923.94, 0.376740
2925.59, 0.376092
2927.25, 0.375863
2928.9, 0.375749
2930.56, 0.375596
2932.21, 0.375367
2933.87, 0.375215
2935.53, 0.375139
2937.2, 0.375024
2938.86, 0.374719
2940.53, 0.374567
2942.2, 0.374643
2943.87, 0.374490
2945.54, 0.374185
2947.22, 0.374185
2948.89, 0.373804
2950.57, 0.373690
2952.25, 0.373728
2953.93, 0.373499
2955.62, 0.373270
2957.3, 0.373194
2958.99, 0.373079
2960.68, 0.372889
2962.37, 0.372584
2964.07, 0.372584
2965.76, 0.372507
2967.46, 0.372279
2969.16, 0.372202
2970.86, 0.372202
2972.56, 0.372088
2974.27, 0.372126
2975.98, 0.372088
2977.69, 0.372050
2979.4, 0.371897
2981.11, 0.371821
2982.83, 0.371745
2984.54, 0.371745
2986.26, 0.371707
2987.98, 0.371478
2989.71, 0.371402
2991.43, 0.371478
2993.16, 0.371516
2994.89, 0.371630
2996.62, 0.371859
2998.35, 0.371859
3000.09, 0.371897
3001.83, 0.372050
3003.57, 0.372202
3005.31, 0.372317
3007.05, 0.372355
3008.79, 0.372469
3010.54, 0.372507
3012.29, 0.372584
3014.04, 0.372736
3015.8, 0.372927
3017.55, 0.373041
3019.31, 0.373194
3021.07, 0.373270
3022.83, 0.373308
3024.59, 0.373346
3026.36, 0.373423
3028.13, 0.373613
3029.9, 0.373880
3031.67, 0.374109
3033.44, 0.374261
3035.22, 0.374528
3037.0, 0.374833
3038.78, 0.374948
3040.56, 0.375215
3042.34, 0.375329
3044.13, 0.375482
3045.92, 0.375749
3047.71, 0.376130
3049.5, 0.376282
3051.3, 0.376664
3053.09, 0.376969
3054.89, 0.377274
3056.69, 0.377350
3058.5, 0.377541
3060.3, 0.377884
3062.11, 0.378265
3063.92, 0.378570
3065.73, 0.379028
3067.55, 0.379409
3069.36, 0.379752
3071.18, 0.380058
3073.0, 0.380477
3074.82, 0.380858
3076.65, 0.381201
3078.48, 0.381468
3080.31, 0.381964
3082.14, 0.382384
3083.97, 0.382536
3085.8, 0.382803
3087.64, 0.383184
3089.48, 0.383642
3091.33, 0.383909
3093.17, 0.384214
3095.02, 0.384557
3096.87, 0.384900
3098.72, 0.385167
3100.57, 0.385510
3102.43, 0.385739
3104.28, 0.386044
3106.14, 0.386464
3108.01, 0.386769
3109.87, 0.387112
3111.74, 0.387417
3113.61, 0.387798
3115.48, 0.388218
3117.35, 0.388485
3119.23, 0.388675
3121.1, 0.388790
3122.98, 0.389171
3124.87, 0.389705
3126.75, 0.390124
3128.64, 0.390467
3130.53, 0.390620
3132.42, 0.390963
3134.31, 0.391535
3136.21, 0.391802
3138.11, 0.392031
3140.01, 0.392603
3141.91, 0.393099
3143.82, 0.393365
3145.73, 0.393785
3147.64, 0.394052
3149.55, 0.394319
3151.46, 0.394738
3153.38, 0.395043
3155.3, 0.395539
3157.22, 0.395844
3159.14, 0.396225
3161.07, 0.396530
3163.0, 0.396759
3164.93, 0.396950
3166.86, 0.397331
3168.8, 0.397751
3170.74, 0.398056
3172.68, 0.398437
3174.62, 0.398666
3176.56, 0.398971
3178.51, 0.399428
3180.46, 0.399772
3182.42, 0.400077
3184.37, 0.400382
3186.33, 0.400725
3188.29, 0.401068
3190.25, 0.401526
3192.21, 0.401716
3194.18, 0.401716
3196.15, 0.402136
3198.12, 0.402708
3200.09, 0.402975
3202.07, 0.403051
3204.05, 0.403280
3206.03, 0.403661
3208.02, 0.403852
3210.0, 0.403928
3211.99, 0.404271
3213.98, 0.404462
3215.98, 0.404614
3217.97, 0.404843
3219.97, 0.405148
3221.97, 0.405377
3223.98, 0.405568
3225.98, 0.405796
3227.99, 0.405949
3230.0, 0.406063
3232.02, 0.406063
3234.03, 0.406178
3236.05, 0.406216
3238.07, 0.406406
3240.1, 0.406483
3242.12, 0.406483
3244.15, 0.406673
3246.18, 0.406750
3248.22, 0.406902
3250.25, 0.407131
3252.29, 0.407245
3254.33, 0.407322
3256.38, 0.407589
3258.43, 0.407741
3260.47, 0.407894
3262.53, 0.408122
3264.58, 0.408160
3266.64, 0.408160
3268.7, 0.408313
3270.76, 0.408504
3272.82, 0.408618
3274.89, 0.408694
3276.96, 0.408923
3279.04, 0.409266
3281.11, 0.409304
3283.19, 0.409190
3285.27, 0.409381
3287.35, 0.409419
3289.44, 0.409571
3291.53, 0.409648
3293.62, 0.409800
3295.71, 0.409876
3297.81, 0.410029
3299.91, 0.409953
3302.01, 0.409724
3304.11, 0.409686
3306.22, 0.409762
3308.33, 0.409876
3310.44, 0.409991
3312.56, 0.409991
3314.68, 0.409762
3316.8, 0.409343
3318.92, 0.409190
3321.05, 0.409038
3323.18, 0.408809
3325.31, 0.408466
3327.44, 0.408275
3329.58, 0.408160
3331.72, 0.407932
3333.86, 0.407627
3336.01, 0.407322
3338.16, 0.407169
3340.31, 0.406750
3342.46, 0.406101
3344.61, 0.405415
3346.77, 0.404576
3348.94, 0.403623
3351.1, 0.402441
3353.27, 0.400992
3355.44, 0.399543
3357.61, 0.397903
3359.79, 0.395882
3361.97, 0.393556
3364.15, 0.390887
3366.33, 0.387874
3368.52, 0.384786
3370.71, 0.381697
3372.9, 0.378914
3375.1, 0.376549
3377.3, 0.374833
3379.5, 0.373804
3381.71, 0.373423
3383.91, 0.373537
3386.12, 0.373956
3388.34, 0.374300
3390.55, 0.374147
3392.77, 0.373270
3394.99, 0.371478
3397.22, 0.368847
3399.45, 0.365491
3401.68, 0.361564
3403.91, 0.357407
3406.15, 0.352984
3408.39, 0.348751
3410.63, 0.344900
3412.87, 0.341621
3415.12, 0.339371
3417.37, 0.338380
3419.63, 0.338990
3421.88, 0.341354
3424.14, 0.345015
3426.41, 0.349476
3428.67, 0.354395
3430.94, 0.358933
3433.21, 0.363127
3435.49, 0.366635
3437.77, 0.369457
3440.05, 0.371859
3442.33, 0.373956
3444.62, 0.375787
3446.91, 0.377426
3449.2, 0.379028
3451.5, 0.380515
3453.8, 0.381888
3456.1, 0.383222
3458.41, 0.384519
3460.72, 0.385701
3463.03, 0.386578
3465.34, 0.386959
3467.66, 0.386997
3469.98, 0.386921
3472.31, 0.386387
3474.63, 0.385548
3476.96, 0.384519
3479.3, 0.383375
3481.64, 0.382574
3483.97, 0.381964
3486.32, 0.381278
3488.66, 0.379905
3491.01, 0.378075
3493.36, 0.375596
3495.72, 0.372317
3498.08, 0.369190
3500.44, 0.366902
3502.81, 0.366101
3505.18, 0.367360
3507.55, 0.370601
3509.92, 0.375139
3512.3, 0.380134
3514.68, 0.384938
3517.06, 0.388904
3519.45, 0.391993
3521.84, 0.394433
3524.24, 0.396416
3526.64, 0.397827
3529.04, 0.398818
3531.44, 0.399581
3533.85, 0.400153
3536.26, 0.400649
3538.67, 0.400877
3541.09, 0.401106
3543.51, 0.401487
3545.93, 0.401793
3548.36, 0.401869
3550.79, 0.401945
3553.22, 0.401983
3555.66, 0.401983
3558.1, 0.401869
3560.54, 0.401869
3562.99, 0.401907
3565.44, 0.401793
3567.9, 0.401678
3570.35, 0.401526
3572.81, 0.401297
3575.28, 0.401259
3577.75, 0.401182
3580.22, 0.401182
3582.69, 0.400992
3585.17, 0.400801
3587.65, 0.400610
3590.14, 0.400420
3592.62, 0.400115
3595.11, 0.399924
3597.61, 0.399772
3600.11, 0.399505
3602.61, 0.399276
3605.11, 0.399123
3607.62, 0.398856
3610.14, 0.398513
3612.65, 0.398208
3615.17, 0.397865
3617.69, 0.397522
3620.22, 0.397407
3622.75, 0.397140
3625.28, 0.396797
3627.82, 0.396454
3630.36, 0.396263
3632.9, 0.396035
3635.45, 0.395730
3638.0, 0.395386
3640.56, 0.395043
3643.12, 0.394662
3645.68, 0.394395
3648.24, 0.394090
3650.81, 0.393823
3653.39, 0.393518
3655.96, 0.393213
3658.54, 0.393022
3661.13, 0.392793
3663.71, 0.392488
3666.3, 0.392221
3668.9, 0.391916
3671.5, 0.391688
3674.1, 0.391535
3676.7, 0.391344
3679.31, 0.391078
3681.93, 0.390849
3684.54, 0.390696
3687.17, 0.390506
3689.79, 0.390124
3692.42, 0.389895
3695.05, 0.389705
3697.69, 0.389552
3700.32, 0.389209
3702.97, 0.388828
3705.61, 0.388485
3708.27, 0.388218
3710.92, 0.388027
3713.58, 0.387836
3716.24, 0.387608
3718.91, 0.387455
3721.58, 0.387226
3724.25, 0.386883
3726.93, 0.386540
3729.61, 0.386349
3732.29, 0.386044
3734.98, 0.385701
3737.67, 0.385472
3740.37, 0.385167
3743.07, 0.384824
3745.78, 0.384481
3748.49, 0.384252
3751.2, 0.383909
3753.91, 0.383527
3756.63, 0.383299
3759.36, 0.382994
3762.09, 0.382727
3764.82, 0.382307
3767.55, 0.381850
3770.29, 0.381507
3773.04, 0.381240
3775.78, 0.380935
3778.54, 0.380324
3781.29, 0.379981
3784.05, 0.379638
3786.82, 0.379180
3789.59, 0.378723
3792.36, 0.378303
3795.13, 0.377884
3797.92, 0.377388
3800.7, 0.377083
3803.49, 0.376664
3806.28, 0.376244
3809.08, 0.375672
3811.88, 0.375177
3814.68, 0.374719
3817.49, 0.374071
3820.31, 0.373537
3823.12, 0.373270
3825.94, 0.372774
3828.77, 0.372202
3831.6, 0.371669
3834.43, 0.371135
3837.27, 0.370753
3840.11, 0.370372
3842.96, 0.369800
3845.81, 0.369190
3848.67, 0.368656
3851.53, 0.368160
3854.39, 0.367627
3857.26, 0.367093
3860.13, 0.366483
3863.01, 0.365987
3865.89, 0.365529
3868.77, 0.364957
3871.66, 0.364424
3874.55, 0.363966
3877.45, 0.363356
3880.35, 0.362708
3883.26, 0.362250
3886.17, 0.361716
3889.09, 0.361144
3892.01, 0.360649
3894.93, 0.360153
3897.86, 0.359695
3900.79, 0.359123
3903.73, 0.358589
3906.67, 0.357979
3909.62, 0.357445
3912.57, 0.356874
3915.52, 0.356340
3918.48, 0.355920
3921.45, 0.355424
3924.42, 0.354967
3927.39, 0.354547
3930.37, 0.354128
3933.35, 0.353670
3936.34, 0.353175
3939.33, 0.352679
3942.32, 0.352221
3945.32, 0.351840
3948.33, 0.351383
3951.34, 0.350925
3954.35, 0.350429
3957.37, 0.349819
3960.39, 0.349362
3963.42, 0.348980
3966.45, 0.348561
3969.49, 0.348179
3972.53, 0.347798
3975.58, 0.347341
3978.63, 0.346921
3981.68, 0.346502
3984.75, 0.346082
3987.81, 0.345701
3990.88, 0.345396
3993.95, 0.344976
3997.03, 0.344595
4000.12, 0.344214
4003.21, 0.343794
4006.3, 0.343337
4009.4, 0.342841
4012.5, 0.342460
4015.61, 0.342117
4018.72, 0.341773
4021.84, 0.341430
4024.96, 0.341011
4028.09, 0.340591
4031.22, 0.340096
4034.36, 0.339562
4037.5, 0.339104
4040.65, 0.338685
4043.8, 0.338227
4046.96, 0.337617
4050.12, 0.337045
4053.29, 0.336511
4056.46, 0.335939
4059.64, 0.335367
4062.82, 0.334795
4066.0, 0.334223
4069.19, 0.333690
4072.39, 0.333079
4075.59, 0.332507
4078.8, 0.331935
4082.01, 0.331363
4085.23, 0.330792
4088.45, 0.330334
4091.68, 0.329800
4094.91, 0.329228
4098.15, 0.328771
4101.39, 0.328427
4104.63, 0.327855
4107.89, 0.327322
4111.14, 0.326788
4114.41, 0.326254
4117.67, 0.325796
4120.95, 0.325339
4124.23, 0.324805
4127.51, 0.324309
4130.8, 0.323813
4134.09, 0.323394
4137.39, 0.322898
4140.7, 0.322441
4144.01, 0.321945
4147.32, 0.321449
4150.64, 0.320954
4153.97, 0.320420
4157.3, 0.319924
4160.64, 0.319390
4163.98, 0.318818
4167.33, 0.318284
4170.68, 0.317789
4174.04, 0.317293
4177.4, 0.316835
4180.77, 0.316340
4184.14, 0.315806
4187.52, 0.315386
4190.91, 0.314891
4194.3, 0.314662
4197.69, 0.314586
4201.1, 0.314776
4204.5, 0.315424
4207.92, 0.316340
4211.34, 0.317445
4214.76, 0.318704
4218.19, 0.319810
4221.62, 0.320839
4225.06, 0.321526
4228.51, 0.321945
4231.96, 0.321831
4235.42, 0.321373
4238.88, 0.320420
4242.35, 0.318894
4245.83, 0.316835
4249.31, 0.314090
4252.79, 0.310734
4256.28, 0.308751
4259.78, 0.309781
4263.29, 0.311573
4266.79, 0.312374
4270.31, 0.312565
4273.83, 0.312298
4277.35, 0.311764
4280.89, 0.311077
4284.42, 0.310353
4287.97, 0.309438
4291.52, 0.308408
4295.07, 0.307302
4298.63, 0.306273
4302.2, 0.305205
4305.78, 0.303985
4309.35, 0.302727
4312.94, 0.301468
4316.53, 0.300172
4320.13, 0.299104
4323.73, 0.298151
4327.34, 0.297121
4330.96, 0.296130
4334.58, 0.295329
4338.21, 0.294643
4341.84, 0.293956
4345.48, 0.293308
4349.12, 0.292698
4352.77, 0.292012
4356.43, 0.291402
4360.1, 0.290868
4363.76, 0.290410
4367.44, 0.289876
4371.12, 0.289304
4374.81, 0.288694
4378.51, 0.288199
4382.21, 0.287703
4385.92, 0.287207
4389.63, 0.286826
4393.35, 0.286368
4397.08, 0.285873
4400.81, 0.285415
4404.55, 0.284957
4408.29, 0.284500
4412.04, 0.284004
4415.8, 0.283546
4419.57, 0.283013
4423.34, 0.282479
4427.12, 0.281983
4430.9, 0.281487
4434.69, 0.281030
4438.49, 0.280610
4442.29, 0.280153
4446.1, 0.279733
4449.92, 0.279238
4453.74, 0.278742
4457.57, 0.278284
4461.41, 0.277789
4465.25, 0.277255
4469.1, 0.276835
4472.95, 0.276378
4476.82, 0.275920
4480.69, 0.275501
4484.56, 0.275005
4488.44, 0.274471
4492.33, 0.274090
4496.23, 0.273670
4500.13, 0.273327
4504.04, 0.272870
4507.96, 0.272336
4511.88, 0.271802
4515.81, 0.271344
4519.75, 0.270849
4523.69, 0.270391
4527.65, 0.269933
4531.6, 0.269476
4535.57, 0.268904
4539.54, 0.268484
4543.52, 0.268027
4547.5, 0.267607
4551.5, 0.267188
4555.5, 0.266692
4559.5, 0.266197
4563.52, 0.265701
4567.54, 0.265167
4571.56, 0.264786
4575.6, 0.264328
4579.64, 0.263947
4583.69, 0.263489
4587.75, 0.263032
4591.81, 0.262536
4595.88, 0.262116
4599.96, 0.261697
4604.04, 0.261354
4608.14, 0.260896
4612.24, 0.260324
4616.34, 0.259791
4620.46, 0.259371
4624.58, 0.258913
4628.71, 0.258418
4632.84, 0.257922
4636.99, 0.257655
4641.14, 0.257236
4645.3, 0.256854
4649.47, 0.256359
4653.64, 0.255901
4657.82, 0.255520
4662.01, 0.255177
4666.21, 0.254605
4670.41, 0.254147
4674.62, 0.253728
4678.84, 0.253422
4683.07, 0.253041
4687.3, 0.252660
4691.54, 0.252126
4695.79, 0.251707
4700.05, 0.251363
4704.31, 0.250944
4708.59, 0.250486
4712.87, 0.250067
4717.15, 0.249686
4721.45, 0.249342
4725.76, 0.249076
4730.07, 0.248656
4734.39, 0.248160
4738.72, 0.247703
4743.05, 0.247245
4747.39, 0.246902
4751.75, 0.246521
4756.1, 0.246101
4760.47, 0.245644
4764.85, 0.245224
4769.23, 0.244767
4773.62, 0.244385
4778.02, 0.244042
4782.43, 0.243737
4786.85, 0.243318
4791.27, 0.242860
4795.7, 0.242402
4800.14, 0.242097
4804.59, 0.241754
4809.05, 0.241487
4813.51, 0.241144
4817.99, 0.240801
4822.47, 0.240496
4826.96, 0.240153
4831.46, 0.239810
4835.96, 0.239619
4840.48, 0.239428
4845.0, 0.239009
4849.54, 0.238589
4854.08, 0.238246
4858.63, 0.237827
4863.18, 0.237407
4867.75, 0.237026
4872.33, 0.236645
4876.91, 0.236263
4881.5, 0.235996
4886.1, 0.235653
4890.71, 0.235310
4895.33, 0.234967
4899.96, 0.234662
4904.59, 0.234204
4909.24, 0.233785
4913.89, 0.233365
4918.55, 0.232984
4923.22, 0.232526
4927.9, 0.232183
4932.59, 0.231802
4937.29, 0.231382
4942.0, 0.230887
4946.71, 0.230544
4951.44, 0.230238
4956.17, 0.230048
4960.91, 0.229438
4965.67, 0.228675
4970.43, 0.228141
4975.2, 0.227722
4979.98, 0.227264
4984.76, 0.226921
4989.56, 0.226540
4994.37, 0.226082
4999.18, 0.225663
5004.01, 0.225205
5008.84, 0.224671
5013.69, 0.224595
5018.54, 0.224709
5023.4, 0.223985
5028.28, 0.223299
5033.16, 0.222917
5038.05, 0.222383
5042.95, 0.221964
5047.86, 0.221468
5052.78, 0.220934
5057.71, 0.220324
5062.65, 0.219790
5067.6, 0.219257
5072.56, 0.218647
5077.53, 0.218151
5082.5, 0.217808
5087.49, 0.216892
5092.49, 0.216015
5097.5, 0.215253
5102.51, 0.214528
5107.54, 0.213728
5112.58, 0.213156
5117.62, 0.212545
5122.68, 0.211783
5127.75, 0.211020
5132.82, 0.210486
5137.91, 0.210105
5143.01, 0.210143
5148.12, 0.209762
5153.23, 0.208313
5158.36, 0.207474
5163.5, 0.206902
5168.65, 0.206483
5173.81, 0.206063
5178.98, 0.205567
5184.15, 0.205224
5189.34, 0.204995
5194.54, 0.205148
5199.75, 0.205262
5204.98, 0.204728
5210.21, 0.205567
5215.45, 0.205224
5220.7, 0.203585
5225.96, 0.203127
5231.23, 0.203127
5236.52, 0.203165
5241.81, 0.202555
5247.12, 0.202097
5252.44, 0.201754
5257.76, 0.201487
5263.1, 0.201068
5268.45, 0.200877
5273.81, 0.200877
5279.18, 0.200534
5284.56, 0.200153
5289.95, 0.200725
5295.36, 0.199810
5300.77, 0.198589
5306.2, 0.198055
5311.63, 0.197522
5317.08, 0.196911
5322.54, 0.196416
5328.01, 0.195882
5333.49, 0.195234
5338.98, 0.194814
5344.49, 0.195958
5350.0, 0.196797
5355.53, 0.194700
5361.07, 0.192641
5366.62, 0.191687
5372.18, 0.191154
5377.75, 0.190582
5383.34, 0.190048
5388.93, 0.189514
5394.54, 0.189209
5400.16, 0.188828
5405.79, 0.188789
5411.44, 0.188942
5417.09, 0.191115
5422.76, 0.192069
5428.43, 0.188408
5434.12, 0.186807
5439.83, 0.186616
5445.54, 0.186311
5451.26, 0.185739
5457.0, 0.186387
5462.75, 0.187912
5468.52, 0.186463
5474.29, 0.185548
5480.08, 0.185281
5485.88, 0.183108
5491.69, 0.182155
5497.51, 0.181583
5503.35, 0.181087
5509.2, 0.180095
5515.06, 0.179981
5520.93, 0.179867
5526.82, 0.178952
5532.71, 0.177731
5538.63, 0.177197
5544.55, 0.177236
5550.49, 0.177808
5556.44, 0.176931
5562.4, 0.175558
5568.37, 0.175253
5574.36, 0.177579
5580.36, 0.177769
5586.37, 0.174414
5592.4, 0.172736
5598.44, 0.173041
5604.49, 0.172698
5610.56, 0.172240
5616.63, 0.171973
5622.73, 0.170906
5628.83, 0.170906
5634.95, 0.173079
5641.08, 0.175558
5647.23, 0.172545
5653.39, 0.170563
5659.56, 0.168389
5665.74, 0.166673
5671.94, 0.167931
5678.15, 0.166826
5684.38, 0.164614
5690.62, 0.164347
5696.87, 0.162402
5703.14, 0.162669
5709.42, 0.164728
5715.72, 0.163432
5722.03, 0.161716
5728.35, 0.160648
5734.69, 0.160992
5741.03, 0.162174
5747.4, 0.163928
5753.78, 0.162974
5760.17, 0.168046
5766.58, 0.173079
5773.0, 0.168885
5779.44, 0.167512
5785.88, 0.167817
5792.35, 0.168694
5798.83, 0.170563
5805.32, 0.171859
5811.83, 0.175558
5818.35, 0.182650
5824.89, 0.183642
5831.45, 0.180286
5838.01, 0.178036
5844.59, 0.177312
5851.19, 0.178341
5857.8, 0.180515
5864.43, 0.181392
5871.07, 0.181697
5877.73, 0.190124
5884.4, 0.187874
5891.09, 0.184671
5897.79, 0.184252
5904.5, 0.177312
5911.23, 0.175787
5917.98, 0.176168
5924.75, 0.176931
5931.53, 0.183299
5938.32, 0.185014
5945.13, 0.177083
5951.96, 0.174109
5958.8, 0.173918
5965.65, 0.177693
5972.53, 0.176473
5979.42, 0.174986
5986.32, 0.177541
5993.24, 0.175672
6000.18, 0.171783
6007.13, 0.172660
6014.1, 0.173651
6021.08, 0.170829
6028.09, 0.169114
6035.1, 0.170029
6042.14, 0.178799
6049.19, 0.184442
6056.25, 0.172278
6063.34, 0.169114
6070.44, 0.172545
6077.55, 0.169686
6084.69, 0.165339
6091.84, 0.165186
6099.0, 0.166788
6106.19, 0.172393
6113.39, 0.177464
6120.61, 0.173384
6127.84, 0.171211
6135.09, 0.173613
6142.36, 0.176244
6149.65, 0.177884
6156.95, 0.181125
6164.27, 0.181163
6171.61, 0.180553
6178.97, 0.186006
6186.34, 0.188942
6193.73, 0.184176
6201.14, 0.183222
6208.57, 0.184366
6216.01, 0.185205
6223.47, 0.185281
6230.95, 0.185625
6238.45, 0.186044
6245.97, 0.186387
6253.5, 0.186692
6261.06, 0.187417
6268.63, 0.187989
6276.21, 0.188446
6283.82, 0.188866
6291.45, 0.189476
6299.1, 0.189857
6306.76, 0.190620
6314.44, 0.191039
6322.14, 0.191687
6329.86, 0.192870
6337.6, 0.198856
6345.35, 0.201907
6353.13, 0.196492
6360.92, 0.196988
6368.74, 0.201259
6376.57, 0.199504
6384.43, 0.198284
6392.3, 0.198818
6400.19, 0.202174
6408.1, 0.215596
6416.03, 0.219104
6423.98, 0.208389
6431.95, 0.204843
6439.94, 0.202136
6447.95, 0.201487
6455.98, 0.201182
6464.03, 0.201983
6472.1, 0.205758
6480.19, 0.210219
6488.31, 0.217007
6496.44, 0.215024
6504.59, 0.204767
6512.76, 0.203890
6520.95, 0.206254
6529.16, 0.202517
6537.4, 0.201945
6545.65, 0.204080
6553.92, 0.205567
6562.22, 0.207283
6570.54, 0.211707
6578.88, 0.208008
6587.23, 0.205644
6595.61, 0.204118
6604.02, 0.201487
6612.44, 0.201678
6620.89, 0.203089
6629.35, 0.210715
6637.84, 0.214566
6646.35, 0.204309
6654.88, 0.198513
6663.44, 0.199733
6672.01, 0.202441
6680.61, 0.203508
6689.23, 0.199543
6697.88, 0.197903
6706.54, 0.201030
6715.23, 0.201220
6723.94, 0.198780
6732.67, 0.196301
6741.42, 0.195424
6750.2, 0.195768
6759.0, 0.195424
6767.82, 0.196873
6776.67, 0.198894
6785.54, 0.201830
6794.44, 0.199352
6803.35, 0.193098
6812.29, 0.191764
6821.26, 0.194204
6830.24, 0.193556
6839.25, 0.190925
6848.29, 0.193747
6857.35, 0.201373
6866.43, 0.200839
6875.54, 0.192603
6884.67, 0.190353
6893.82, 0.190200
6903.0, 0.191344
6912.2, 0.190086
6921.43, 0.188637
6930.69, 0.188103
6939.96, 0.188027
6949.27, 0.190429
6958.59, 0.194280
6967.95, 0.190353
6977.33, 0.187417
6986.73, 0.187798
6996.16, 0.187569
7005.61, 0.186082
7015.09, 0.186502
7024.6, 0.186578
7034.13, 0.188027
7043.69, 0.191802
7053.27, 0.189285
7062.88, 0.186044
7072.52, 0.185434
7082.18, 0.185472
7091.87, 0.185586
7101.58, 0.185853
7111.32, 0.186921
7121.09, 0.187074
7130.88, 0.186578
7140.71, 0.188179
7150.56, 0.188904
7160.43, 0.189171
7170.33, 0.189666
7180.27, 0.187417
7190.23, 0.186730
7200.21, 0.188484
7210.23, 0.189095
7220.27, 0.187379
7230.34, 0.187150
7240.44, 0.187264
7250.56, 0.187722
7260.72, 0.188179
7270.9, 0.189514
7281.12, 0.189438
7291.36, 0.188523
7301.63, 0.188523
7311.93, 0.188408
7322.25, 0.188446
7332.61, 0.189857
7343.0, 0.189781
7353.41, 0.188370
7363.86, 0.187646
7374.33, 0.187607
7384.83, 0.187188
7395.37, 0.186769
7405.93, 0.186387
7416.53, 0.186082
7427.15, 0.185663
7437.81, 0.185319
7448.5, 0.185319
7459.22, 0.186006
7469.96, 0.185701
7480.74, 0.184633
7491.55, 0.183718
7502.39, 0.183260
7513.27, 0.182879
7524.17, 0.182460
7535.11, 0.181811
7546.08, 0.181087
7557.08, 0.180210
7568.11, 0.179638
7579.17, 0.179180
7590.27, 0.178303
7601.4, 0.177236
7612.56, 0.176320
7623.76, 0.175291
7634.98, 0.174338
7646.24, 0.173422
7657.54, 0.172469
7668.87, 0.171478
7680.23, 0.170601
7691.62, 0.169647
7703.05, 0.168770
7714.51, 0.167855
7726.01, 0.167016
7737.54, 0.166139
7749.11, 0.165262
7760.71, 0.164385
7772.35, 0.163623
7784.02, 0.162898
7795.72, 0.162517
7807.46, 0.162059
7819.23, 0.161564
7831.04, 0.161106
7842.89, 0.160801
7854.77, 0.160572
7866.69, 0.160343
7878.65, 0.160076
7890.64, 0.159886
7902.67, 0.159581
7914.74, 0.159276
7926.84, 0.159085
7938.98, 0.158780
7951.16, 0.158284
7963.37, 0.157865
7975.62, 0.157331
7987.91, 0.156759
8000.24, 0.156187
8012.6, 0.155653
8025.01, 0.154814
8037.45, 0.153861
8049.93, 0.152870
8062.45, 0.151840
8075.01, 0.150887
8087.61, 0.149857
8100.24, 0.148789
8112.91, 0.147836
8125.63, 0.146845
8138.39, 0.145853
8151.18, 0.144747
8164.02, 0.143642
8176.9, 0.142574
8189.81, 0.141278
8202.77, 0.139790
8215.77, 0.138227
8228.82, 0.136549
8241.9, 0.134871
8255.02, 0.133041
8268.19, 0.131249
8281.39, 0.129495
8294.65, 0.127703
8307.94, 0.125758
8321.28, 0.123737
8334.66, 0.121830
8348.08, 0.119924
8361.54, 0.118055
8375.05, 0.116263
8388.6, 0.114547
8402.2, 0.112831
8415.84, 0.111001
8429.52, 0.109056
8443.25, 0.107188
8457.02, 0.105358
8470.84, 0.103527
8484.7, 0.101849
8498.61, 0.100362
8512.57, 0.0985700
8526.57, 0.0966640
8540.62, 0.0950620
8554.71, 0.0934220
8568.85, 0.0917450
8583.04, 0.0901810
8597.27, 0.0886940
8611.55, 0.0872830
8625.88, 0.0858720
8640.26, 0.0845380
8654.68, 0.0832030
8669.16, 0.0818300
8683.68, 0.0804580
8698.25, 0.0791610
8712.87, 0.0778650
8727.53, 0.0764920
8742.25, 0.0752340
8757.02, 0.0740130
8771.83, 0.0727170
8786.7, 0.0713820
8801.62, 0.0702380
8816.59, 0.0691330
8831.61, 0.0677600
8846.68, 0.0664250
8861.8, 0.0651290
8876.97, 0.0638320
8892.2, 0.0624210
8907.48, 0.0612010
8922.81, 0.0599810
8938.2, 0.0587230
8953.63, 0.0573120
8969.13, 0.0559770
8984.67, 0.0546430
9000.27, 0.0531940
9015.92, 0.0518590
9031.63, 0.0506390
9047.39, 0.0491130
9063.21, 0.0477410
9079.08, 0.0464060
9095.01, 0.0451480
9111.0, 0.0438890
9127.04, 0.0427070
9143.13, 0.0415630
9159.28, 0.0402290
9175.49, 0.0385510
9191.76, 0.0372160
9208.09, 0.0361110
9224.47, 0.0353860
9240.92, 0.0348140
9257.42, 0.0343180
9273.98, 0.0337850
9290.6, 0.0331740
9307.28, 0.0324500
9324.02, 0.0320310
9340.82, 0.0314590
9357.68, 0.0310770
9374.6, 0.0308100
9391.58, 0.0303910
9408.62, 0.0298950
9425.73, 0.0298950
9442.9, 0.0296280
9460.13, 0.0296280
9477.42, 0.0299330
9494.78, 0.0307340
9512.2, 0.0313820
9529.69, 0.0321450
9547.24, 0.0331360
9564.86, 0.0347000
9582.54, 0.0364160
9600.28, 0.0384370
9618.1, 0.0405340
9635.97, 0.0430890
9653.92, 0.0460250
9671.93, 0.0493040
9690.01, 0.0526980
9708.16, 0.0565870
9726.37, 0.0601720
9744.65, 0.0636030
9763.0, 0.0666920
9781.43, 0.0693990
9799.92, 0.0716110
9818.48, 0.0734800
9837.1, 0.0750050
9855.8, 0.0761490
9874.58, 0.0768350
9893.42, 0.0773310
9912.34, 0.0775220
9931.33, 0.0777120
9950.39, 0.0777880
9969.52, 0.0777120
9988.74, 0.0775600
10008.0, 0.0773310
10027.4, 0.0768730
10046.8, 0.0763010
10066.3, 0.0758440
10085.9, 0.0756910
10105.6, 0.0751570
10125.3, 0.0745090
10145.1, 0.0738610
10165.0, 0.0732890
10185.0, 0.0726030
10205.0, 0.0721070
10225.2, 0.0718780
10245.4, 0.0718780
10265.7, 0.0720310
10286.0, 0.0722970
10306.5, 0.0727930
10327.0, 0.0737850
10347.6, 0.0753100
10368.3, 0.0773310
10389.1, 0.0803430
10409.9, 0.0844610
10430.9, 0.0893800
10451.9, 0.0942610
10473.0, 0.0983410
10494.2, 0.101392
10515.5, 0.102879
10536.9, 0.102917
10558.4, 0.101354
10579.9, 0.0986850
10601.5, 0.0952530
10623.3, 0.0918590
10645.1, 0.0892280
10667.0, 0.0873590
10689.0, 0.0854150
10711.1, 0.0825550
10733.2, 0.0789710
10755.5, 0.0763390
10777.9, 0.0774070
10800.3, 0.0830120
10822.9, 0.0899910
10845.5, 0.0964730
10868.2, 0.102345
10891.1, 0.108179
10914.0, 0.113480
10937.0, 0.117865
10960.2, 0.121182
10983.4, 0.123432
11006.7, 0.124957
11030.1, 0.125872
11053.6, 0.126292
11077.3, 0.126521
11101.0, 0.126521
11124.8, 0.126254
11148.7, 0.125682
11172.7, 0.124995
11196.9, 0.124347
11221.1, 0.123737
11245.4, 0.122822
11269.9, 0.121678
11294.4, 0.120839
11319.1, 0.120076
11343.9, 0.119085
11368.8, 0.118208
11393.7, 0.117102
11418.8, 0.115958
11444.0, 0.114738
11469.4, 0.113480
11494.8, 0.111764
11520.3, 0.109628
11546.0, 0.107264
11571.8, 0.104862
11597.7, 0.101544
11623.7, 0.0978840
11649.8, 0.0938800
11676.0, 0.0896090
11702.4, 0.0854150
11728.9, 0.0816400
11755.5, 0.0782460
11782.2, 0.0752720
11809.0, 0.0723740
11836.0, 0.0695140
11863.0, 0.0662350
11890.3, 0.0629170
11917.6, 0.0589510
11945.0, 0.0548710
11972.6, 0.0520110
12000.4, 0.0531550
12028.2, 0.0583030
12056.2, 0.0635270
12084.3, 0.0661580
12112.5, 0.0668830
12140.9, 0.0670730
12169.4, 0.0674170
12198.0, 0.0678740
12226.8, 0.0687130
12255.7, 0.0697430
12284.7, 0.0710770
12313.9, 0.0727550
12343.2, 0.0747380
12372.7, 0.0763780
12402.3, 0.0780930
12432.0, 0.0794660
12461.9, 0.0806100
12491.9, 0.0821740
12522.1, 0.0841560
12552.4, 0.0856050
12582.9, 0.0870540
12613.5, 0.0885420
12644.3, 0.0900670
12675.2, 0.0915540
12706.3, 0.0928890
12737.5, 0.0941470
12768.9, 0.0955580
12800.4, 0.0964730
12832.1, 0.0974260
12863.9, 0.0984560
12895.9, 0.0996380
12928.1, 0.100744
12960.4, 0.101506
12992.9, 0.102040
13025.5, 0.102841
13058.3, 0.103375
13091.3, 0.103909
13124.4, 0.104252
13157.8, 0.104786
13191.2, 0.105358
13224.9, 0.105739
13258.7, 0.105739
13292.7, 0.105739
13326.9, 0.105968
13361.2, 0.105968
13395.7, 0.105777
13430.4, 0.105739
13465.3, 0.105853
13500.4, 0.105701
13535.7, 0.105281
13571.1, 0.105167
13606.7, 0.105548
13642.5, 0.105853
13678.5, 0.105777
13714.7, 0.105586
13751.1, 0.105167
13787.6, 0.104824
13824.4, 0.104519
13861.4, 0.104519
13898.5, 0.104252
13935.9, 0.103985
13973.5, 0.104061
14011.2, 0.104252
14049.2, 0.103680
14087.4, 0.102993
14125.8, 0.102040
14164.3, 0.101201
14203.2, 0.100172
14242.2, 0.0992570
14281.4, 0.0981510
14320.9, 0.0969690
14360.5, 0.0955580
14400.4, 0.0942230
14440.5, 0.0928500
14480.9, 0.0917450
14521.4, 0.0903340
14562.2, 0.0889610
14603.3, 0.0873590
14644.5, 0.0857200
14686.0, 0.0842710
14727.7, 0.0828600
14769.7, 0.0812970
14811.9, 0.0795810
14854.3, 0.0776740
14897.0, 0.0761490
14939.9, 0.0755770
14983.1, 0.0744710
15026.5, 0.0718400
15070.2, 0.0699710
15114.2, 0.0680650
15158.3, 0.0664250
15202.8, 0.0645950
15247.5, 0.0629550
15292.5, 0.0608580
15337.7, 0.0589900
15383.2, 0.0573880
15429.0, 0.0556340
15475.1, 0.0536510
15521.4, 0.0518210
15568.0, 0.0499520
15614.9, 0.0481600
15662.1, 0.0461010
15709.6, 0.0440420
15757.3, 0.0416400
15805.4, 0.0399620
15853.7, 0.0387420
15902.3, 0.0370640
15951.2, 0.0353860
16000.5, 0.0348140
16050.0, 0.0343180
16099.8, 0.0338230
16150.0, 0.0338610
16200.5, 0.0346230
16251.3, 0.0351570
16302.4, 0.0365680
16353.8, 0.0386650
16405.5, 0.0406480
16457.6, 0.0423640
16510.0, 0.0445760
16562.8, 0.0468640
16615.9, 0.0494570
16669.3, 0.0515540
16723.1, 0.0533080
16777.2, 0.0548330
16831.7, 0.0567400
16886.5, 0.0583410
16941.7, 0.0593330
16997.2, 0.0594470
17053.1, 0.0591420
17109.4, 0.0585320
17166.1, 0.0585700
17223.1, 0.0582650
17280.5, 0.0574640
17338.3, 0.0564730
17396.5, 0.0560530
17455.1, 0.0551000
17514.0, 0.0544520
17573.4, 0.0537660
17633.2, 0.0529270
17693.4, 0.0513250
17754.0, 0.0501050
17815.0, 0.0482360
17876.4, 0.0467490
17938.3, 0.0457580
18000.5, 0.0448810
18063.3, 0.0435460
18126.4, 0.0427070
18190.0, 0.0421740
18254.1, 0.0422120
18318.6, 0.0420970
18383.5, 0.0429740
18449.0, 0.0446520
18514.9, 0.0465590
18581.2, 0.0489990
18648.0, 0.0528890
18715.4, 0.0565870
18783.2, 0.0614680
18851.5, 0.0654720
18920.3, 0.0685610
18989.6, 0.0713820
19059.4, 0.0747000
19129.7, 0.0769500
19200.6, 0.0789320
19272.0, 0.0801140
19343.9, 0.0816400
19416.3, 0.0819450
19489.3, 0.0827460
19562.8, 0.0836990
19637.0, 0.0846900
19711.6, 0.0839660
19786.8, 0.0828980
19862.6, 0.0827840
19939.0, 0.0821740
20016.0, 0.0802290
20093.6, 0.0796950
20171.8, 0.0787040
20250.6, 0.0778270
20330.0, 0.0772550
20410.0, 0.0765300
20490.7, 0.0743950
20572.0, 0.0730220
20654.0, 0.0718400
20736.6, 0.0721070
20819.9, 0.0717640
20903.8, 0.0713060
20988.5, 0.0718020
21073.8, 0.0730980
21159.8, 0.0711540
21246.5, 0.0692470
21334.0, 0.0669210
21422.1, 0.0645570
21511.0, 0.0615830
21600.7, 0.0592180
21691.0, 0.0554050
21782.1, 0.0539180
21874.0, 0.0536890
21966.7, 0.0511730
22060.2, 0.0487320
22154.5, 0.0468640
22249.6, 0.0451100
22345.5, 0.0450720
22442.2, 0.0453000
22539.8, 0.0445000
22638.2, 0.0426310
22737.5, 0.0411440
22837.7, 0.0398860
22938.7, 0.0403430
23040.7, 0.0388940
23143.5, 0.0374830
23247.3, 0.0335180
23352.1, 0.0326410
23457.7, 0.0321830
23564.4, 0.0326410
23672.0, 0.0291710
23780.5, 0.0275690
23890.1, 0.0285610
24000.7, 0.0278360
24112.3, 0.0271880
24225.0, 0.0292850
24338.7, 0.0275690
24453.5, 0.0274170
24569.4, 0.0283320
24686.4, 0.0289040
24804.5, 0.0256240
24923.8, 0.0242900
