Database of Origin,USGS Spectral Database
Sample Description,See USGS database for additional info
Date Added,2017-07-03 05:46:26.430628

Data ID,USGS_oli17          
Sample ID,olivine_hs285.16693
Mineral Name,olivine
Material Class,Nesosilicate

Wavelength
1280.99, 0.128600
1281.3, 0.128600
1281.62, 0.128600
1281.94, 0.128600
1282.25, 0.128600
1282.57, 0.128600
1282.89, 0.128600
1283.21, 0.128600
1283.52, 0.128600
1283.84, 0.128600
1284.16, 0.128600
1284.48, 0.128600
1284.8, 0.128600
1285.11, 0.128600
1285.43, 0.128600
1285.75, 0.128600
1286.07, 0.128600
1286.39, 0.128600
1286.71, 0.128600
1287.03, 0.128600
1287.35, 0.128600
1287.67, 0.128600
1287.99, 0.128600
1288.31, 0.128600
1288.63, 0.128600
1288.95, 0.128600
1289.27, 0.128600
1289.59, 0.128600
1289.91, 0.128600
1290.23, 0.128600
1290.55, 0.128600
1290.88, 0.128600
1291.2, 0.128600
1291.52, 0.128600
1291.84, 0.128600
1292.16, 0.128600
1292.48, 0.128600
1292.81, 0.128600
1293.13, 0.128600
1293.45, 0.128600
1293.77, 0.128600
1294.1, 0.128600
1294.42, 0.128600
1294.74, 0.128600
1295.07, 0.128600
1295.39, 0.128600
1295.71, 0.128600
1296.04, 0.128600
1296.36, 0.128600
1296.69, 0.128600
1297.01, 0.128600
1297.34, 0.128600
1297.66, 0.128600
1297.98, 0.128600
1298.31, 0.128600
1298.64, 0.128600
1298.96, 0.128600
1299.29, 0.128600
1299.61, 0.128600
1299.94, 0.128600
1300.26, 0.128600
1300.59, 0.128600
1300.92, 0.128600
1301.24, 0.128600
1301.57, 0.128600
1301.9, 0.128600
1302.22, 0.128600
1302.55, 0.128600
1302.88, 0.128600
1303.21, 0.128600
1303.53, 0.128600
1303.86, 0.128600
1304.19, 0.128600
1304.52, 0.128600
1304.85, 0.128600
1305.17, 0.128600
1305.5, 0.128600
1305.83, 0.128600
1306.16, 0.128600
1306.49, 0.128600
1306.82, 0.128600
1307.15, 0.128600
1307.48, 0.128600
1307.81, 0.128600
1308.14, 0.128600
1308.47, 0.128600
1308.8, 0.128600
1309.13, 0.128600
1309.46, 0.128600
1309.79, 0.128600
1310.12, 0.128600
1310.45, 0.128600
1310.79, 0.128600
1311.12, 0.128600
1311.45, 0.128600
1311.78, 0.128600
1312.11, 0.128600
1312.44, 0.128600
1312.78, 0.128600
1313.11, 0.128600
1313.44, 0.128600
1313.77, 0.128600
1314.11, 0.128600
1314.44, 0.128600
1314.77, 0.128600
1315.11, 0.128600
1315.44, 0.128600
1315.78, 0.128600
1316.11, 0.128600
1316.44, 0.128600
1316.78, 0.128600
1317.11, 0.128600
1317.45, 0.128600
1317.78, 0.128600
1318.12, 0.128600
1318.45, 0.128600
1318.79, 0.128600
1319.12, 0.128600
1319.46, 0.128600
1319.8, 0.128600
1320.13, 0.128600
1320.47, 0.128600
1320.8, 0.128600
1321.14, 0.128600
1321.48, 0.128600
1321.81, 0.128600
1322.15, 0.128600
1322.49, 0.128600
1322.83, 0.128600
1323.16, 0.128600
1323.5, 0.128600
1323.84, 0.128600
1324.18, 0.128600
1324.52, 0.128600
1324.85, 0.128600
1325.19, 0.128600
1325.53, 0.128600
1325.87, 0.128600
1326.21, 0.128600
1326.55, 0.128600
1326.89, 0.128600
1327.23, 0.128600
1327.57, 0.128600
1327.91, 0.128600
1328.25, 0.128600
1328.59, 0.128600
1328.93, 0.128600
1329.27, 0.128600
1329.61, 0.128600
1329.95, 0.128600
1330.29, 0.128600
1330.64, 0.128600
1330.98, 0.128600
1331.32, 0.128600
1331.66, 0.128600
1332.0, 0.128600
1332.34, 0.128600
1332.69, 0.128600
1333.03, 0.128600
1333.37, 0.128600
1333.72, 0.128600
1334.06, 0.128600
1334.4, 0.128600
1334.75, 0.128600
1335.09, 0.128600
1335.43, 0.128600
1335.78, 0.128600
1336.12, 0.128600
1336.47, 0.128600
1336.81, 0.128600
1337.16, 0.128600
1337.5, 0.128600
1337.85, 0.128600
1338.19, 0.128600
1338.54, 0.128600
1338.88, 0.128600
1339.23, 0.128600
1339.58, 0.128600
1339.92, 0.128600
1340.27, 0.128600
1340.61, 0.128600
1340.96, 0.128600
1341.31, 0.128600
1341.66, 0.128600
1342.0, 0.128600
1342.35, 0.128600
1342.7, 0.128600
1343.05, 0.128600
1343.39, 0.128600
1343.74, 0.128600
1344.09, 0.128600
1344.44, 0.128600
1344.79, 0.128600
1345.14, 0.128600
1345.48, 0.128600
1345.83, 0.128600
1346.18, 0.128600
1346.53, 0.128600
1346.88, 0.128600
1347.23, 0.128600
1347.58, 0.128600
1347.93, 0.128600
1348.28, 0.128600
1348.64, 0.128600
1348.99, 0.128600
1349.34, 0.128600
1349.69, 0.128600
1350.04, 0.128600
1350.39, 0.128600
1350.74, 0.128600
1351.1, 0.128600
1351.45, 0.128600
1351.8, 0.128600
1352.15, 0.128600
1352.51, 0.128600
1352.86, 0.128600
1353.21, 0.128600
1353.56, 0.128600
1353.92, 0.128600
1354.27, 0.128600
1354.63, 0.128600
1354.98, 0.131003
1355.33, 0.136887
1355.69, 0.137078
1356.04, 0.140407
1356.4, 0.142295
1356.75, 0.135599
1357.11, 0.130349
1357.46, 0.135385
1357.82, 0.141001
1358.18, 0.144166
1358.53, 0.142265
1358.89, 0.143618
1359.24, 0.147340
1359.6, 0.144670
1359.96, 0.138162
1360.31, 0.135031
1360.67, 0.133363
1361.03, 0.131082
1361.39, 0.135539
1361.74, 0.139673
1362.1, 0.136131
1362.46, 0.132688
1362.82, 0.135751
1363.18, 0.145715
1363.53, 0.152860
1363.89, 0.145955
1364.25, 0.142552
1364.61, 0.146262
1364.97, 0.141539
1365.33, 0.138144
1365.69, 0.134867
1366.05, 0.132192
1366.41, 0.131356
1366.77, 0.135344
1367.13, 0.136665
1367.49, 0.145445
1367.85, 0.154239
1368.21, 0.147325
1368.57, 0.136012
1368.93, 0.135872
1369.3, 0.145249
1369.66, 0.145042
1370.02, 0.144139
1370.38, 0.146337
1370.74, 0.145296
1371.11, 0.148511
1371.47, 0.155339
1371.83, 0.153698
1372.19, 0.147670
1372.56, 0.144272
1372.92, 0.146251
1373.29, 0.146976
1373.65, 0.141212
1374.01, 0.138827
1374.38, 0.142155
1374.74, 0.146827
1375.11, 0.149578
1375.47, 0.151030
1375.84, 0.150060
1376.2, 0.150234
1376.57, 0.157926
1376.93, 0.159267
1377.3, 0.151663
1377.67, 0.149786
1378.03, 0.147606
1378.4, 0.142364
1378.76, 0.142334
1379.13, 0.149172
1379.5, 0.154924
1379.87, 0.155128
1380.23, 0.154441
1380.6, 0.153956
1380.97, 0.153115
1381.34, 0.156676
1381.7, 0.157485
1382.07, 0.154261
1382.44, 0.153105
1382.81, 0.153874
1383.18, 0.156934
1383.55, 0.153793
1383.92, 0.148544
1384.29, 0.151499
1384.66, 0.150764
1385.03, 0.147189
1385.4, 0.151518
1385.77, 0.154902
1386.14, 0.158207
1386.51, 0.159454
1386.88, 0.154965
1387.25, 0.152585
1387.62, 0.154096
1387.99, 0.158378
1388.36, 0.164052
1388.74, 0.164007
1389.11, 0.158991
1389.48, 0.158289
1389.85, 0.163580
1390.23, 0.163573
1390.6, 0.163099
1390.97, 0.164334
1391.35, 0.166257
1391.72, 0.165649
1392.09, 0.161024
1392.47, 0.161752
1392.84, 0.164476
1393.21, 0.161210
1393.59, 0.158538
1393.96, 0.157773
1394.34, 0.160162
1394.71, 0.167195
1395.09, 0.173488
1395.46, 0.169946
1395.84, 0.163387
1396.22, 0.162286
1396.59, 0.164425
1396.97, 0.171086
1397.35, 0.174160
1397.72, 0.168729
1398.1, 0.164497
1398.48, 0.164385
1398.85, 0.165246
1399.23, 0.167330
1399.61, 0.170345
1399.99, 0.170928
1400.37, 0.170896
1400.74, 0.170547
1401.12, 0.167485
1401.5, 0.169742
1401.88, 0.175072
1402.26, 0.175072
1402.64, 0.171349
1403.02, 0.171128
1403.4, 0.175864
1403.78, 0.178832
1404.16, 0.177463
1404.54, 0.178387
1404.92, 0.181958
1405.3, 0.183537
1405.68, 0.180337
1406.06, 0.177085
1406.44, 0.175403
1406.83, 0.179513
1407.21, 0.181407
1407.59, 0.181911
1407.97, 0.181607
1408.35, 0.177013
1408.74, 0.176467
1409.12, 0.180063
1409.5, 0.181841
1409.89, 0.180351
1410.27, 0.176323
1410.65, 0.177205
1411.04, 0.186318
1411.42, 0.188527
1411.81, 0.181643
1412.19, 0.179791
1412.58, 0.179557
1412.96, 0.174149
1413.35, 0.175249
1413.73, 0.184999
1414.12, 0.188260
1414.5, 0.182878
1414.89, 0.185169
1415.28, 0.190178
1415.66, 0.189713
1416.05, 0.192375
1416.44, 0.193793
1416.82, 0.186628
1417.21, 0.186244
1417.6, 0.191971
1417.98, 0.192448
1418.37, 0.188851
1418.76, 0.185343
1419.15, 0.186971
1419.54, 0.197130
1419.93, 0.203094
1420.32, 0.196489
1420.71, 0.194092
1421.09, 0.197767
1421.48, 0.193857
1421.88, 0.186994
1422.27, 0.191226
1422.66, 0.199002
1423.05, 0.195769
1423.44, 0.189153
1423.83, 0.193525
1424.22, 0.198892
1424.61, 0.199319
1425.0, 0.200894
1425.39, 0.198239
1425.78, 0.198811
1426.18, 0.202927
1426.57, 0.204624
1426.96, 0.202055
1427.36, 0.203494
1427.75, 0.205506
1428.14, 0.205119
1428.54, 0.202337
1428.93, 0.202063
1429.32, 0.204958
1429.72, 0.205623
1430.11, 0.205596
1430.51, 0.203666
1430.9, 0.201999
1431.3, 0.204144
1431.69, 0.206063
1432.09, 0.205230
1432.48, 0.207477
1432.88, 0.210895
1433.28, 0.209635
1433.67, 0.202860
1434.07, 0.205106
1434.46, 0.212095
1434.86, 0.208931
1435.26, 0.207140
1435.66, 0.210940
1436.05, 0.209929
1436.45, 0.207825
1436.85, 0.211169
1437.25, 0.213195
1437.65, 0.213573
1438.05, 0.215434
1438.44, 0.216669
1438.84, 0.214222
1439.24, 0.211802
1439.64, 0.213124
1440.04, 0.214493
1440.44, 0.215582
1440.84, 0.214086
1441.24, 0.210547
1441.65, 0.217278
1442.05, 0.225168
1442.45, 0.226782
1442.85, 0.224916
1443.25, 0.224762
1443.65, 0.226081
1444.05, 0.221809
1444.46, 0.220925
1444.86, 0.220010
1445.26, 0.219752
1445.67, 0.222057
1446.07, 0.220352
1446.47, 0.220336
1446.88, 0.221548
1447.28, 0.222078
1447.68, 0.223235
1448.09, 0.223953
1448.49, 0.224933
1448.9, 0.225326
1449.3, 0.226987
1449.71, 0.231037
1450.11, 0.230789
1450.52, 0.230111
1450.93, 0.230544
1451.33, 0.231680
1451.74, 0.231487
1452.14, 0.231352
1452.55, 0.229157
1452.96, 0.227970
1453.36, 0.230691
1453.77, 0.237829
1454.18, 0.243072
1454.59, 0.240411
1455.0, 0.237412
1455.41, 0.238106
1455.81, 0.242673
1456.22, 0.243558
1456.63, 0.241244
1457.04, 0.244517
1457.45, 0.249620
1457.86, 0.247009
1458.27, 0.240173
1458.68, 0.238959
1459.09, 0.242344
1459.5, 0.242733
1459.91, 0.242245
1460.32, 0.245359
1460.74, 0.248045
1461.15, 0.249769
1461.56, 0.250525
1461.97, 0.250084
1462.39, 0.248989
1462.8, 0.249014
1463.21, 0.250730
1463.62, 0.253125
1464.04, 0.251023
1464.45, 0.248677
1464.86, 0.254104
1465.28, 0.255671
1465.69, 0.254533
1466.11, 0.256626
1466.52, 0.256690
1466.94, 0.254671
1467.35, 0.255923
1467.77, 0.258743
1468.18, 0.256680
1468.6, 0.252845
1469.02, 0.253872
1469.43, 0.259569
1469.85, 0.260896
1470.27, 0.257650
1470.68, 0.257891
1471.1, 0.262233
1471.52, 0.263997
1471.94, 0.264897
1472.35, 0.265171
1472.77, 0.264969
1473.19, 0.264962
1473.61, 0.262826
1474.03, 0.262083
1474.45, 0.264728
1474.87, 0.265146
1475.29, 0.266339
1475.71, 0.267650
1476.13, 0.266543
1476.55, 0.265850
1476.97, 0.266099
1477.39, 0.268886
1477.81, 0.272022
1478.23, 0.269885
1478.65, 0.268958
1479.07, 0.274098
1479.5, 0.275995
1479.92, 0.273323
1480.34, 0.274994
1480.76, 0.277564
1481.19, 0.276289
1481.61, 0.276275
1482.03, 0.278579
1482.46, 0.282805
1482.88, 0.284922
1483.31, 0.284683
1483.73, 0.285610
1484.16, 0.287035
1484.58, 0.284280
1485.01, 0.282638
1485.43, 0.284167
1485.86, 0.284502
1486.28, 0.284446
1486.71, 0.282633
1487.14, 0.283014
1487.56, 0.286403
1487.99, 0.288297
1488.42, 0.287916
1488.84, 0.286582
1489.27, 0.288937
1489.7, 0.291691
1490.13, 0.289894
1490.56, 0.290633
1490.98, 0.293763
1491.41, 0.295031
1491.84, 0.296993
1492.27, 0.299655
1492.7, 0.299922
1493.13, 0.297456
1493.56, 0.294609
1493.99, 0.295749
1494.42, 0.296085
1494.85, 0.297532
1495.29, 0.300526
1495.72, 0.300227
1496.15, 0.299887
1496.58, 0.301931
1497.01, 0.304091
1497.44, 0.304385
1497.88, 0.302229
1498.31, 0.300780
1498.74, 0.300387
1499.18, 0.299057
1499.61, 0.300478
1500.04, 0.306470
1500.48, 0.309734
1500.91, 0.311397
1501.35, 0.310405
1501.78, 0.308943
1502.22, 0.311509
1502.65, 0.313812
1503.09, 0.313748
1503.53, 0.312694
1503.96, 0.311718
1504.4, 0.313240
1504.83, 0.315663
1505.27, 0.317735
1505.71, 0.317637
1506.15, 0.314494
1506.58, 0.317424
1507.02, 0.321473
1507.46, 0.323729
1507.9, 0.325520
1508.34, 0.324408
1508.78, 0.324041
1509.21, 0.327036
1509.66, 0.330576
1510.09, 0.326236
1510.53, 0.323567
1510.97, 0.329563
1511.42, 0.335787
1511.86, 0.335060
1512.3, 0.331659
1512.74, 0.329473
1513.18, 0.329910
1513.62, 0.330568
1514.06, 0.333720
1514.51, 0.336288
1514.95, 0.336510
1515.39, 0.334932
1515.83, 0.334523
1516.28, 0.334734
1516.72, 0.337406
1517.16, 0.340459
1517.61, 0.341537
1518.05, 0.343863
1518.5, 0.346698
1518.94, 0.348922
1519.39, 0.349274
1519.83, 0.349307
1520.28, 0.350745
1520.73, 0.347965
1521.17, 0.344007
1521.62, 0.346280
1522.07, 0.347851
1522.51, 0.351745
1522.96, 0.357566
1523.41, 0.357572
1523.85, 0.354990
1524.3, 0.354363
1524.75, 0.353367
1525.2, 0.352818
1525.65, 0.354159
1526.1, 0.356507
1526.55, 0.357664
1527.0, 0.359953
1527.45, 0.360939
1527.9, 0.359122
1528.35, 0.360108
1528.8, 0.360089
1529.25, 0.357224
1529.7, 0.361311
1530.15, 0.365949
1530.6, 0.362610
1531.05, 0.361820
1531.51, 0.365574
1531.96, 0.369271
1532.41, 0.370692
1532.87, 0.369190
1533.32, 0.367820
1533.77, 0.367542
1534.23, 0.370383
1534.68, 0.375217
1535.14, 0.374743
1535.59, 0.372712
1536.05, 0.372359
1536.5, 0.373499
1536.96, 0.373293
1537.41, 0.372465
1537.87, 0.376604
1538.32, 0.383239
1538.78, 0.382041
1539.24, 0.379820
1539.7, 0.378930
1540.15, 0.379576
1540.61, 0.383514
1541.07, 0.387279
1541.53, 0.387043
1541.98, 0.387221
1542.44, 0.387553
1542.9, 0.388303
1543.36, 0.389032
1543.82, 0.390846
1544.28, 0.392288
1544.74, 0.391941
1545.2, 0.391463
1545.66, 0.389267
1546.12, 0.390871
1546.59, 0.395404
1547.05, 0.397458
1547.51, 0.399692
1547.97, 0.398394
1548.43, 0.397259
1548.9, 0.400243
1549.36, 0.401924
1549.82, 0.400646
1550.29, 0.400115
1550.75, 0.402340
1551.21, 0.403740
1551.68, 0.405348
1552.14, 0.408289
1552.61, 0.406815
1553.07, 0.407853
1553.54, 0.407668
1554.0, 0.408536
1554.47, 0.410318
1554.93, 0.410161
1555.4, 0.414375
1555.87, 0.418237
1556.34, 0.418147
1556.8, 0.419404
1557.27, 0.422194
1557.74, 0.421475
1558.21, 0.415131
1558.68, 0.415675
1559.14, 0.420182
1559.61, 0.420260
1560.08, 0.419605
1560.55, 0.420481
1561.02, 0.421608
1561.49, 0.423637
1561.96, 0.424445
1562.43, 0.424932
1562.9, 0.426633
1563.38, 0.429238
1563.85, 0.430330
1564.32, 0.429873
1564.79, 0.431913
1565.26, 0.434335
1565.74, 0.431048
1566.21, 0.430223
1566.68, 0.432417
1567.16, 0.433461
1567.63, 0.435937
1568.1, 0.439157
1568.58, 0.439932
1569.05, 0.436896
1569.53, 0.434997
1570.0, 0.436837
1570.48, 0.441534
1570.96, 0.445409
1571.43, 0.444128
1571.91, 0.442397
1572.39, 0.442750
1572.86, 0.444257
1573.34, 0.446787
1573.82, 0.450186
1574.3, 0.451133
1574.77, 0.449148
1575.25, 0.450015
1575.73, 0.452167
1576.21, 0.454305
1576.69, 0.454689
1577.17, 0.451137
1577.65, 0.452570
1578.13, 0.457398
1578.61, 0.458977
1579.09, 0.457079
1579.57, 0.455050
1580.05, 0.455145
1580.54, 0.459351
1581.02, 0.459351
1581.5, 0.459514
1581.98, 0.464269
1582.47, 0.466025
1582.95, 0.466364
1583.43, 0.466230
1583.92, 0.468152
1584.4, 0.469126
1584.88, 0.468620
1585.37, 0.470140
1585.85, 0.471128
1586.34, 0.470194
1586.82, 0.469623
1587.31, 0.472988
1587.8, 0.476729
1588.28, 0.477494
1588.77, 0.479834
1589.26, 0.479396
1589.74, 0.479838
1590.23, 0.483052
1590.72, 0.483113
1591.21, 0.482059
1591.7, 0.485869
1592.19, 0.487436
1592.67, 0.483095
1593.16, 0.483069
1593.65, 0.486042
1594.14, 0.487150
1594.63, 0.485791
1595.12, 0.487799
1595.61, 0.492053
1596.11, 0.493148
1596.6, 0.494098
1597.09, 0.494174
1597.58, 0.493067
1598.08, 0.495542
1598.57, 0.498338
1599.06, 0.496945
1599.55, 0.494116
1600.05, 0.496689
1600.54, 0.500993
1601.04, 0.502565
1601.53, 0.502704
1602.03, 0.503910
1602.52, 0.507851
1603.02, 0.506730
1603.51, 0.505355
1604.01, 0.507183
1604.5, 0.509268
1605.0, 0.509634
1605.5, 0.508397
1606.0, 0.509108
1606.49, 0.510283
1606.99, 0.512936
1607.49, 0.512769
1607.99, 0.509891
1608.49, 0.510605
1608.99, 0.514940
1609.49, 0.518389
1609.99, 0.517874
1610.49, 0.518328
1610.99, 0.519960
1611.49, 0.519886
1611.99, 0.521078
1612.49, 0.521189
1612.99, 0.521699
1613.49, 0.524156
1614.0, 0.525785
1614.5, 0.526613
1615.0, 0.526111
1615.51, 0.526205
1616.01, 0.528807
1616.51, 0.530528
1617.02, 0.529920
1617.52, 0.529438
1618.03, 0.531793
1618.53, 0.534981
1619.04, 0.536311
1619.54, 0.534931
1620.05, 0.532736
1620.55, 0.532664
1621.06, 0.534613
1621.57, 0.536540
1622.08, 0.540417
1622.58, 0.541560
1623.09, 0.539665
1623.6, 0.539877
1624.11, 0.537997
1624.62, 0.537124
1625.13, 0.540031
1625.64, 0.541632
1626.15, 0.544119
1626.66, 0.545791
1627.17, 0.544825
1627.68, 0.543501
1628.19, 0.545354
1628.7, 0.547990
1629.21, 0.549116
1629.72, 0.548765
1630.24, 0.548859
1630.75, 0.551140
1631.26, 0.551245
1631.78, 0.553239
1632.29, 0.557642
1632.8, 0.557921
1633.32, 0.557765
1633.83, 0.558371
1634.35, 0.558798
1634.86, 0.560034
1635.38, 0.560823
1635.9, 0.560269
1636.41, 0.560066
1636.93, 0.561290
1637.45, 0.562274
1637.96, 0.563737
1638.48, 0.566783
1639.0, 0.568427
1639.52, 0.569846
1640.04, 0.571714
1640.56, 0.569178
1641.08, 0.566649
1641.59, 0.565927
1642.11, 0.567289
1642.63, 0.570549
1643.16, 0.573438
1643.68, 0.577202
1644.2, 0.577712
1644.72, 0.574501
1645.24, 0.572133
1645.76, 0.571328
1646.29, 0.572909
1646.81, 0.578977
1647.33, 0.581618
1647.86, 0.578334
1648.38, 0.580228
1648.9, 0.583329
1649.43, 0.581470
1649.95, 0.581320
1650.48, 0.585740
1651.0, 0.586213
1651.53, 0.584716
1652.06, 0.584210
1652.58, 0.584820
1653.11, 0.587793
1653.64, 0.588093
1654.17, 0.588053
1654.69, 0.591755
1655.22, 0.594517
1655.75, 0.592274
1656.28, 0.590182
1656.81, 0.591282
1657.34, 0.595353
1657.87, 0.598901
1658.4, 0.598412
1658.93, 0.594905
1659.46, 0.593466
1659.99, 0.595894
1660.52, 0.599641
1661.05, 0.599630
1661.59, 0.597640
1662.12, 0.598306
1662.65, 0.599078
1663.19, 0.600314
1663.72, 0.603000
1664.26, 0.604988
1664.79, 0.606188
1665.32, 0.606774
1665.86, 0.603623
1666.39, 0.601089
1666.93, 0.603339
1667.47, 0.604988
1668.0, 0.608228
1668.54, 0.608895
1669.08, 0.609177
1669.61, 0.611379
1670.15, 0.613048
1670.69, 0.613234
1671.23, 0.611679
1671.77, 0.611688
1672.31, 0.613959
1672.85, 0.617791
1673.39, 0.619126
1673.93, 0.618222
1674.47, 0.618030
1675.01, 0.618725
1675.55, 0.618719
1676.09, 0.617665
1676.64, 0.617949
1677.18, 0.618702
1677.72, 0.619112
1678.26, 0.622229
1678.81, 0.625020
1679.35, 0.623103
1679.89, 0.621679
1680.44, 0.623004
1680.98, 0.625291
1681.53, 0.625853
1682.07, 0.625671
1682.62, 0.626408
1683.17, 0.627373
1683.71, 0.627449
1684.26, 0.627311
1684.81, 0.627519
1685.36, 0.628038
1685.9, 0.628899
1686.45, 0.630766
1687.0, 0.632141
1687.55, 0.633239
1688.1, 0.634172
1688.65, 0.635824
1689.2, 0.636310
1689.75, 0.635711
1690.3, 0.635511
1690.85, 0.635852
1691.41, 0.635899
1691.96, 0.636780
1692.51, 0.638236
1693.06, 0.637883
1693.61, 0.636860
1694.17, 0.635784
1694.72, 0.636813
1695.28, 0.641239
1695.83, 0.644431
1696.39, 0.642818
1696.94, 0.640149
1697.5, 0.640950
1698.05, 0.644139
1698.61, 0.645955
1699.17, 0.645264
1699.72, 0.646185
1700.28, 0.646692
1700.84, 0.646882
1701.4, 0.647888
1701.95, 0.648897
1702.51, 0.648187
1703.07, 0.648371
1703.63, 0.650308
1704.19, 0.650894
1704.75, 0.648296
1705.31, 0.648266
1705.88, 0.651093
1706.44, 0.652325
1707.0, 0.653505
1707.56, 0.653639
1708.12, 0.652605
1708.69, 0.652495
1709.25, 0.652807
1709.81, 0.653054
1710.38, 0.653716
1710.94, 0.655243
1711.51, 0.656097
1712.07, 0.659071
1712.64, 0.662375
1713.2, 0.662323
1713.77, 0.661650
1714.34, 0.663536
1714.9, 0.664636
1715.47, 0.663402
1716.04, 0.663436
1716.61, 0.664307
1717.18, 0.662102
1717.74, 0.660848
1718.31, 0.662133
1718.88, 0.662505
1719.45, 0.663828
1720.02, 0.663991
1720.59, 0.664841
1721.17, 0.667379
1721.74, 0.667183
1722.31, 0.668040
1722.88, 0.670178
1723.45, 0.669504
1724.03, 0.667320
1724.6, 0.666580
1725.18, 0.668336
1725.75, 0.670505
1726.33, 0.671035
1726.9, 0.670078
1727.48, 0.669501
1728.05, 0.670818
1728.63, 0.670994
1729.2, 0.670538
1729.78, 0.671870
1730.36, 0.673353
1730.94, 0.672332
1731.51, 0.671387
1732.09, 0.673392
1732.67, 0.676711
1733.25, 0.677971
1733.83, 0.679323
1734.41, 0.676916
1734.99, 0.674996
1735.57, 0.675858
1736.15, 0.678790
1736.73, 0.682765
1737.32, 0.683477
1737.9, 0.682601
1738.48, 0.682579
1739.07, 0.681303
1739.65, 0.681196
1740.23, 0.684488
1740.82, 0.686281
1741.4, 0.682460
1741.99, 0.681503
1742.57, 0.682665
1743.16, 0.682154
1743.74, 0.682150
1744.33, 0.684558
1744.92, 0.686102
1745.51, 0.685541
1746.09, 0.686516
1746.68, 0.687002
1747.27, 0.686121
1747.86, 0.687060
1748.45, 0.688937
1749.04, 0.690951
1749.63, 0.692231
1750.22, 0.692506
1750.81, 0.692656
1751.4, 0.692690
1751.99, 0.691926
1752.59, 0.691320
1753.18, 0.692744
1753.77, 0.694403
1754.37, 0.695210
1754.96, 0.696155
1755.56, 0.698313
1756.15, 0.696973
1756.74, 0.694399
1757.34, 0.695534
1757.94, 0.697928
1758.53, 0.696514
1759.13, 0.695350
1759.73, 0.696704
1760.32, 0.698403
1760.92, 0.698716
1761.52, 0.697693
1762.12, 0.696683
1762.72, 0.697691
1763.32, 0.697819
1763.92, 0.697102
1764.52, 0.699379
1765.12, 0.703317
1765.72, 0.704988
1766.32, 0.703461
1766.92, 0.701850
1767.53, 0.700798
1768.13, 0.701872
1768.73, 0.702904
1769.34, 0.702077
1769.94, 0.700889
1770.55, 0.701543
1771.15, 0.704045
1771.76, 0.705388
1772.36, 0.705019
1772.97, 0.706539
1773.57, 0.708622
1774.18, 0.707855
1774.79, 0.706389
1775.4, 0.705653
1776.0, 0.705669
1776.61, 0.706133
1777.22, 0.705200
1777.83, 0.708009
1778.44, 0.709730
1779.05, 0.709281
1779.66, 0.710842
1780.27, 0.711541
1780.88, 0.711562
1781.5, 0.710451
1782.11, 0.711117
1782.72, 0.714108
1783.33, 0.714987
1783.95, 0.714702
1784.56, 0.712525
1785.18, 0.710395
1785.79, 0.710918
1786.41, 0.713751
1787.02, 0.714271
1787.64, 0.713331
1788.26, 0.713527
1788.87, 0.714059
1789.49, 0.714846
1790.11, 0.715985
1790.73, 0.714915
1791.35, 0.713639
1791.96, 0.714670
1792.58, 0.715210
1793.21, 0.716154
1793.83, 0.717862
1794.45, 0.718007
1795.07, 0.716665
1795.69, 0.716152
1796.31, 0.716163
1796.93, 0.717449
1797.56, 0.718432
1798.18, 0.718579
1798.8, 0.719953
1799.43, 0.721182
1800.05, 0.721264
1800.68, 0.721905
1801.3, 0.722391
1801.93, 0.720922
1802.56, 0.719723
1803.18, 0.720283
1803.81, 0.722139
1804.44, 0.723462
1805.07, 0.721364
1805.7, 0.718905
1806.33, 0.719170
1806.95, 0.720044
1807.58, 0.719994
1808.22, 0.721701
1808.85, 0.726570
1809.48, 0.727680
1810.11, 0.725204
1810.74, 0.724795
1811.38, 0.723918
1812.01, 0.722475
1812.64, 0.724494
1813.28, 0.726748
1813.91, 0.725497
1814.55, 0.724868
1815.18, 0.725502
1815.82, 0.725370
1816.45, 0.726536
1817.09, 0.727748
1817.73, 0.727117
1818.36, 0.727399
1819.0, 0.730137
1819.64, 0.731412
1820.28, 0.729984
1820.92, 0.730321
1821.56, 0.730727
1822.2, 0.730041
1822.84, 0.729649
1823.48, 0.729219
1824.12, 0.728385
1824.76, 0.728158
1825.41, 0.729978
1826.05, 0.730130
1826.69, 0.728051
1827.34, 0.728618
1827.98, 0.732569
1828.63, 0.734814
1829.27, 0.733117
1829.92, 0.731743
1830.56, 0.732554
1831.21, 0.730828
1831.86, 0.730906
1832.5, 0.732591
1833.15, 0.732535
1833.8, 0.733568
1834.45, 0.734524
1835.1, 0.734446
1835.75, 0.734276
1836.4, 0.733450
1837.05, 0.732881
1837.7, 0.734267
1838.35, 0.734696
1839.01, 0.731849
1839.66, 0.732301
1840.31, 0.735950
1840.96, 0.736710
1841.62, 0.737152
1842.27, 0.738179
1842.93, 0.737943
1843.58, 0.738652
1844.24, 0.738548
1844.9, 0.738104
1845.55, 0.737181
1846.21, 0.735557
1846.87, 0.735137
1847.53, 0.736021
1848.18, 0.737288
1848.84, 0.737739
1849.5, 0.737572
1850.16, 0.738250
1850.82, 0.737888
1851.48, 0.737802
1852.14, 0.739052
1852.81, 0.740603
1853.47, 0.741325
1854.13, 0.739897
1854.8, 0.738819
1855.46, 0.739729
1856.12, 0.740381
1856.79, 0.739406
1857.45, 0.737703
1858.12, 0.738673
1858.79, 0.741149
1859.45, 0.742208
1860.12, 0.741997
1860.79, 0.741588
1861.46, 0.742210
1862.12, 0.742136
1862.79, 0.741419
1863.46, 0.740769
1864.13, 0.739746
1864.8, 0.739301
1865.48, 0.741257
1866.15, 0.743982
1866.82, 0.744411
1867.49, 0.742798
1868.16, 0.742323
1868.84, 0.743507
1869.51, 0.744288
1870.19, 0.744331
1870.86, 0.742881
1871.54, 0.742736
1872.21, 0.743090
1872.89, 0.741468
1873.56, 0.742413
1874.24, 0.745326
1874.92, 0.745428
1875.6, 0.746054
1876.28, 0.747187
1876.96, 0.746529
1877.64, 0.746075
1878.32, 0.746016
1879.0, 0.745106
1879.68, 0.745070
1880.36, 0.746189
1881.04, 0.745002
1881.73, 0.744078
1882.41, 0.745211
1883.09, 0.745531
1883.78, 0.747833
1884.46, 0.750091
1885.15, 0.749579
1885.83, 0.747918
1886.52, 0.745376
1887.21, 0.744631
1887.89, 0.745877
1888.58, 0.746679
1889.27, 0.746557
1889.96, 0.745678
1890.65, 0.745170
1891.34, 0.746433
1892.03, 0.746357
1892.72, 0.745765
1893.41, 0.746375
1894.1, 0.747471
1894.79, 0.747445
1895.49, 0.745405
1896.18, 0.744028
1896.87, 0.744200
1897.57, 0.743733
1898.26, 0.742910
1898.96, 0.741949
1899.65, 0.740639
1900.35, 0.740883
1901.05, 0.742051
1901.74, 0.741541
1902.44, 0.740247
1903.14, 0.740124
1903.84, 0.739787
1904.54, 0.738948
1905.24, 0.739543
1905.94, 0.740549
1906.64, 0.740297
1907.34, 0.741177
1908.04, 0.742420
1908.75, 0.743072
1909.45, 0.743994
1910.15, 0.743907
1910.86, 0.742268
1911.56, 0.741098
1912.27, 0.741774
1912.97, 0.742321
1913.68, 0.741377
1914.39, 0.741159
1915.09, 0.740908
1915.8, 0.739983
1916.51, 0.741451
1917.22, 0.742403
1917.93, 0.741625
1918.64, 0.742201
1919.35, 0.743108
1920.06, 0.742887
1920.77, 0.742335
1921.48, 0.742455
1922.19, 0.744076
1922.91, 0.745322
1923.62, 0.744594
1924.33, 0.743738
1925.05, 0.744053
1925.76, 0.746014
1926.48, 0.745654
1927.19, 0.743972
1927.91, 0.744120
1928.63, 0.744426
1929.35, 0.745137
1930.07, 0.746198
1930.78, 0.746821
1931.5, 0.747218
1932.22, 0.748555
1932.94, 0.747969
1933.66, 0.746212
1934.39, 0.745781
1935.11, 0.747376
1935.83, 0.747389
1936.55, 0.746281
1937.28, 0.747591
1938.0, 0.748999
1938.73, 0.748954
1939.45, 0.748266
1940.18, 0.747523
1940.9, 0.747122
1941.63, 0.747785
1942.36, 0.748071
1943.09, 0.748661
1943.81, 0.749001
1944.54, 0.749958
1945.27, 0.751977
1946.0, 0.752613
1946.73, 0.752150
1947.47, 0.750302
1948.2, 0.749621
1948.93, 0.749361
1949.66, 0.749799
1950.4, 0.751228
1951.13, 0.750397
1951.86, 0.749125
1952.6, 0.750306
1953.34, 0.751381
1954.07, 0.752068
1954.81, 0.753253
1955.55, 0.754172
1956.29, 0.754154
1957.02, 0.752636
1957.76, 0.752778
1958.5, 0.755249
1959.24, 0.756099
1959.98, 0.753809
1960.72, 0.753366
1961.47, 0.755843
1962.21, 0.756081
1962.95, 0.753721
1963.7, 0.752423
1964.44, 0.752825
1965.18, 0.753028
1965.93, 0.754120
1966.67, 0.755577
1967.42, 0.755435
1968.17, 0.754771
1968.92, 0.754579
1969.66, 0.754651
1970.41, 0.754770
1971.16, 0.754632
1971.91, 0.753007
1972.66, 0.751510
1973.41, 0.753086
1974.16, 0.755123
1974.92, 0.754693
1975.67, 0.756011
1976.42, 0.757523
1977.18, 0.757129
1977.93, 0.756554
1978.69, 0.756046
1979.44, 0.755909
1980.2, 0.755546
1980.95, 0.755171
1981.71, 0.753772
1982.47, 0.753799
1983.23, 0.755894
1983.99, 0.756735
1984.74, 0.756008
1985.51, 0.755889
1986.27, 0.757720
1987.03, 0.758491
1987.79, 0.757245
1988.55, 0.755397
1989.32, 0.756009
1990.08, 0.757726
1990.84, 0.756977
1991.61, 0.755934
1992.37, 0.757632
1993.14, 0.760045
1993.9, 0.759500
1994.67, 0.758058
1995.44, 0.757850
1996.21, 0.757713
1996.98, 0.757452
1997.75, 0.758437
1998.52, 0.759201
1999.29, 0.759750
2000.06, 0.761183
2000.83, 0.760525
2001.6, 0.758493
2002.38, 0.758565
2003.15, 0.760604
2003.93, 0.760350
2004.7, 0.759331
2005.48, 0.759518
2006.25, 0.759890
2007.03, 0.760829
2007.81, 0.760718
2008.58, 0.759692
2009.36, 0.759053
2010.14, 0.759261
2010.92, 0.759637
2011.7, 0.760122
2012.48, 0.760252
2013.26, 0.760564
2014.05, 0.761215
2014.83, 0.761431
2015.61, 0.760946
2016.4, 0.760748
2017.18, 0.760202
2017.97, 0.760170
2018.75, 0.761781
2019.54, 0.762608
2020.32, 0.762702
2021.11, 0.761769
2021.9, 0.760169
2022.69, 0.760947
2023.48, 0.762044
2024.27, 0.761489
2025.06, 0.760902
2025.85, 0.760895
2026.64, 0.760219
2027.44, 0.759966
2028.23, 0.761711
2029.02, 0.763452
2029.82, 0.762961
2030.61, 0.762376
2031.41, 0.763568
2032.2, 0.762896
2033.0, 0.761436
2033.8, 0.761939
2034.6, 0.762447
2035.4, 0.762810
2036.2, 0.762450
2037.0, 0.762346
2037.8, 0.763110
2038.6, 0.763016
2039.4, 0.762005
2040.2, 0.761453
2041.01, 0.761071
2041.81, 0.761678
2042.61, 0.762814
2043.42, 0.761909
2044.22, 0.761758
2045.03, 0.762630
2045.84, 0.763143
2046.65, 0.763802
2047.46, 0.762896
2048.26, 0.762497
2049.07, 0.763271
2049.88, 0.764233
2050.69, 0.763124
2051.51, 0.760769
2052.32, 0.761863
2053.13, 0.764831
2053.94, 0.765207
2054.76, 0.763533
2055.57, 0.762665
2056.39, 0.763645
2057.2, 0.764609
2058.02, 0.764135
2058.84, 0.762803
2059.66, 0.762037
2060.48, 0.762447
2061.29, 0.764042
2062.11, 0.765584
2062.94, 0.765466
2063.76, 0.763633
2064.58, 0.762144
2065.4, 0.763190
2066.22, 0.763859
2067.05, 0.763318
2067.87, 0.763743
2068.7, 0.764119
2069.52, 0.763299
2070.35, 0.763714
2071.18, 0.765184
2072.0, 0.765406
2072.83, 0.764978
2073.66, 0.764299
2074.49, 0.764510
2075.32, 0.765710
2076.15, 0.766070
2076.98, 0.764879
2077.82, 0.764393
2078.65, 0.765448
2079.48, 0.765815
2080.32, 0.764514
2081.15, 0.764126
2081.99, 0.765620
2082.83, 0.766549
2083.66, 0.764952
2084.5, 0.763357
2085.34, 0.764522
2086.18, 0.765603
2087.02, 0.765663
2087.86, 0.765395
2088.7, 0.764790
2089.54, 0.764640
2090.39, 0.765035
2091.23, 0.766082
2092.07, 0.766336
2092.92, 0.766064
2093.76, 0.766920
2094.61, 0.766772
2095.45, 0.766111
2096.3, 0.766009
2097.15, 0.765997
2098.0, 0.766374
2098.85, 0.766494
2099.7, 0.766217
2100.55, 0.766448
2101.4, 0.766191
2102.25, 0.765751
2103.1, 0.765899
2103.96, 0.765676
2104.81, 0.766162
2105.67, 0.766496
2106.52, 0.766172
2107.38, 0.766421
2108.24, 0.766243
2109.09, 0.765788
2109.95, 0.766633
2110.81, 0.767921
2111.67, 0.766988
2112.53, 0.764993
2113.39, 0.764813
2114.25, 0.766374
2115.12, 0.767180
2115.98, 0.766406
2116.84, 0.766915
2117.71, 0.767488
2118.58, 0.767096
2119.44, 0.766891
2120.31, 0.766697
2121.18, 0.766733
2122.04, 0.767072
2122.91, 0.767136
2123.78, 0.766855
2124.65, 0.767240
2125.52, 0.767261
2126.4, 0.766389
2127.27, 0.765563
2128.14, 0.764731
2129.02, 0.765503
2129.89, 0.766437
2130.77, 0.766608
2131.64, 0.766589
2132.52, 0.766248
2133.4, 0.766147
2134.27, 0.766005
2135.15, 0.766234
2136.03, 0.766475
2136.91, 0.766760
2137.79, 0.766137
2138.68, 0.766222
2139.56, 0.767185
2140.44, 0.766387
2141.33, 0.765243
2142.21, 0.764938
2143.1, 0.765430
2143.99, 0.766635
2144.87, 0.767154
2145.76, 0.767667
2146.65, 0.767329
2147.54, 0.766292
2148.43, 0.766552
2149.32, 0.766499
2150.21, 0.766425
2151.1, 0.766147
2151.99, 0.765108
2152.89, 0.764254
2153.78, 0.764066
2154.68, 0.764925
2155.57, 0.765969
2156.47, 0.766247
2157.37, 0.766154
2158.27, 0.766280
2159.16, 0.765000
2160.06, 0.763653
2160.96, 0.764747
2161.86, 0.765217
2162.77, 0.764405
2163.67, 0.764979
2164.57, 0.765861
2165.48, 0.765281
2166.38, 0.764962
2167.29, 0.765072
2168.2, 0.765249
2169.1, 0.765317
2170.01, 0.765060
2170.92, 0.764814
2171.83, 0.764720
2172.74, 0.763777
2173.65, 0.763523
2174.56, 0.764838
2175.47, 0.764413
2176.39, 0.763453
2177.3, 0.764302
2178.22, 0.764484
2179.13, 0.764099
2180.05, 0.764306
2180.96, 0.763811
2181.88, 0.762676
2182.8, 0.763100
2183.72, 0.764423
2184.64, 0.764407
2185.56, 0.763218
2186.48, 0.762870
2187.41, 0.763255
2188.33, 0.762976
2189.25, 0.761614
2190.18, 0.760778
2191.1, 0.761064
2192.03, 0.761008
2192.96, 0.761385
2193.89, 0.762094
2194.82, 0.761006
2195.74, 0.760481
2196.68, 0.761354
2197.61, 0.761288
2198.54, 0.760922
2199.47, 0.761918
2200.4, 0.762578
2201.34, 0.761953
2202.28, 0.760747
2203.21, 0.760143
2204.15, 0.761002
2205.08, 0.761304
2206.02, 0.760656
2206.96, 0.760689
2207.9, 0.760919
2208.84, 0.759846
2209.78, 0.758902
2210.73, 0.758959
2211.67, 0.759636
2212.61, 0.760568
2213.56, 0.760400
2214.5, 0.759648
2215.45, 0.758938
2216.4, 0.759244
2217.35, 0.759595
2218.3, 0.759052
2219.24, 0.759324
2220.2, 0.759116
2221.15, 0.758758
2222.1, 0.760220
2223.05, 0.760520
2224.0, 0.759494
2224.96, 0.759456
2225.91, 0.759788
2226.87, 0.759992
2227.83, 0.760499
2228.79, 0.760413
2229.74, 0.759534
2230.7, 0.759392
2231.66, 0.759843
2232.63, 0.759665
2233.59, 0.758443
2234.55, 0.757753
2235.51, 0.757711
2236.48, 0.758044
2237.44, 0.758518
2238.41, 0.758161
2239.38, 0.757138
2240.34, 0.756663
2241.31, 0.757061
2242.28, 0.756998
2243.25, 0.757295
2244.22, 0.757659
2245.19, 0.757294
2246.17, 0.757270
2247.14, 0.757564
2248.12, 0.757649
2249.09, 0.757910
2250.07, 0.757879
2251.04, 0.756912
2252.02, 0.756475
2253.0, 0.756701
2253.98, 0.756417
2254.96, 0.756145
2255.94, 0.756128
2256.92, 0.756457
2257.91, 0.756214
2258.89, 0.755628
2259.88, 0.755774
2260.86, 0.755913
2261.85, 0.755407
2262.83, 0.755410
2263.82, 0.754740
2264.81, 0.753562
2265.8, 0.753645
2266.79, 0.754727
2267.78, 0.755411
2268.78, 0.754622
2269.77, 0.753824
2270.76, 0.753309
2271.76, 0.752803
2272.75, 0.753267
2273.75, 0.753687
2274.75, 0.753620
2275.75, 0.753478
2276.75, 0.752570
2277.75, 0.751951
2278.75, 0.751997
2279.75, 0.751093
2280.75, 0.750590
2281.76, 0.750894
2282.76, 0.750539
2283.77, 0.750415
2284.77, 0.750231
2285.78, 0.749542
2286.79, 0.749266
2287.8, 0.749223
2288.81, 0.748979
2289.82, 0.748867
2290.83, 0.749139
2291.84, 0.750087
2292.86, 0.750096
2293.87, 0.748317
2294.89, 0.746442
2295.91, 0.746353
2296.92, 0.747177
2297.94, 0.747307
2298.96, 0.746143
2299.98, 0.744557
2301.0, 0.744551
2302.02, 0.744482
2303.04, 0.744071
2304.07, 0.743597
2305.09, 0.742468
2306.12, 0.741339
2307.15, 0.741543
2308.17, 0.742025
2309.2, 0.741118
2310.23, 0.739907
2311.26, 0.739442
2312.29, 0.739506
2313.32, 0.738701
2314.35, 0.738150
2315.39, 0.739567
2316.42, 0.740812
2317.46, 0.741860
2318.5, 0.742961
2319.53, 0.743755
2320.57, 0.744380
2321.61, 0.744594
2322.65, 0.744758
2323.69, 0.744974
2324.73, 0.745000
2325.78, 0.745635
2326.82, 0.746341
2327.86, 0.745635
2328.91, 0.745119
2329.96, 0.745045
2331.01, 0.744708
2332.05, 0.744593
2333.1, 0.744004
2334.15, 0.743728
2335.21, 0.744169
2336.26, 0.744092
2337.31, 0.743846
2338.36, 0.744907
2339.42, 0.744790
2340.48, 0.743081
2341.53, 0.742639
2342.59, 0.742629
2343.65, 0.742064
2344.71, 0.741763
2345.77, 0.741890
2346.83, 0.741399
2347.9, 0.740276
2348.96, 0.739810
2350.02, 0.739529
2351.09, 0.738854
2352.16, 0.738475
2353.23, 0.738444
2354.29, 0.739121
2355.36, 0.740910
2356.43, 0.742235
2357.51, 0.742482
2358.58, 0.742362
2359.65, 0.741907
2360.73, 0.741385
2361.8, 0.740747
2362.88, 0.740307
2363.96, 0.740383
2365.03, 0.740213
2366.11, 0.739201
2367.19, 0.739118
2368.27, 0.739844
2369.36, 0.739342
2370.44, 0.738905
2371.53, 0.739180
2372.61, 0.738878
2373.7, 0.738568
2374.78, 0.739116
2375.87, 0.739206
2376.96, 0.738714
2378.05, 0.738421
2379.14, 0.738505
2380.24, 0.737915
2381.33, 0.736722
2382.42, 0.736432
2383.52, 0.736732
2384.61, 0.736655
2385.71, 0.736117
2386.81, 0.735745
2387.91, 0.735696
2389.01, 0.735253
2390.11, 0.735059
2391.22, 0.735589
2392.32, 0.735647
2393.42, 0.735350
2394.53, 0.735932
2395.64, 0.735798
2396.74, 0.734827
2397.85, 0.734059
2398.96, 0.733867
2400.07, 0.734622
2401.18, 0.735155
2402.3, 0.734923
2403.41, 0.734295
2404.52, 0.733715
2405.64, 0.733660
2406.76, 0.733861
2407.88, 0.734332
2408.99, 0.734563
2410.11, 0.734222
2411.23, 0.733669
2412.36, 0.732733
2413.48, 0.731970
2414.6, 0.732187
2415.73, 0.732588
2416.85, 0.732633
2417.98, 0.732355
2419.11, 0.732218
2420.24, 0.732213
2421.37, 0.732037
2422.5, 0.731661
2423.64, 0.731503
2424.77, 0.730580
2425.9, 0.729718
2427.04, 0.729787
2428.18, 0.730080
2429.31, 0.730188
2430.45, 0.729869
2431.59, 0.729733
2432.73, 0.729904
2433.88, 0.729585
2435.02, 0.729348
2436.16, 0.729386
2437.31, 0.728912
2438.45, 0.728468
2439.6, 0.728061
2440.75, 0.727393
2441.9, 0.726806
2443.05, 0.726390
2444.2, 0.726365
2445.35, 0.726458
2446.51, 0.726241
2447.67, 0.726198
2448.82, 0.726476
2449.98, 0.726362
2451.14, 0.726412
2452.3, 0.726767
2453.46, 0.726247
2454.62, 0.725030
2455.78, 0.724911
2456.94, 0.725481
2458.11, 0.725071
2459.28, 0.724353
2460.44, 0.723916
2461.61, 0.723680
2462.78, 0.724329
2463.95, 0.725445
2465.12, 0.726033
2466.3, 0.725128
2467.47, 0.723590
2468.65, 0.723203
2469.82, 0.723762
2471.0, 0.723584
2472.18, 0.722726
2473.36, 0.722342
2474.54, 0.721914
2475.72, 0.721245
2476.9, 0.720478
2478.08, 0.720106
2479.27, 0.720879
2480.46, 0.721687
2481.64, 0.721945
2482.83, 0.721494
2484.02, 0.720623
2485.21, 0.720129
2486.4, 0.719684
2487.6, 0.719564
2488.79, 0.719943
2489.99, 0.719775
2491.18, 0.719411
2492.38, 0.719254
2493.58, 0.719298
2494.78, 0.719172
2495.98, 0.719145
2497.18, 0.719315
2498.39, 0.718704
2499.59, 0.718130
2500.8, 0.718002
2502.01, 0.717796
2503.21, 0.717627
2504.42, 0.717389
2505.63, 0.717205
2506.84, 0.716862
2508.06, 0.716927
2509.27, 0.716821
2510.49, 0.716025
2511.7, 0.715767
2512.92, 0.715451
2514.14, 0.714320
2515.36, 0.714397
2516.58, 0.715223
2517.8, 0.715148
2519.03, 0.714317
2520.25, 0.713604
2521.48, 0.713832
2522.7, 0.713780
2523.93, 0.713331
2525.16, 0.712406
2526.39, 0.711916
2527.62, 0.712950
2528.86, 0.713434
2530.09, 0.713220
2531.33, 0.712919
2532.56, 0.712589
2533.8, 0.712244
2535.04, 0.711562
2536.28, 0.710968
2537.52, 0.710556
2538.76, 0.710328
2540.01, 0.710268
2541.25, 0.709634
2542.5, 0.709192
2543.75, 0.709228
2544.99, 0.709056
2546.24, 0.708660
2547.49, 0.708189
2548.75, 0.708378
2550.0, 0.708824
2551.26, 0.708327
2552.51, 0.707606
2553.77, 0.707747
2555.03, 0.707966
2556.29, 0.707717
2557.55, 0.707328
2558.81, 0.706673
2560.08, 0.706154
2561.34, 0.705467
2562.61, 0.705499
2563.88, 0.705751
2565.14, 0.705012
2566.41, 0.705555
2567.68, 0.706140
2568.96, 0.705133
2570.23, 0.704492
2571.51, 0.704059
2572.78, 0.702942
2574.06, 0.702368
2575.34, 0.702602
2576.62, 0.703369
2577.9, 0.702977
2579.18, 0.701844
2580.47, 0.702202
2581.75, 0.702335
2583.04, 0.701186
2584.32, 0.701686
2585.61, 0.702694
2586.9, 0.701310
2588.2, 0.700020
2589.49, 0.699954
2590.78, 0.700287
2592.08, 0.700144
2593.37, 0.699706
2594.67, 0.699534
2595.97, 0.698218
2597.27, 0.697250
2598.57, 0.697385
2599.88, 0.697644
2601.18, 0.697388
2602.49, 0.696171
2603.79, 0.695148
2605.1, 0.694685
2606.41, 0.694421
2607.72, 0.694889
2609.03, 0.696349
2610.35, 0.696444
2611.66, 0.695331
2612.98, 0.694337
2614.3, 0.693673
2615.62, 0.693669
2616.94, 0.693408
2618.26, 0.692771
2619.58, 0.692337
2620.91, 0.691846
2622.23, 0.691275
2623.56, 0.691287
2624.89, 0.691038
2626.22, 0.689938
2627.55, 0.689407
2628.88, 0.689284
2630.21, 0.688387
2631.55, 0.688142
2632.89, 0.688070
2634.22, 0.687291
2635.56, 0.686945
2636.9, 0.687130
2638.25, 0.686816
2639.59, 0.685451
2640.93, 0.684071
2642.28, 0.683274
2643.63, 0.683159
2644.98, 0.683579
2646.33, 0.682777
2647.68, 0.681179
2649.03, 0.680559
2650.39, 0.680143
2651.74, 0.678757
2653.1, 0.677437
2654.46, 0.676633
2655.82, 0.676474
2657.18, 0.677397
2658.54, 0.677258
2659.9, 0.675443
2661.27, 0.673720
2662.64, 0.672935
2664.01, 0.672674
2665.38, 0.671380
2666.74, 0.670057
2668.12, 0.669110
2669.49, 0.668507
2670.87, 0.667884
2672.24, 0.665798
2673.62, 0.664126
2675.0, 0.663818
2676.38, 0.661710
2677.76, 0.658980
2679.15, 0.658570
2680.54, 0.656304
2681.92, 0.652676
2683.31, 0.650049
2684.7, 0.646248
2686.09, 0.641405
2687.48, 0.635329
2688.88, 0.628419
2690.27, 0.621473
2691.67, 0.613999
2693.07, 0.605489
2694.47, 0.596227
2695.87, 0.586535
2697.27, 0.576928
2698.67, 0.568138
2700.08, 0.560063
2701.49, 0.551454
2702.9, 0.543881
2704.31, 0.538962
2705.72, 0.535033
2707.13, 0.531616
2708.54, 0.528934
2709.96, 0.526670
2711.38, 0.524769
2712.8, 0.522324
2714.22, 0.519409
2715.64, 0.516001
2717.06, 0.512140
2718.49, 0.508114
2719.91, 0.503793
2721.34, 0.500203
2722.77, 0.497432
2724.2, 0.493485
2725.63, 0.488952
2727.07, 0.484872
2728.5, 0.480258
2729.94, 0.475959
2731.38, 0.472137
2732.82, 0.468060
2734.26, 0.463494
2735.7, 0.458517
2737.15, 0.454254
2738.59, 0.450847
2740.04, 0.447145
2741.49, 0.442560
2742.94, 0.438962
2744.39, 0.435902
2745.84, 0.432405
2747.3, 0.429299
2748.76, 0.426350
2750.21, 0.423222
2751.67, 0.420361
2753.14, 0.417480
2754.6, 0.414291
2756.06, 0.411577
2757.53, 0.408984
2759.0, 0.407091
2760.46, 0.405831
2761.94, 0.404020
2763.41, 0.403003
2764.88, 0.403334
2766.36, 0.403844
2767.83, 0.404212
2769.31, 0.404260
2770.79, 0.403712
2772.27, 0.402828
2773.76, 0.402070
2775.24, 0.400855
2776.73, 0.398701
2778.22, 0.396840
2779.71, 0.396288
2781.2, 0.397112
2782.69, 0.398471
2784.18, 0.399527
2785.68, 0.399757
2787.18, 0.399573
2788.68, 0.399356
2790.18, 0.399069
2791.68, 0.398536
2793.19, 0.397452
2794.69, 0.396687
2796.2, 0.395806
2797.71, 0.393740
2799.22, 0.392229
2800.73, 0.392234
2802.24, 0.392819
2803.76, 0.393640
2805.28, 0.394278
2806.8, 0.394588
2808.32, 0.395146
2809.84, 0.396021
2811.36, 0.396610
2812.89, 0.397035
2814.42, 0.397293
2815.94, 0.397110
2817.48, 0.397121
2819.01, 0.397101
2820.54, 0.396773
2822.08, 0.396370
2823.61, 0.396460
2825.15, 0.396749
2826.69, 0.396620
2828.23, 0.396260
2829.78, 0.395664
2831.32, 0.394954
2832.87, 0.394527
2834.42, 0.394222
2835.97, 0.393838
2837.52, 0.393685
2839.08, 0.393785
2840.63, 0.393894
2842.19, 0.393979
2843.75, 0.393906
2845.31, 0.393763
2846.87, 0.393654
2848.44, 0.393334
2850.0, 0.393057
2851.57, 0.393264
2853.14, 0.393131
2854.71, 0.392575
2856.28, 0.392183
2857.86, 0.391966
2859.43, 0.391326
2861.01, 0.390468
2862.59, 0.389583
2864.17, 0.388778
2865.76, 0.388588
2867.34, 0.388053
2868.93, 0.386844
2870.52, 0.385914
2872.11, 0.385393
2873.7, 0.385150
2875.29, 0.384726
2876.89, 0.384210
2878.49, 0.383957
2880.08, 0.383708
2881.69, 0.383114
2883.29, 0.382270
2884.89, 0.381450
2886.5, 0.381158
2888.11, 0.381094
2889.72, 0.380432
2891.33, 0.379482
2892.94, 0.378731
2894.56, 0.377995
2896.17, 0.377344
2897.79, 0.376994
2899.42, 0.376735
2901.04, 0.376066
2902.66, 0.375534
2904.29, 0.375300
2905.92, 0.374797
2907.55, 0.374063
2909.18, 0.373320
2910.81, 0.372853
2912.45, 0.372694
2914.08, 0.372126
2915.72, 0.371280
2917.36, 0.370570
2919.01, 0.370086
2920.65, 0.369741
2922.3, 0.369301
2923.94, 0.368912
2925.59, 0.368479
2927.25, 0.367861
2928.9, 0.367572
2930.56, 0.367502
2932.21, 0.367226
2933.87, 0.366560
2935.53, 0.365851
2937.2, 0.365518
2938.86, 0.365380
2940.53, 0.365154
2942.2, 0.365118
2943.87, 0.365395
2945.54, 0.365538
2947.22, 0.365222
2948.89, 0.364728
2950.57, 0.364059
2952.25, 0.363725
2953.93, 0.363805
2955.62, 0.363796
2957.3, 0.364082
2958.99, 0.364278
2960.68, 0.363857
2962.37, 0.363456
2964.07, 0.363384
2965.76, 0.363237
2967.46, 0.363280
2969.16, 0.362941
2970.86, 0.362671
2972.56, 0.362515
2974.27, 0.361831
2975.98, 0.362019
2977.69, 0.362666
2979.4, 0.362901
2981.11, 0.362890
2982.83, 0.362884
2984.54, 0.362733
2986.26, 0.362626
2987.98, 0.362801
2989.71, 0.363140
2991.43, 0.363417
2993.16, 0.363751
2994.89, 0.363631
2996.62, 0.362865
2998.35, 0.362401
3000.09, 0.362368
3001.83, 0.362363
3003.57, 0.362486
3005.31, 0.362663
3007.05, 0.362625
3008.79, 0.362706
3010.54, 0.363182
3012.29, 0.362968
3014.04, 0.362643
3015.8, 0.363033
3017.55, 0.363499
3019.31, 0.363306
3021.07, 0.362907
3022.83, 0.362828
3024.59, 0.362687
3026.36, 0.362634
3028.13, 0.362788
3029.9, 0.362828
3031.67, 0.362637
3033.44, 0.362529
3035.22, 0.362642
3037.0, 0.362359
3038.78, 0.362155
3040.56, 0.362317
3042.34, 0.362292
3044.13, 0.362004
3045.92, 0.362163
3047.71, 0.362199
3049.5, 0.361953
3051.3, 0.361934
3053.09, 0.361861
3054.89, 0.362023
3056.69, 0.362120
3058.5, 0.361857
3060.3, 0.361487
3062.11, 0.361370
3063.92, 0.361542
3065.73, 0.361465
3067.55, 0.361709
3069.36, 0.361902
3071.18, 0.361713
3073.0, 0.361414
3074.82, 0.361191
3076.65, 0.361082
3078.48, 0.361107
3080.31, 0.361156
3082.14, 0.361013
3083.97, 0.361243
3085.8, 0.361831
3087.64, 0.361653
3089.48, 0.361065
3091.33, 0.360977
3093.17, 0.361241
3095.02, 0.361484
3096.87, 0.361926
3098.72, 0.362420
3100.57, 0.361969
3102.43, 0.361389
3104.28, 0.361776
3106.14, 0.362178
3108.01, 0.362241
3109.87, 0.362355
3111.74, 0.362515
3113.61, 0.362860
3115.48, 0.363070
3117.35, 0.363150
3119.23, 0.363726
3121.1, 0.364221
3122.98, 0.364091
3124.87, 0.363985
3126.75, 0.364214
3128.64, 0.364320
3130.53, 0.364643
3132.42, 0.365071
3134.31, 0.365025
3136.21, 0.364765
3138.11, 0.364812
3140.01, 0.365415
3141.91, 0.365990
3143.82, 0.365900
3145.73, 0.365803
3147.64, 0.366243
3149.55, 0.366474
3151.46, 0.366610
3153.38, 0.367310
3155.3, 0.367673
3157.22, 0.367702
3159.14, 0.367777
3161.07, 0.368025
3163.0, 0.368434
3164.93, 0.368464
3166.86, 0.368221
3168.8, 0.368655
3170.74, 0.369321
3172.68, 0.369468
3174.62, 0.369326
3176.56, 0.369213
3178.51, 0.369795
3180.46, 0.370256
3182.42, 0.369746
3184.37, 0.369871
3186.33, 0.370617
3188.29, 0.370932
3190.25, 0.371050
3192.21, 0.371219
3194.18, 0.371206
3196.15, 0.371585
3198.12, 0.371850
3200.09, 0.371476
3202.07, 0.371459
3204.05, 0.371993
3206.03, 0.372178
3208.02, 0.372140
3210.0, 0.372351
3211.99, 0.372603
3213.98, 0.372450
3215.98, 0.372281
3217.97, 0.372409
3219.97, 0.372677
3221.97, 0.372994
3223.98, 0.372847
3225.98, 0.372681
3227.99, 0.373155
3230.0, 0.373478
3232.02, 0.373171
3234.03, 0.372937
3236.05, 0.373009
3238.07, 0.372952
3240.1, 0.372739
3242.12, 0.372648
3244.15, 0.372726
3246.18, 0.372634
3248.22, 0.372726
3250.25, 0.372868
3252.29, 0.372549
3254.33, 0.372271
3256.38, 0.372738
3258.43, 0.372726
3260.47, 0.372344
3262.53, 0.372330
3264.58, 0.372557
3266.64, 0.372409
3268.7, 0.371862
3270.76, 0.371390
3272.82, 0.370859
3274.89, 0.370529
3276.96, 0.370386
3279.04, 0.370302
3281.11, 0.370407
3283.19, 0.370189
3285.27, 0.369524
3287.35, 0.369007
3289.44, 0.368562
3291.53, 0.368055
3293.62, 0.367900
3295.71, 0.367873
3297.81, 0.367487
3299.91, 0.366715
3302.01, 0.365881
3304.11, 0.365272
3306.22, 0.364901
3308.33, 0.364340
3310.44, 0.363908
3312.56, 0.363150
3314.68, 0.362119
3316.8, 0.361364
3318.92, 0.360562
3321.05, 0.359754
3323.18, 0.359258
3325.31, 0.358606
3327.44, 0.357898
3329.58, 0.357278
3331.72, 0.356393
3333.86, 0.355495
3336.01, 0.354737
3338.16, 0.354062
3340.31, 0.353507
3342.46, 0.352487
3344.61, 0.351345
3346.77, 0.350436
3348.94, 0.349465
3351.1, 0.348390
3353.27, 0.347392
3355.44, 0.346263
3357.61, 0.345339
3359.79, 0.344163
3361.97, 0.342692
3364.15, 0.341457
3366.33, 0.339882
3368.52, 0.337988
3370.71, 0.336220
3372.9, 0.334563
3375.1, 0.333122
3377.3, 0.331782
3379.5, 0.330294
3381.71, 0.329215
3383.91, 0.328892
3386.12, 0.328798
3388.34, 0.329071
3390.55, 0.329653
3392.77, 0.329425
3394.99, 0.328347
3397.22, 0.327225
3399.45, 0.325478
3401.68, 0.322907
3403.91, 0.320023
3406.15, 0.316692
3408.39, 0.313404
3410.63, 0.310304
3412.87, 0.306724
3415.12, 0.303213
3417.37, 0.300112
3419.63, 0.297155
3421.88, 0.294142
3424.14, 0.291362
3426.41, 0.289099
3428.67, 0.288750
3430.94, 0.293104
3433.21, 0.300822
3435.49, 0.307526
3437.77, 0.312072
3440.05, 0.314944
3442.33, 0.316387
3444.62, 0.317251
3446.91, 0.318206
3449.2, 0.318742
3451.5, 0.318962
3453.8, 0.319424
3456.1, 0.319851
3458.41, 0.319950
3460.72, 0.320351
3463.03, 0.320499
3465.34, 0.320134
3467.66, 0.320241
3469.98, 0.320583
3472.31, 0.320170
3474.63, 0.319321
3476.96, 0.318419
3479.3, 0.317399
3481.64, 0.316183
3483.97, 0.315518
3486.32, 0.315166
3488.66, 0.314267
3491.01, 0.312605
3493.36, 0.310500
3495.72, 0.307967
3498.08, 0.304914
3500.44, 0.301488
3502.81, 0.297702
3505.18, 0.293567
3507.55, 0.289170
3509.92, 0.286832
3512.3, 0.290625
3514.68, 0.298548
3517.06, 0.305018
3519.45, 0.308527
3521.84, 0.310585
3524.24, 0.311608
3526.64, 0.311880
3529.04, 0.311965
3531.44, 0.312183
3533.85, 0.311954
3536.26, 0.311396
3538.67, 0.311390
3541.09, 0.311262
3543.51, 0.310673
3545.93, 0.310114
3548.36, 0.309618
3550.79, 0.309531
3553.22, 0.309302
3555.66, 0.308449
3558.1, 0.307545
3560.54, 0.306976
3562.99, 0.306529
3565.44, 0.305742
3567.9, 0.305096
3570.35, 0.304870
3572.81, 0.304467
3575.28, 0.303892
3577.75, 0.303184
3580.22, 0.302331
3582.69, 0.301445
3585.17, 0.300589
3587.65, 0.299826
3590.14, 0.299358
3592.62, 0.298739
3595.11, 0.297969
3597.61, 0.296981
3600.11, 0.295906
3602.61, 0.295021
3605.11, 0.294384
3607.62, 0.293752
3610.14, 0.292908
3612.65, 0.291927
3615.17, 0.291189
3617.69, 0.290377
3620.22, 0.289311
3622.75, 0.288616
3625.28, 0.287797
3627.82, 0.286704
3630.36, 0.285679
3632.9, 0.284615
3635.45, 0.283723
3638.0, 0.282767
3640.56, 0.281791
3643.12, 0.281172
3645.68, 0.280490
3648.24, 0.279742
3650.81, 0.278881
3653.39, 0.277913
3655.96, 0.277033
3658.54, 0.276301
3661.13, 0.275609
3663.71, 0.274996
3666.3, 0.274257
3668.9, 0.273250
3671.5, 0.272354
3674.1, 0.271284
3676.7, 0.270344
3679.31, 0.269505
3681.93, 0.268777
3684.54, 0.267965
3687.17, 0.267014
3689.79, 0.265910
3692.42, 0.264955
3695.05, 0.264002
3697.69, 0.263066
3700.32, 0.262219
3702.97, 0.261477
3705.61, 0.260508
3708.27, 0.259099
3710.92, 0.257834
3713.58, 0.257068
3716.24, 0.256420
3718.91, 0.255647
3721.58, 0.254452
3724.25, 0.253356
3726.93, 0.252638
3729.61, 0.252032
3732.29, 0.251025
3734.98, 0.249965
3737.67, 0.248984
3740.37, 0.248107
3743.07, 0.247118
3745.78, 0.246081
3748.49, 0.245153
3751.2, 0.244237
3753.91, 0.243489
3756.63, 0.242550
3759.36, 0.241411
3762.09, 0.240605
3764.82, 0.239786
3767.55, 0.238788
3770.29, 0.237950
3773.04, 0.237152
3775.78, 0.236179
3778.54, 0.235304
3781.29, 0.234619
3784.05, 0.233698
3786.82, 0.232548
3789.59, 0.231516
3792.36, 0.230792
3795.13, 0.230278
3797.92, 0.229533
3800.7, 0.228955
3803.49, 0.228209
3806.28, 0.227155
3809.08, 0.226286
3811.88, 0.225523
3814.68, 0.224688
3817.49, 0.224220
3820.31, 0.223765
3823.12, 0.223282
3825.94, 0.222508
3828.77, 0.221825
3831.6, 0.221403
3834.43, 0.220802
3837.27, 0.220373
3840.11, 0.220231
3842.96, 0.219676
3845.81, 0.218993
3848.67, 0.218649
3851.53, 0.218385
3854.39, 0.218132
3857.26, 0.217948
3860.13, 0.217697
3863.01, 0.217377
3865.89, 0.216923
3868.77, 0.216514
3871.66, 0.216015
3874.55, 0.215488
3877.45, 0.215243
3880.35, 0.215187
3883.26, 0.214683
3886.17, 0.214125
3889.09, 0.213756
3892.01, 0.213511
3894.93, 0.213289
3897.86, 0.212999
3900.79, 0.212594
3903.73, 0.212208
3906.67, 0.211639
3909.62, 0.211047
3912.57, 0.210701
3915.52, 0.210258
3918.48, 0.209521
3921.45, 0.208870
3924.42, 0.208570
3927.39, 0.208366
3930.37, 0.207698
3933.35, 0.207116
3936.34, 0.206588
3939.33, 0.206110
3942.32, 0.205397
3945.32, 0.204548
3948.33, 0.203739
3951.34, 0.202860
3954.35, 0.201994
3957.37, 0.201407
3960.39, 0.200607
3963.42, 0.199519
3966.45, 0.198653
3969.49, 0.197749
3972.53, 0.196639
3975.58, 0.195546
3978.63, 0.194366
3981.68, 0.193154
3984.75, 0.192015
3987.81, 0.190988
3990.88, 0.189722
3993.95, 0.188399
3997.03, 0.187210
4000.12, 0.186070
4003.21, 0.185122
4006.3, 0.184419
4009.4, 0.183746
4012.5, 0.183155
4015.61, 0.182725
4018.72, 0.182474
4021.84, 0.182447
4024.96, 0.182615
4028.09, 0.182723
4031.22, 0.182953
4034.36, 0.183359
4037.5, 0.183753
4040.65, 0.184106
4043.8, 0.184283
4046.96, 0.184103
4050.12, 0.184137
4053.29, 0.184145
4056.46, 0.184068
4059.64, 0.184032
4062.82, 0.183946
4066.0, 0.183620
4069.19, 0.183200
4072.39, 0.182758
4075.59, 0.182231
4078.8, 0.181900
4082.01, 0.181469
4085.23, 0.180739
4088.45, 0.180149
4091.68, 0.179808
4094.91, 0.179459
4098.15, 0.178830
4101.39, 0.178166
4104.63, 0.177593
4107.89, 0.176934
4111.14, 0.176277
4114.41, 0.175644
4117.67, 0.175125
4120.95, 0.174479
4124.23, 0.173517
4127.51, 0.172803
4130.8, 0.172223
4134.09, 0.171580
4137.39, 0.171023
4140.7, 0.170279
4144.01, 0.169431
4147.32, 0.168983
4150.64, 0.168287
4153.97, 0.167462
4157.3, 0.166770
4160.64, 0.165989
4163.98, 0.165031
4167.33, 0.164346
4170.68, 0.163920
4174.04, 0.163397
4177.4, 0.162661
4180.77, 0.161983
4184.14, 0.161150
4187.52, 0.160415
4190.91, 0.159958
4194.3, 0.159226
4197.69, 0.158478
4201.1, 0.157963
4204.5, 0.157640
4207.92, 0.157348
4211.34, 0.156798
4214.76, 0.156344
4218.19, 0.155894
4221.62, 0.155273
4225.06, 0.154989
4228.51, 0.154487
4231.96, 0.153282
4235.42, 0.152737
4238.88, 0.152261
4242.35, 0.151750
4245.83, 0.151135
4249.31, 0.149998
4252.79, 0.148677
4256.28, 0.147629
4259.78, 0.147020
4263.29, 0.146783
4266.79, 0.146189
4270.31, 0.145675
4273.83, 0.145062
4277.35, 0.144417
4280.89, 0.143833
4284.42, 0.143261
4287.97, 0.142579
4291.52, 0.142040
4295.07, 0.141463
4298.63, 0.140750
4302.2, 0.139910
4305.78, 0.139185
4309.35, 0.138749
4312.94, 0.138285
4316.53, 0.137690
4320.13, 0.137285
4323.73, 0.136587
4327.34, 0.135820
4330.96, 0.134953
4334.58, 0.134369
4338.21, 0.133987
4341.84, 0.133485
4345.48, 0.132881
4349.12, 0.132329
4352.77, 0.131772
4356.43, 0.131060
4360.1, 0.130305
4363.76, 0.129864
4367.44, 0.129149
4371.12, 0.128255
4374.81, 0.127521
4378.51, 0.126959
4382.21, 0.126489
4385.92, 0.125976
4389.63, 0.125487
4393.35, 0.125182
4397.08, 0.124502
4400.81, 0.123931
4404.55, 0.123481
4408.29, 0.123174
4412.04, 0.122732
4415.8, 0.121962
4419.57, 0.121313
4423.34, 0.120869
4427.12, 0.120326
4430.9, 0.119869
4434.69, 0.119337
4438.49, 0.118889
4442.29, 0.118425
4446.1, 0.117821
4449.92, 0.117161
4453.74, 0.116641
4457.57, 0.116281
4461.41, 0.115834
4465.25, 0.115103
4469.1, 0.114328
4472.95, 0.113577
4476.82, 0.113136
4480.69, 0.112853
4484.56, 0.112438
4488.44, 0.111838
4492.33, 0.111264
4496.23, 0.110883
4500.13, 0.110469
4504.04, 0.109697
4507.96, 0.109063
4511.88, 0.108661
4515.81, 0.108254
4519.75, 0.107811
4523.69, 0.107309
4527.65, 0.106709
4531.6, 0.106116
4535.57, 0.105368
4539.54, 0.104655
4543.52, 0.104144
4547.5, 0.103735
4551.5, 0.103112
4555.5, 0.102566
4559.5, 0.102123
4563.52, 0.101407
4567.54, 0.100781
4571.56, 0.100574
4575.6, 0.100141
4579.64, 0.0995910
4583.69, 0.0992180
4587.75, 0.0988890
4591.81, 0.0984490
4595.88, 0.0978840
4599.96, 0.0973280
4604.04, 0.0969020
4608.14, 0.0962320
4612.24, 0.0957730
4616.34, 0.0954540
4620.46, 0.0949050
4624.58, 0.0944410
4628.71, 0.0942950
4632.84, 0.0939950
4636.99, 0.0935060
4641.14, 0.0931920
4645.3, 0.0928850
4649.47, 0.0924450
4653.64, 0.0920440
4657.82, 0.0916610
4662.01, 0.0913360
4666.21, 0.0907790
4670.41, 0.0902300
4674.62, 0.0898230
4678.84, 0.0895470
4683.07, 0.0892580
4687.3, 0.0889470
4691.54, 0.0886090
4695.79, 0.0880440
4700.05, 0.0875540
4704.31, 0.0872870
4708.59, 0.0869410
4712.87, 0.0864810
4717.15, 0.0858920
4721.45, 0.0852700
4725.76, 0.0847250
4730.07, 0.0842970
4734.39, 0.0839750
4738.72, 0.0835870
4743.05, 0.0830160
4747.39, 0.0825540
4751.75, 0.0820530
4756.1, 0.0814530
4760.47, 0.0807800
4764.85, 0.0802060
4769.23, 0.0797490
4773.62, 0.0793660
4778.02, 0.0787670
4782.43, 0.0779740
4786.85, 0.0771160
4791.27, 0.0765140
4795.7, 0.0759400
4800.14, 0.0751680
4804.59, 0.0741630
4809.05, 0.0732270
4813.51, 0.0724680
4817.99, 0.0718210
4822.47, 0.0709280
4826.96, 0.0699870
4831.46, 0.0689660
4835.96, 0.0677910
4840.48, 0.0664010
4845.0, 0.0649790
4849.54, 0.0636100
4854.08, 0.0620450
4858.63, 0.0600530
4863.18, 0.0581280
4867.75, 0.0562810
4872.33, 0.0545410
4876.91, 0.0529920
4881.5, 0.0514980
4886.1, 0.0499320
4890.71, 0.0486170
4895.33, 0.0475670
4899.96, 0.0465870
4904.59, 0.0457100
4909.24, 0.0448310
4913.89, 0.0441550
4918.55, 0.0438010
4923.22, 0.0432650
4927.9, 0.0425760
4932.59, 0.0421110
4937.29, 0.0417430
4942.0, 0.0415040
4946.71, 0.0415260
4951.44, 0.0415170
4956.17, 0.0416560
4960.91, 0.0417280
4965.67, 0.0417940
4970.43, 0.0419720
4975.2, 0.0420350
4979.98, 0.0421540
4984.76, 0.0423990
4989.56, 0.0425200
4994.37, 0.0425890
4999.18, 0.0427130
5004.01, 0.0429580
5008.84, 0.0429890
5013.69, 0.0429050
5018.54, 0.0429940
5023.4, 0.0431500
5028.28, 0.0431540
5033.16, 0.0429930
5038.05, 0.0428470
5042.95, 0.0427490
5047.86, 0.0426790
5052.78, 0.0425430
5057.71, 0.0422190
5062.65, 0.0421270
5067.6, 0.0421130
5072.56, 0.0418670
5077.53, 0.0413890
5082.5, 0.0410180
5087.49, 0.0407400
5092.49, 0.0402080
5097.5, 0.0397260
5102.51, 0.0393360
5107.54, 0.0388960
5112.58, 0.0385930
5117.62, 0.0383010
5122.68, 0.0380280
5127.75, 0.0375390
5132.82, 0.0368100
5137.91, 0.0362010
5143.01, 0.0356730
5148.12, 0.0354650
5153.23, 0.0353350
5158.36, 0.0351230
5163.5, 0.0348230
5168.65, 0.0344150
5173.81, 0.0340200
5178.98, 0.0336800
5184.15, 0.0333130
5189.34, 0.0331170
5194.54, 0.0328580
5199.75, 0.0325350
5204.98, 0.0324460
5210.21, 0.0323930
5215.45, 0.0322400
5220.7, 0.0320720
5225.96, 0.0319920
5231.23, 0.0318160
5236.52, 0.0319400
5241.81, 0.0321690
5247.12, 0.0319960
5252.44, 0.0317520
5257.76, 0.0317940
5263.1, 0.0317440
5268.45, 0.0317130
5273.81, 0.0317550
5279.18, 0.0317500
5284.56, 0.0316850
5289.95, 0.0315390
5295.36, 0.0315010
5300.77, 0.0315330
5306.2, 0.0314310
5311.63, 0.0313180
5317.08, 0.0312130
5322.54, 0.0309950
5328.01, 0.0307110
5333.49, 0.0305180
5338.98, 0.0302710
5344.49, 0.0301430
5350.0, 0.0300970
5355.53, 0.0301280
5361.07, 0.0299460
5366.62, 0.0297430
5372.18, 0.0297250
5377.75, 0.0297090
5383.34, 0.0294510
5388.93, 0.0292440
5394.54, 0.0290370
5400.16, 0.0287940
5405.79, 0.0287690
5411.44, 0.0288830
5417.09, 0.0287780
5422.76, 0.0285000
5428.43, 0.0283250
5434.12, 0.0281710
5439.83, 0.0280950
5445.54, 0.0280680
5451.26, 0.0278270
5457.0, 0.0275770
5462.75, 0.0275350
5468.52, 0.0277230
5474.29, 0.0278320
5480.08, 0.0276670
5485.88, 0.0277190
5491.69, 0.0278620
5497.51, 0.0278400
5503.35, 0.0277500
5509.2, 0.0275770
5515.06, 0.0274510
5520.93, 0.0274270
5526.82, 0.0273540
5532.71, 0.0272530
5538.63, 0.0271800
5544.55, 0.0268500
5550.49, 0.0266120
5556.44, 0.0264780
5562.4, 0.0262030
5568.37, 0.0259810
5574.36, 0.0258870
5580.36, 0.0254870
5586.37, 0.0251630
5592.4, 0.0248920
5598.44, 0.0247400
5604.49, 0.0249790
5610.56, 0.0250540
5616.63, 0.0250030
5622.73, 0.0250090
5628.83, 0.0250280
5634.95, 0.0251400
5641.08, 0.0250980
5647.23, 0.0251220
5653.39, 0.0253630
5659.56, 0.0254930
5665.74, 0.0256970
5671.94, 0.0259040
5678.15, 0.0257410
5684.38, 0.0257420
5690.62, 0.0258440
5696.87, 0.0259310
5703.14, 0.0261460
5709.42, 0.0261790
5715.72, 0.0262880
5722.03, 0.0265920
5728.35, 0.0267080
5734.69, 0.0266260
5741.03, 0.0266140
5747.4, 0.0268780
5753.78, 0.0271910
5760.17, 0.0267830
5766.58, 0.0264200
5773.0, 0.0266580
5779.44, 0.0265330
5785.88, 0.0263230
5792.35, 0.0262060
5798.83, 0.0261710
5805.32, 0.0262980
5811.83, 0.0263470
5818.35, 0.0262210
5824.89, 0.0261960
5831.45, 0.0260060
5838.01, 0.0259800
5844.59, 0.0261070
5851.19, 0.0261000
5857.8, 0.0258800
5864.43, 0.0259430
5871.07, 0.0260320
5877.73, 0.0259450
5884.4, 0.0258720
5891.09, 0.0259630
5897.79, 0.0261910
5904.5, 0.0261240
5911.23, 0.0258390
5917.98, 0.0257550
5924.75, 0.0258440
5931.53, 0.0257420
5938.32, 0.0257170
5945.13, 0.0256970
5951.96, 0.0255110
5958.8, 0.0253390
5965.65, 0.0252080
5972.53, 0.0252300
5979.42, 0.0252830
5986.32, 0.0252130
5993.24, 0.0251590
6000.18, 0.0253090
6007.13, 0.0255140
6014.1, 0.0258770
6021.08, 0.0264390
6028.09, 0.0267380
6035.1, 0.0269610
6042.14, 0.0273460
6049.19, 0.0286040
6056.25, 0.0294550
6063.34, 0.0297500
6070.44, 0.0301140
6077.55, 0.0309970
6084.69, 0.0318300
6091.84, 0.0323210
6099.0, 0.0328930
6106.19, 0.0333350
6113.39, 0.0339040
6120.61, 0.0344710
6127.84, 0.0347570
6135.09, 0.0348330
6142.36, 0.0350460
6149.65, 0.0352390
6156.95, 0.0352000
6164.27, 0.0351600
6171.61, 0.0351140
6178.97, 0.0351640
6186.34, 0.0353810
6193.73, 0.0352070
6201.14, 0.0350740
6208.57, 0.0352080
6216.01, 0.0350950
6223.47, 0.0347370
6230.95, 0.0346810
6238.45, 0.0350040
6245.97, 0.0349710
6253.5, 0.0344430
6261.06, 0.0344670
6268.63, 0.0347660
6276.21, 0.0346400
6283.82, 0.0344240
6291.45, 0.0345580
6299.1, 0.0346520
6306.76, 0.0348120
6314.44, 0.0351390
6322.14, 0.0349660
6329.86, 0.0348830
6337.6, 0.0351410
6345.35, 0.0350890
6353.13, 0.0349910
6360.92, 0.0349620
6368.74, 0.0347860
6376.57, 0.0346750
6384.43, 0.0346270
6392.3, 0.0342770
6400.19, 0.0343400
6408.1, 0.0342410
6416.03, 0.0338020
6423.98, 0.0335950
6431.95, 0.0336430
6439.94, 0.0339200
6447.95, 0.0338050
6455.98, 0.0335340
6464.03, 0.0335140
6472.1, 0.0334190
6480.19, 0.0331970
6488.31, 0.0327760
6496.44, 0.0327430
6504.59, 0.0331000
6512.76, 0.0331520
6520.95, 0.0330110
6529.16, 0.0331580
6537.4, 0.0329500
6545.65, 0.0326540
6553.92, 0.0328690
6562.22, 0.0328740
6570.54, 0.0326380
6578.88, 0.0328100
6587.23, 0.0328620
6595.61, 0.0329660
6604.02, 0.0330850
6612.44, 0.0329940
6620.89, 0.0326830
6629.35, 0.0322910
6637.84, 0.0318700
6646.35, 0.0314840
6654.88, 0.0310010
6663.44, 0.0307340
6672.01, 0.0304030
6680.61, 0.0298690
6689.23, 0.0295150
6697.88, 0.0292940
6706.54, 0.0287440
6715.23, 0.0282560
6723.94, 0.0279910
6732.67, 0.0274960
6741.42, 0.0269540
6750.2, 0.0268740
6759.0, 0.0264600
6767.82, 0.0259230
6776.67, 0.0256680
6785.54, 0.0253830
6794.44, 0.0253290
6803.35, 0.0254380
6812.29, 0.0255260
6821.26, 0.0253400
6830.24, 0.0251800
6839.25, 0.0249550
6848.29, 0.0248640
6857.35, 0.0251990
6866.43, 0.0253390
6875.54, 0.0250500
6884.67, 0.0246270
6893.82, 0.0245170
6903.0, 0.0245420
6912.2, 0.0242360
6921.43, 0.0238200
6930.69, 0.0236830
6939.96, 0.0234960
6949.27, 0.0232620
6958.59, 0.0226290
6967.95, 0.0223730
6977.33, 0.0221950
6986.73, 0.0219750
6996.16, 0.0215850
7005.61, 0.0211650
7015.09, 0.0207880
7024.6, 0.0208210
7034.13, 0.0209230
7043.69, 0.0206020
7053.27, 0.0203640
7062.88, 0.0205840
7072.52, 0.0206100
7082.18, 0.0203380
7091.87, 0.0200210
7101.58, 0.0199410
7111.32, 0.0200450
7121.09, 0.0200570
7130.88, 0.0199590
7140.71, 0.0199630
7150.56, 0.0195330
7160.43, 0.0190140
7170.33, 0.0187540
7180.27, 0.0188200
7190.23, 0.0186840
7200.21, 0.0184270
7210.23, 0.0182640
7220.27, 0.0183470
7230.34, 0.0184340
7240.44, 0.0183540
7250.56, 0.0181250
7260.72, 0.0182110
7270.9, 0.0181970
7281.12, 0.0179590
7291.36, 0.0175910
7301.63, 0.0175070
7311.93, 0.0174610
7322.25, 0.0171220
7332.61, 0.0169640
7343.0, 0.0171070
7353.41, 0.0171290
7363.86, 0.0170860
7374.33, 0.0169190
7384.83, 0.0165920
7395.37, 0.0162950
7405.93, 0.0162730
7416.53, 0.0161860
7427.15, 0.0161250
7437.81, 0.0159350
7448.5, 0.0155790
7459.22, 0.0153960
7469.96, 0.0153930
7480.74, 0.0152870
7491.55, 0.0154460
7502.39, 0.0151280
7513.27, 0.0145960
7524.17, 0.0143470
7535.11, 0.0142500
7546.08, 0.0143470
7557.08, 0.0144880
7568.11, 0.0142070
7579.17, 0.0138320
7590.27, 0.0136820
7601.4, 0.0138780
7612.56, 0.0138790
7623.76, 0.0138240
7634.98, 0.0139480
7646.24, 0.0141210
7657.54, 0.0138480
7668.87, 0.0136070
7680.23, 0.0133920
7691.62, 0.0132870
7703.05, 0.0132040
7714.51, 0.0130300
7726.01, 0.0127180
7737.54, 0.0127680
7749.11, 0.0129210
7760.71, 0.0129700
7772.35, 0.0126930
7784.02, 0.0123940
7795.72, 0.0125280
7807.46, 0.0125650
7819.23, 0.0122920
7831.04, 0.0120410
7842.89, 0.0118830
7854.77, 0.0118240
7866.69, 0.0115830
7878.65, 0.0115820
7890.64, 0.0113580
7902.67, 0.0112950
7914.74, 0.0113090
7926.84, 0.0111540
7938.98, 0.0111040
7951.16, 0.0110990
7963.37, 0.0108550
7975.62, 0.0107120
7987.91, 0.0106660
8000.24, 0.0103230
8012.6, 0.0101720
8025.01, 0.0101970
8037.45, 0.00999800
8049.93, 0.00963500
8062.45, 0.00930300
8075.01, 0.00931400
8087.61, 0.00922100
8100.24, 0.00903900
8112.91, 0.00893100
8125.63, 0.00895300
8138.39, 0.00880900
8151.18, 0.00872600
8164.02, 0.00864400
8176.9, 0.00850700
8189.81, 0.00808600
8202.77, 0.00767300
8215.77, 0.00765600
8228.82, 0.00761900
8241.9, 0.00759400
8255.02, 0.00758100
8268.19, 0.00720800
8281.39, 0.00717000
8294.65, 0.00727500
8307.94, 0.00740100
8321.28, 0.00741300
8334.66, 0.00751000
8348.08, 0.00766700
8361.54, 0.00696600
8375.05, 0.00616500
8388.6, 0.00616000
8402.2, 0.00624000
8415.84, 0.00617100
8429.52, 0.00566100
8443.25, 0.00553300
8457.02, 0.00574700
8470.84, 0.00568900
8484.7, 0.00555000
8498.61, 0.00566800
8512.57, 0.00560100
8526.57, 0.00551600
8540.62, 0.00518400
8554.71, 0.00522500
8568.85, 0.00499700
8583.04, 0.00457200
8597.27, 0.00455100
8611.55, 0.00447400
8625.88, 0.00425400
8640.26, 0.00430500
8654.68, 0.00436300
8669.16, 0.00420700
8683.68, 0.00390900
8698.25, 0.00409700
8712.87, 0.00380300
8727.53, 0.00352700
8742.25, 0.00381300
8757.02, 0.00399600
8771.83, 0.00389600
8786.7, 0.00359400
8801.62, 0.00301200
8816.59, 0.00291700
8831.61, 0.00306800
8846.68, 0.00295500
8861.8, 0.00289200
8876.97, 0.00302000
8892.2, 0.00314900
8907.48, 0.00368100
8922.81, 0.00365200
8938.2, 0.00356200
8953.63, 0.00364600
8969.13, 0.00395900
8984.67, 0.00430200
9000.27, 0.00418700
9015.92, 0.00442000
9031.63, 0.00519600
9047.39, 0.00561400
9063.21, 0.00615100
9079.08, 0.00721300
9095.01, 0.00821200
9111.0, 0.00908500
9127.04, 0.0104210
9143.13, 0.0122300
9159.28, 0.0145100
9175.49, 0.0172810
9191.76, 0.0202510
9208.09, 0.0236640
9224.47, 0.0283740
9240.92, 0.0342930
9257.42, 0.0417590
9273.98, 0.0515240
9290.6, 0.0648970
9307.28, 0.0816360
9324.02, 0.100582
9340.82, 0.117527
9357.68, 0.129834
9374.6, 0.138771
9391.58, 0.144625
9408.62, 0.148334
9425.73, 0.150704
9442.9, 0.152581
9460.13, 0.154230
9477.42, 0.155504
9494.78, 0.156147
9512.2, 0.156628
9529.69, 0.156014
9547.24, 0.155075
9564.86, 0.154452
9582.54, 0.153732
9600.28, 0.152580
9618.1, 0.151802
9635.97, 0.151000
9653.92, 0.150115
9671.93, 0.149495
9690.01, 0.148828
9708.16, 0.147703
9726.37, 0.146698
9744.65, 0.145535
9763.0, 0.144534
9781.43, 0.143262
9799.92, 0.142377
9818.48, 0.141440
9837.1, 0.140374
9855.8, 0.139700
9874.58, 0.138883
9893.42, 0.137641
9912.34, 0.136756
9931.33, 0.136180
9950.39, 0.135488
9969.52, 0.135413
9988.74, 0.136257
10008.0, 0.138166
10027.4, 0.141138
10046.8, 0.145858
10066.3, 0.154255
10085.9, 0.166642
10105.6, 0.183730
10125.3, 0.203351
10145.1, 0.219906
10165.0, 0.227525
10185.0, 0.226973
10205.0, 0.222068
10225.2, 0.215703
10245.4, 0.209518
10265.7, 0.204621
10286.0, 0.200978
10306.5, 0.197651
10327.0, 0.194340
10347.6, 0.192216
10368.3, 0.190724
10389.1, 0.189569
10409.9, 0.194520
10430.9, 0.216625
10451.9, 0.253092
10473.0, 0.287794
10494.2, 0.310316
10515.5, 0.321881
10536.9, 0.327062
10558.4, 0.328657
10579.9, 0.326810
10601.5, 0.323543
10623.3, 0.318967
10645.1, 0.314081
10667.0, 0.308854
10689.0, 0.304347
10711.1, 0.300353
10733.2, 0.296090
10755.5, 0.291310
10777.9, 0.287362
10800.3, 0.283009
10822.9, 0.278267
10845.5, 0.273399
10868.2, 0.268988
10891.1, 0.264761
10914.0, 0.261096
10937.0, 0.257327
10960.2, 0.253537
10983.4, 0.250090
11006.7, 0.247021
11030.1, 0.243067
11053.6, 0.238955
11077.3, 0.235473
11101.0, 0.232284
11124.8, 0.229462
11148.7, 0.227176
11172.7, 0.224115
11196.9, 0.221030
11221.1, 0.217523
11245.4, 0.213851
11269.9, 0.210232
11294.4, 0.206677
11319.1, 0.202744
11343.9, 0.198792
11368.8, 0.194290
11393.7, 0.188542
11418.8, 0.181010
11444.0, 0.171750
11469.4, 0.159736
11494.8, 0.146173
11520.3, 0.133234
11546.0, 0.121674
11571.8, 0.111797
11597.7, 0.103983
11623.7, 0.0980260
11649.8, 0.0927740
11676.0, 0.0879860
11702.4, 0.0837880
11728.9, 0.0794820
11755.5, 0.0751390
11782.2, 0.0712880
11809.0, 0.0687650
11836.0, 0.0684810
11863.0, 0.0715380
11890.3, 0.0765450
11917.6, 0.0799190
11945.0, 0.0803080
11972.6, 0.0782940
12000.4, 0.0753370
12028.2, 0.0725970
12056.2, 0.0697370
12084.3, 0.0671790
12112.5, 0.0649270
12140.9, 0.0628070
12169.4, 0.0611130
12198.0, 0.0593730
12226.8, 0.0577570
12255.7, 0.0559870
12284.7, 0.0540800
12313.9, 0.0526420
12343.2, 0.0514290
12372.7, 0.0504650
12402.3, 0.0493570
12432.0, 0.0476610
12461.9, 0.0463710
12491.9, 0.0452640
12522.1, 0.0452640
12552.4, 0.0443770
12582.9, 0.0435710
12613.5, 0.0426040
12644.3, 0.0417170
12675.2, 0.0411530
12706.3, 0.0404680
12737.5, 0.0395810
12768.9, 0.0388150
12800.4, 0.0382510
12832.1, 0.0375650
12863.9, 0.0369210
12895.9, 0.0363560
12928.1, 0.0356710
12960.4, 0.0351070
12992.9, 0.0345420
13025.5, 0.0338570
13058.3, 0.0332930
13091.3, 0.0326480
13124.4, 0.0318020
13157.8, 0.0311160
13191.2, 0.0305920
13224.9, 0.0300680
13258.7, 0.0294640
13292.7, 0.0287790
13326.9, 0.0281740
13361.2, 0.0277310
13395.7, 0.0274890
13430.4, 0.0270050
13465.3, 0.0265220
13500.4, 0.0261990
13535.7, 0.0258360
13571.1, 0.0253530
13606.7, 0.0249090
13642.5, 0.0245470
13678.5, 0.0239820
13714.7, 0.0234580
13751.1, 0.0228130
13787.6, 0.0224100
13824.4, 0.0220070
13861.4, 0.0215640
13898.5, 0.0210800
13935.9, 0.0204760
13973.5, 0.0200320
14011.2, 0.0196290
14049.2, 0.0193470
14087.4, 0.0189440
14125.8, 0.0182990
14164.3, 0.0176540
14203.2, 0.0172910
14242.2, 0.0170500
14281.4, 0.0167670
14320.9, 0.0162840
14360.5, 0.0157190
14400.4, 0.0151950
14440.5, 0.0146710
14480.9, 0.0143090
14521.4, 0.0139860
14562.2, 0.0136240
14603.3, 0.0133410
14644.5, 0.0130190
14686.0, 0.0126960
14727.7, 0.0124140
14769.7, 0.0119710
14811.9, 0.0116490
14854.3, 0.0116080
14897.0, 0.0114870
14939.9, 0.0114470
14983.1, 0.0115680
15026.5, 0.0117690
15070.2, 0.0122930
15114.2, 0.0131400
15158.3, 0.0144300
15202.8, 0.0161630
15247.5, 0.0185810
15292.5, 0.0219270
15337.7, 0.0261180
15383.2, 0.0312780
15429.0, 0.0376860
15475.1, 0.0450220
15521.4, 0.0529220
15568.0, 0.0605800
15614.9, 0.0677150
15662.1, 0.0741230
15709.6, 0.0794440
15757.3, 0.0836360
15805.4, 0.0867790
15853.7, 0.0889560
15902.3, 0.0901650
15951.2, 0.0906090
16000.5, 0.0899230
16050.0, 0.0886340
16099.8, 0.0869000
16150.0, 0.0846430
16200.5, 0.0820230
16251.3, 0.0791210
16302.4, 0.0760580
16353.8, 0.0726320
16405.5, 0.0691250
16457.6, 0.0654570
16510.0, 0.0617900
16562.8, 0.0584040
16615.9, 0.0550990
16669.3, 0.0514710
16723.1, 0.0474810
16777.2, 0.0438530
16831.7, 0.0401450
16886.5, 0.0371620
16941.7, 0.0351870
16997.2, 0.0338980
17053.1, 0.0338170
17109.4, 0.0349860
17166.1, 0.0370010
17223.1, 0.0402660
17280.5, 0.0447800
17338.3, 0.0501410
17396.5, 0.0563080
17455.1, 0.0632410
17514.0, 0.0708990
17573.4, 0.0795650
17633.2, 0.0879890
17693.4, 0.0957680
17754.0, 0.102257
17815.0, 0.107376
17876.4, 0.111527
17938.3, 0.114994
18000.5, 0.118783
18063.3, 0.124103
18126.4, 0.130189
18190.0, 0.136396
18254.1, 0.140951
18318.6, 0.141999
18383.5, 0.140911
18449.0, 0.140508
18514.9, 0.142160
18581.2, 0.147400
18648.0, 0.156751
18715.4, 0.169891
18783.2, 0.183515
18851.5, 0.194317
18920.3, 0.200524
18989.6, 0.200443
19059.4, 0.194518
19129.7, 0.187344
19200.6, 0.179927
19272.0, 0.172672
19343.9, 0.166102
19416.3, 0.159976
19489.3, 0.153930
19562.8, 0.149375
19637.0, 0.148287
19711.6, 0.150141
19786.8, 0.152035
19862.6, 0.151350
19939.0, 0.144619
20016.0, 0.132648
20093.6, 0.118621
20171.8, 0.105038
20250.6, 0.0923010
20330.0, 0.0805720
20410.0, 0.0701330
20490.7, 0.0613860
20572.0, 0.0538900
20654.0, 0.0503430
20736.6, 0.0506650
20819.9, 0.0538090
20903.8, 0.0601770
20988.5, 0.0682390
21073.8, 0.0757360
21159.8, 0.0824670
21246.5, 0.0875450
21334.0, 0.0897620
21422.1, 0.0884720
21511.0, 0.0852480
21600.7, 0.0819830
21691.0, 0.0817410
21782.1, 0.0861350
21874.0, 0.0966950
21966.7, 0.109996
22060.2, 0.123982
22154.5, 0.138976
22249.6, 0.155058
22345.5, 0.169085
22442.2, 0.178678
22539.8, 0.181862
22638.2, 0.180895
22737.5, 0.182749
22837.7, 0.189399
22938.7, 0.200443
23040.7, 0.217009
23143.5, 0.234663
23247.3, 0.249415
23352.1, 0.259331
23457.7, 0.268561
23564.4, 0.274889
23672.0, 0.278557
23780.5, 0.282950
23890.1, 0.286175
24000.7, 0.280411
24112.3, 0.273962
24225.0, 0.263523
24338.7, 0.247561
24453.5, 0.229625
24569.4, 0.215356
24686.4, 0.206731
24804.5, 0.202096
