Database of Origin, USGS Spectral Database
Sample Description, See USGS database for additional info
Date Added,2016-08-03 21:02:39.777476

Data ID,USGS_ant08          
Sample ID, antigorite_nmnh96917.2892
Mineral Name, antigorite
Material Class,Phyllosilicate

Wavelength
1369.66, 0.387041
1370.02, 0.387353
1370.38, 0.387291
1370.74, 0.387104
1371.11, 0.386917
1371.47, 0.386729
1371.83, 0.386854
1372.19, 0.386667
1372.56, 0.386355
1372.92, 0.386355
1373.29, 0.386355
1373.65, 0.386605
1374.01, 0.386792
1374.38, 0.386293
1374.74, 0.386044
1375.11, 0.386231
1375.47, 0.385981
1375.84, 0.385919
1376.2, 0.385919
1376.57, 0.385981
1376.93, 0.386106
1377.3, 0.385483
1377.67, 0.385046
1378.03, 0.385046
1378.4, 0.384049
1378.76, 0.383675
1379.13, 0.383612
1379.5, 0.382989
1379.87, 0.381867
1380.23, 0.380370
1380.6, 0.377502
1380.97, 0.373138
1381.34, 0.367527
1381.7, 0.361480
1382.07, 0.354809
1382.44, 0.348013
1382.81, 0.343649
1383.18, 0.341903
1383.55, 0.341965
1383.92, 0.342901
1384.29, 0.343212
1384.66, 0.343337
1385.03, 0.343711
1385.4, 0.344771
1385.77, 0.344896
1386.14, 0.343836
1386.51, 0.342776
1386.88, 0.342028
1387.25, 0.340905
1387.62, 0.340531
1387.99, 0.340718
1388.36, 0.341716
1388.74, 0.342402
1389.11, 0.343025
1389.48, 0.343212
1389.85, 0.342402
1390.23, 0.340905
1390.6, 0.337539
1390.97, 0.330993
1391.35, 0.319708
1391.72, 0.302750
1392.09, 0.287101
1392.47, 0.284919
1392.84, 0.296702
1393.21, 0.310294
1393.59, 0.318648
1393.96, 0.322389
1394.34, 0.324633
1394.71, 0.327189
1395.09, 0.329621
1395.46, 0.330244
1395.84, 0.330556
1396.22, 0.330182
1396.59, 0.329559
1396.97, 0.327439
1397.35, 0.323137
1397.72, 0.319022
1398.1, 0.319334
1398.48, 0.321516
1398.85, 0.323573
1399.23, 0.326940
1399.61, 0.330057
1399.99, 0.331678
1400.37, 0.332738
1400.74, 0.333860
1401.12, 0.334858
1401.5, 0.335170
1401.88, 0.335731
1402.26, 0.335793
1402.64, 0.335606
1403.02, 0.335668
1403.4, 0.336292
1403.78, 0.337165
1404.16, 0.337726
1404.54, 0.337601
1404.92, 0.338038
1405.3, 0.339160
1405.68, 0.340282
1406.06, 0.341217
1406.44, 0.342090
1406.83, 0.343275
1407.21, 0.344584
1407.59, 0.345768
1407.97, 0.346517
1408.35, 0.347576
1408.74, 0.348823
1409.12, 0.349572
1409.5, 0.350382
1409.89, 0.351629
1410.27, 0.353125
1410.65, 0.354060
1411.04, 0.354684
1411.42, 0.355744
1411.81, 0.356679
1412.19, 0.357240
1412.58, 0.358238
1412.96, 0.358549
1413.35, 0.359360
1413.73, 0.360544
1414.12, 0.361043
1414.5, 0.361355
1414.89, 0.361667
1415.28, 0.361854
1415.66, 0.362290
1416.05, 0.362477
1416.44, 0.363412
1416.82, 0.364347
1417.21, 0.364410
1417.6, 0.364597
1417.98, 0.365033
1418.37, 0.365532
1418.76, 0.366031
1419.15, 0.366717
1419.54, 0.367278
1419.93, 0.366966
1420.32, 0.367028
1420.71, 0.367652
1421.09, 0.368088
1421.48, 0.368213
1421.88, 0.368649
1422.27, 0.368712
1422.66, 0.368961
1423.05, 0.369273
1423.44, 0.369522
1423.83, 0.369647
1424.22, 0.369959
1424.61, 0.370208
1425.0, 0.370208
1425.39, 0.370146
1425.78, 0.370083
1426.18, 0.370208
1426.57, 0.370333
1426.96, 0.370208
1427.36, 0.370457
1427.75, 0.370769
1428.14, 0.371018
1428.54, 0.370644
1428.93, 0.370644
1429.32, 0.370769
1429.72, 0.370644
1430.11, 0.370769
1430.51, 0.370769
1430.9, 0.371081
1431.3, 0.371580
1431.69, 0.371954
1432.09, 0.371829
1432.48, 0.371829
1432.88, 0.371891
1433.28, 0.371954
1433.67, 0.371954
1434.07, 0.371954
1434.46, 0.372078
1434.86, 0.372390
1435.26, 0.372702
1435.66, 0.372889
1436.05, 0.372889
1436.45, 0.372639
1436.85, 0.372889
1437.25, 0.373200
1437.65, 0.373013
1438.05, 0.372951
1438.44, 0.373325
1438.84, 0.373325
1439.24, 0.373886
1439.64, 0.374260
1440.04, 0.374136
1440.44, 0.373949
1440.84, 0.373762
1441.24, 0.374011
1441.65, 0.374260
1442.05, 0.374073
1442.45, 0.374136
1442.85, 0.374510
1443.25, 0.374572
1443.65, 0.374447
1444.05, 0.374634
1444.46, 0.374759
1444.86, 0.375008
1445.26, 0.374884
1445.67, 0.375008
1446.07, 0.375196
1446.47, 0.375196
1446.88, 0.375383
1447.28, 0.375632
1447.68, 0.375383
1448.09, 0.375320
1448.49, 0.375632
1448.9, 0.376193
1449.3, 0.375944
1449.71, 0.375570
1450.11, 0.375258
1450.52, 0.375445
1450.93, 0.375694
1451.33, 0.376006
1451.74, 0.376068
1452.14, 0.376442
1452.55, 0.376692
1452.96, 0.376630
1453.36, 0.376255
1453.77, 0.376318
1454.18, 0.376817
1454.59, 0.377128
1455.0, 0.376879
1455.41, 0.377128
1455.81, 0.377378
1456.22, 0.377627
1456.63, 0.377814
1457.04, 0.377939
1457.45, 0.377565
1457.86, 0.377565
1458.27, 0.377378
1458.68, 0.377440
1459.09, 0.377876
1459.5, 0.378126
1459.91, 0.378375
1460.32, 0.378438
1460.74, 0.378250
1461.15, 0.378438
1461.56, 0.378687
1461.97, 0.378562
1462.39, 0.378874
1462.8, 0.379123
1463.21, 0.378812
1463.62, 0.378625
1464.04, 0.378936
1464.45, 0.379061
1464.86, 0.378999
1465.28, 0.379061
1465.69, 0.379310
1466.11, 0.379560
1466.52, 0.379684
1466.94, 0.379684
1467.35, 0.379684
1467.77, 0.379622
1468.18, 0.379871
1468.6, 0.379809
1469.02, 0.379934
1469.43, 0.380183
1469.85, 0.380121
1470.27, 0.380246
1470.68, 0.380433
1471.1, 0.380807
1471.52, 0.380807
1471.94, 0.380495
1472.35, 0.380682
1472.77, 0.381056
1473.19, 0.381056
1473.61, 0.381243
1474.03, 0.381492
1474.45, 0.381617
1474.87, 0.381617
1475.29, 0.381430
1475.71, 0.381492
1476.13, 0.381804
1476.55, 0.382116
1476.97, 0.382428
1477.39, 0.382490
1477.81, 0.382428
1478.23, 0.382490
1478.65, 0.382739
1479.07, 0.382802
1479.5, 0.382677
1479.92, 0.382490
1480.34, 0.382615
1480.76, 0.382989
1481.19, 0.383425
1481.61, 0.383924
1482.03, 0.383862
1482.46, 0.383550
1482.88, 0.383612
1483.31, 0.383924
1483.73, 0.384423
1484.16, 0.384859
1484.58, 0.384984
1485.01, 0.385046
1485.43, 0.385046
1485.86, 0.384859
1486.28, 0.385296
1486.71, 0.385420
1487.14, 0.385296
1487.56, 0.385358
1487.99, 0.385233
1488.42, 0.385483
1488.84, 0.386044
1489.27, 0.386355
1489.7, 0.386418
1490.13, 0.386605
1490.56, 0.386917
1490.98, 0.387166
1491.41, 0.386542
1491.84, 0.386480
1492.27, 0.387041
1492.7, 0.387415
1493.13, 0.387540
1493.56, 0.387540
1493.99, 0.387540
1494.42, 0.387353
1494.85, 0.387727
1495.29, 0.388163
1495.72, 0.388101
1496.15, 0.388350
1496.58, 0.388537
1497.01, 0.388288
1497.44, 0.388537
1497.88, 0.388912
1498.31, 0.389161
1498.74, 0.389286
1499.18, 0.389348
1499.61, 0.389348
1500.04, 0.389535
1500.48, 0.389535
1500.91, 0.389286
1501.35, 0.389660
1501.78, 0.390221
1502.22, 0.390221
1502.65, 0.390595
1503.09, 0.390844
1503.53, 0.390969
1503.96, 0.390782
1504.4, 0.390595
1504.83, 0.390782
1505.27, 0.390782
1505.71, 0.391094
1506.15, 0.391281
1506.58, 0.391530
1507.02, 0.391779
1507.46, 0.391966
1507.9, 0.392091
1508.34, 0.392216
1508.78, 0.392341
1509.21, 0.392465
1509.66, 0.392715
1510.09, 0.392902
1510.53, 0.392652
1510.97, 0.392964
1511.42, 0.393338
1511.86, 0.393338
1512.3, 0.393525
1512.74, 0.393712
1513.18, 0.393650
1513.62, 0.393899
1514.06, 0.394086
1514.51, 0.394398
1514.95, 0.394647
1515.39, 0.394897
1515.83, 0.395021
1516.28, 0.395208
1516.72, 0.395458
1517.16, 0.395520
1517.61, 0.395271
1518.05, 0.395084
1518.5, 0.395333
1518.94, 0.395832
1519.39, 0.395832
1519.83, 0.396144
1520.28, 0.396206
1520.73, 0.396019
1521.17, 0.396081
1521.62, 0.396331
1522.07, 0.396518
1522.51, 0.396642
1522.96, 0.397016
1523.41, 0.397016
1523.85, 0.397141
1524.3, 0.397391
1524.75, 0.397391
1525.2, 0.397515
1525.65, 0.397952
1526.1, 0.398263
1526.55, 0.398388
1527.0, 0.398388
1527.45, 0.398513
1527.9, 0.398388
1528.35, 0.398575
1528.8, 0.398700
1529.25, 0.399012
1529.7, 0.399261
1530.15, 0.399323
1530.6, 0.399261
1531.05, 0.399573
1531.51, 0.400071
1531.96, 0.400258
1532.41, 0.400508
1532.87, 0.400445
1533.32, 0.400445
1533.77, 0.400695
1534.23, 0.400882
1534.68, 0.401069
1535.14, 0.401381
1535.59, 0.401568
1536.05, 0.401879
1536.5, 0.402191
1536.96, 0.402254
1537.41, 0.402191
1537.87, 0.402503
1538.32, 0.402628
1538.78, 0.402441
1539.24, 0.402815
1539.7, 0.403126
1540.15, 0.403189
1540.61, 0.403064
1541.07, 0.403313
1541.53, 0.403625
1541.98, 0.403625
1542.44, 0.403937
1542.9, 0.404373
1543.36, 0.404685
1543.82, 0.404872
1544.28, 0.404934
1544.74, 0.404872
1545.2, 0.405246
1545.66, 0.405745
1546.12, 0.406181
1546.59, 0.406119
1547.05, 0.406057
1547.51, 0.406493
1547.97, 0.406867
1548.43, 0.406992
1548.9, 0.407303
1549.36, 0.407241
1549.82, 0.406929
1550.29, 0.407179
1550.75, 0.407366
1551.21, 0.407802
1551.68, 0.407989
1552.14, 0.408176
1552.61, 0.408550
1553.07, 0.408800
1553.54, 0.408987
1554.0, 0.409236
1554.47, 0.409673
1554.93, 0.409797
1555.4, 0.409673
1555.87, 0.409797
1556.34, 0.410109
1556.8, 0.410358
1557.27, 0.410608
1557.74, 0.410733
1558.21, 0.410483
1558.68, 0.410670
1559.14, 0.410982
1559.61, 0.411356
1560.08, 0.411294
1560.55, 0.411481
1561.02, 0.411979
1561.49, 0.412229
1561.96, 0.411979
1562.43, 0.412167
1562.9, 0.412541
1563.38, 0.412603
1563.85, 0.412728
1564.32, 0.412852
1564.79, 0.412852
1565.26, 0.413102
1565.74, 0.413476
1566.21, 0.413600
1566.68, 0.413850
1567.16, 0.414224
1567.63, 0.414536
1568.1, 0.414847
1568.58, 0.414847
1569.05, 0.414660
1569.53, 0.415221
1570.0, 0.415658
1570.48, 0.415658
1570.96, 0.415658
1571.43, 0.415845
1571.91, 0.415720
1572.39, 0.415907
1572.86, 0.416094
1573.34, 0.416157
1573.82, 0.416531
1574.3, 0.417029
1574.77, 0.417029
1575.25, 0.417092
1575.73, 0.417403
1576.21, 0.417466
1576.69, 0.417715
1577.17, 0.417965
1577.65, 0.418027
1578.13, 0.418027
1578.61, 0.418339
1579.09, 0.418339
1579.57, 0.418339
1580.05, 0.418588
1580.54, 0.418775
1581.02, 0.419087
1581.5, 0.419212
1581.98, 0.419336
1582.47, 0.419586
1582.95, 0.419523
1583.43, 0.419523
1583.92, 0.419773
1584.4, 0.419960
1584.88, 0.420209
1585.37, 0.420209
1585.85, 0.420334
1586.34, 0.420708
1586.82, 0.420957
1587.31, 0.420957
1587.8, 0.420832
1588.28, 0.421144
1588.77, 0.421394
1589.26, 0.421394
1589.74, 0.421643
1590.23, 0.421830
1590.72, 0.422329
1591.21, 0.422453
1591.7, 0.422578
1592.19, 0.422516
1592.67, 0.422516
1593.16, 0.422765
1593.65, 0.423202
1594.14, 0.423513
1594.63, 0.423825
1595.12, 0.424012
1595.61, 0.424199
1596.11, 0.424386
1596.6, 0.424199
1597.09, 0.424199
1597.58, 0.424573
1598.08, 0.424823
1598.57, 0.424947
1599.06, 0.425072
1599.55, 0.425321
1600.05, 0.425633
1600.54, 0.425945
1601.04, 0.426007
1601.53, 0.426007
1602.03, 0.426069
1602.52, 0.426568
1603.02, 0.426631
1603.51, 0.426942
1604.01, 0.427254
1604.5, 0.427192
1605.0, 0.427628
1605.5, 0.428002
1606.0, 0.428439
1606.49, 0.428376
1606.99, 0.428189
1607.49, 0.428252
1607.99, 0.428501
1608.49, 0.428750
1608.99, 0.428750
1609.49, 0.429187
1609.99, 0.429499
1610.49, 0.429436
1610.99, 0.429499
1611.49, 0.429686
1611.99, 0.429686
1612.49, 0.429873
1612.99, 0.430247
1613.49, 0.430434
1614.0, 0.430558
1614.5, 0.430932
1615.0, 0.431182
1615.51, 0.431244
1616.01, 0.431182
1616.51, 0.431307
1617.02, 0.431618
1617.52, 0.432055
1618.03, 0.432117
1618.53, 0.432117
1619.04, 0.432366
1619.54, 0.432740
1620.05, 0.433115
1620.55, 0.432990
1621.06, 0.433239
1621.57, 0.433613
1622.08, 0.433800
1622.58, 0.433738
1623.09, 0.433800
1623.6, 0.434174
1624.11, 0.434548
1624.62, 0.434424
1625.13, 0.434611
1625.64, 0.434798
1626.15, 0.434860
1626.66, 0.435047
1627.17, 0.435234
1627.68, 0.435421
1628.19, 0.435546
1628.7, 0.435608
1629.21, 0.435795
1629.72, 0.435982
1630.24, 0.436045
1630.75, 0.436170
1631.26, 0.436294
1631.78, 0.436481
1632.29, 0.436668
1632.8, 0.436918
1633.32, 0.437105
1633.83, 0.437292
1634.35, 0.437167
1634.86, 0.437603
1635.38, 0.438102
1635.9, 0.437978
1636.41, 0.437915
1636.93, 0.437978
1637.45, 0.438102
1637.96, 0.438102
1638.48, 0.438539
1639.0, 0.438539
1639.52, 0.438476
1640.04, 0.439100
1640.56, 0.439474
1641.08, 0.439411
1641.59, 0.439474
1642.11, 0.439661
1642.63, 0.439599
1643.16, 0.439786
1643.68, 0.440097
1644.2, 0.440596
1644.72, 0.440534
1645.24, 0.440534
1645.76, 0.440471
1646.29, 0.440658
1646.81, 0.440845
1647.33, 0.440845
1647.86, 0.440908
1648.38, 0.440845
1648.9, 0.441219
1649.43, 0.441469
1649.95, 0.441344
1650.48, 0.441282
1651.0, 0.441469
1651.53, 0.441594
1652.06, 0.442092
1652.58, 0.442342
1653.11, 0.442217
1653.64, 0.442342
1654.17, 0.442529
1654.69, 0.442653
1655.22, 0.442903
1655.75, 0.443277
1656.28, 0.443464
1656.81, 0.443464
1657.34, 0.443464
1657.87, 0.443526
1658.4, 0.443464
1658.93, 0.443526
1659.46, 0.443963
1659.99, 0.444212
1660.52, 0.444150
1661.05, 0.444399
1661.59, 0.444960
1662.12, 0.445023
1662.65, 0.444960
1663.19, 0.444960
1663.72, 0.445085
1664.26, 0.445147
1664.79, 0.445147
1665.32, 0.445334
1665.86, 0.445646
1666.39, 0.446020
1666.93, 0.446020
1667.47, 0.446145
1668.0, 0.446332
1668.54, 0.446394
1669.08, 0.446644
1669.61, 0.446893
1670.15, 0.447205
1670.69, 0.447329
1671.23, 0.447267
1671.77, 0.447267
1672.31, 0.447329
1672.85, 0.447828
1673.39, 0.448202
1673.93, 0.447828
1674.47, 0.447766
1675.01, 0.448202
1675.55, 0.448639
1676.09, 0.448701
1676.64, 0.448639
1677.18, 0.448763
1677.72, 0.448950
1678.26, 0.449200
1678.81, 0.449324
1679.35, 0.449449
1679.89, 0.449636
1680.44, 0.449698
1680.98, 0.449886
1681.53, 0.450135
1682.07, 0.450447
1682.62, 0.450696
1683.17, 0.450821
1683.71, 0.450821
1684.26, 0.451132
1684.81, 0.451382
1685.36, 0.451569
1685.9, 0.451631
1686.45, 0.451756
1687.0, 0.451756
1687.55, 0.451818
1688.1, 0.452005
1688.65, 0.452379
1689.2, 0.452691
1689.75, 0.452691
1690.3, 0.452691
1690.85, 0.452691
1691.41, 0.452816
1691.96, 0.453065
1692.51, 0.453127
1693.06, 0.453315
1693.61, 0.453564
1694.17, 0.453689
1694.72, 0.453751
1695.28, 0.453813
1695.83, 0.454125
1696.39, 0.454250
1696.94, 0.454374
1697.5, 0.454499
1698.05, 0.454499
1698.61, 0.454561
1699.17, 0.454748
1699.72, 0.454935
1700.28, 0.455060
1700.84, 0.455060
1701.4, 0.455247
1701.95, 0.455434
1702.51, 0.455684
1703.07, 0.455808
1703.63, 0.455808
1704.19, 0.455746
1704.75, 0.455684
1705.31, 0.455746
1705.88, 0.455871
1706.44, 0.456245
1707.0, 0.456369
1707.56, 0.456681
1708.12, 0.456806
1708.69, 0.456556
1709.25, 0.456494
1709.81, 0.456806
1710.38, 0.457118
1710.94, 0.456993
1711.51, 0.456931
1712.07, 0.457180
1712.64, 0.457429
1713.2, 0.457367
1713.77, 0.457554
1714.34, 0.457741
1714.9, 0.457803
1715.47, 0.457866
1716.04, 0.458053
1716.61, 0.458115
1717.18, 0.458178
1717.74, 0.458427
1718.31, 0.458427
1718.88, 0.458489
1719.45, 0.458676
1720.02, 0.458427
1720.59, 0.458240
1721.17, 0.458552
1721.74, 0.458988
1722.31, 0.458926
1722.88, 0.458739
1723.45, 0.458988
1724.03, 0.459362
1724.6, 0.459424
1725.18, 0.459237
1725.75, 0.459175
1726.33, 0.459487
1726.9, 0.459674
1727.48, 0.459923
1728.05, 0.459861
1728.63, 0.459674
1729.2, 0.459736
1729.78, 0.459986
1730.36, 0.460173
1730.94, 0.460173
1731.51, 0.460360
1732.09, 0.460484
1732.67, 0.460609
1733.25, 0.460609
1733.83, 0.460422
1734.41, 0.460547
1734.99, 0.460734
1735.57, 0.461045
1736.15, 0.461045
1736.73, 0.461108
1737.32, 0.461108
1737.9, 0.460983
1738.48, 0.461108
1739.07, 0.461419
1739.65, 0.461731
1740.23, 0.461918
1740.82, 0.461918
1741.4, 0.462043
1741.99, 0.462292
1742.57, 0.462417
1743.16, 0.462542
1743.74, 0.462666
1744.33, 0.462604
1744.92, 0.462729
1745.51, 0.463040
1746.09, 0.463103
1746.68, 0.463165
1747.27, 0.463290
1747.86, 0.463539
1748.45, 0.463726
1749.04, 0.463789
1749.63, 0.463664
1750.22, 0.463539
1750.81, 0.463726
1751.4, 0.463913
1751.99, 0.463851
1752.59, 0.464038
1753.18, 0.464163
1753.77, 0.464287
1754.37, 0.464599
1754.96, 0.464848
1755.56, 0.464724
1756.15, 0.464786
1756.74, 0.464973
1757.34, 0.465035
1757.94, 0.464848
1758.53, 0.465098
1759.13, 0.465597
1759.73, 0.465784
1760.32, 0.465908
1760.92, 0.465908
1761.52, 0.465908
1762.12, 0.465971
1762.72, 0.466220
1763.32, 0.466220
1763.92, 0.466282
1764.52, 0.466594
1765.12, 0.466781
1765.72, 0.466719
1766.32, 0.466843
1766.92, 0.467031
1767.53, 0.467093
1768.13, 0.467093
1768.73, 0.467405
1769.34, 0.467467
1769.94, 0.467405
1770.55, 0.467342
1771.15, 0.467529
1771.76, 0.467903
1772.36, 0.468090
1772.97, 0.468028
1773.57, 0.468090
1774.18, 0.468153
1774.79, 0.468277
1775.4, 0.468589
1776.0, 0.468776
1776.61, 0.468839
1777.22, 0.468839
1777.83, 0.468839
1778.44, 0.468901
1779.05, 0.468963
1779.66, 0.469088
1780.27, 0.469213
1780.88, 0.469088
1781.5, 0.468901
1782.11, 0.468839
1782.72, 0.469088
1783.33, 0.469400
1783.95, 0.469524
1784.56, 0.469462
1785.18, 0.469524
1785.79, 0.469524
1786.41, 0.469275
1787.02, 0.469462
1787.64, 0.469587
1788.26, 0.469711
1788.87, 0.469836
1789.49, 0.469774
1790.11, 0.469774
1790.73, 0.469836
1791.35, 0.470023
1791.96, 0.470273
1792.58, 0.470273
1793.21, 0.470397
1793.83, 0.470397
1794.45, 0.470273
1795.07, 0.469961
1795.69, 0.470085
1796.31, 0.470460
1796.93, 0.470522
1797.56, 0.470460
1798.18, 0.470771
1798.8, 0.470834
1799.43, 0.470647
1800.05, 0.470522
1800.68, 0.470647
1801.3, 0.470460
1801.93, 0.470647
1802.56, 0.470709
1803.18, 0.470958
1803.81, 0.471145
1804.44, 0.471145
1805.07, 0.471145
1805.7, 0.471083
1806.33, 0.470958
1806.95, 0.470834
1807.58, 0.470896
1808.22, 0.471145
1808.85, 0.471145
1809.48, 0.471208
1810.11, 0.471395
1810.74, 0.471270
1811.38, 0.471208
1812.01, 0.471270
1812.64, 0.471395
1813.28, 0.471519
1813.91, 0.471644
1814.55, 0.471519
1815.18, 0.471519
1815.82, 0.471769
1816.45, 0.471769
1817.09, 0.471706
1817.73, 0.471956
1818.36, 0.472517
1819.0, 0.472517
1819.64, 0.472579
1820.28, 0.472829
1820.92, 0.473016
1821.56, 0.472829
1822.2, 0.472704
1822.84, 0.472642
1823.48, 0.472829
1824.12, 0.472829
1824.76, 0.472891
1825.41, 0.473016
1826.05, 0.473140
1826.69, 0.473203
1827.34, 0.473203
1827.98, 0.473390
1828.63, 0.473577
1829.27, 0.473577
1829.92, 0.473452
1830.56, 0.473639
1831.21, 0.473826
1831.86, 0.473702
1832.5, 0.473577
1833.15, 0.473702
1833.8, 0.473889
1834.45, 0.474263
1835.1, 0.474263
1835.75, 0.474387
1836.4, 0.474387
1837.05, 0.474200
1837.7, 0.474387
1838.35, 0.474574
1839.01, 0.474387
1839.66, 0.474512
1840.31, 0.474824
1840.96, 0.474699
1841.62, 0.474637
1842.27, 0.474761
1842.93, 0.474574
1843.58, 0.474761
1844.24, 0.474824
1844.9, 0.474761
1845.55, 0.474948
1846.21, 0.475073
1846.87, 0.475385
1847.53, 0.475510
1848.18, 0.475323
1848.84, 0.475323
1849.5, 0.475135
1850.16, 0.475260
1850.82, 0.475634
1851.48, 0.475572
1852.14, 0.475260
1852.81, 0.475135
1853.47, 0.475323
1854.13, 0.475634
1854.8, 0.475884
1855.46, 0.475821
1856.12, 0.475759
1856.79, 0.476008
1857.45, 0.475759
1858.12, 0.475697
1858.79, 0.475759
1859.45, 0.476071
1860.12, 0.476258
1860.79, 0.476320
1861.46, 0.476382
1862.12, 0.476071
1862.79, 0.476133
1863.46, 0.476258
1864.13, 0.476320
1864.8, 0.476445
1865.48, 0.476382
1866.15, 0.476258
1866.82, 0.476258
1867.49, 0.476569
1868.16, 0.476881
1868.84, 0.476819
1869.51, 0.476756
1870.19, 0.476819
1870.86, 0.477006
1871.54, 0.476943
1872.21, 0.476569
1872.89, 0.476756
1873.56, 0.476881
1874.24, 0.476694
1874.92, 0.476632
1875.6, 0.476382
1876.28, 0.476320
1876.96, 0.476569
1877.64, 0.476632
1878.32, 0.476569
1879.0, 0.476507
1879.68, 0.476258
1880.36, 0.476195
1881.04, 0.476195
1881.73, 0.476195
1882.41, 0.476195
1883.09, 0.476071
1883.78, 0.476008
1884.46, 0.475884
1885.15, 0.476008
1885.83, 0.475946
1886.52, 0.475697
1887.21, 0.475510
1887.89, 0.475385
1888.58, 0.475447
1889.27, 0.475385
1889.96, 0.475135
1890.65, 0.474886
1891.34, 0.474574
1892.03, 0.474450
1892.72, 0.474325
1893.41, 0.473889
1894.1, 0.473764
1894.79, 0.473889
1895.49, 0.473951
1896.18, 0.473514
1896.87, 0.473203
1897.57, 0.473016
1898.26, 0.472953
1898.96, 0.473078
1899.65, 0.472891
1900.35, 0.472392
1901.05, 0.472081
1901.74, 0.471831
1902.44, 0.471706
1903.14, 0.471582
1903.84, 0.471208
1904.54, 0.471145
1905.24, 0.471208
1905.94, 0.470958
1906.64, 0.470709
1907.34, 0.470647
1908.04, 0.470335
1908.75, 0.470148
1909.45, 0.469961
1910.15, 0.469836
1910.86, 0.469462
1911.56, 0.469337
1912.27, 0.469275
1912.97, 0.469150
1913.68, 0.469213
1914.39, 0.469088
1915.09, 0.469088
1915.8, 0.469088
1916.51, 0.468901
1917.22, 0.468714
1917.93, 0.468464
1918.64, 0.468464
1919.35, 0.468464
1920.06, 0.468464
1920.77, 0.468652
1921.48, 0.468402
1922.19, 0.467779
1922.91, 0.467529
1923.62, 0.467529
1924.33, 0.467280
1925.05, 0.467093
1925.76, 0.467218
1926.48, 0.467280
1927.19, 0.467093
1927.91, 0.466906
1928.63, 0.466906
1929.35, 0.466781
1930.07, 0.466532
1930.78, 0.466469
1931.5, 0.466532
1932.22, 0.466407
1932.94, 0.466220
1933.66, 0.466095
1934.39, 0.465908
1935.11, 0.465534
1935.83, 0.465472
1936.55, 0.465285
1937.28, 0.464848
1938.0, 0.464724
1938.73, 0.464724
1939.45, 0.464599
1940.18, 0.464100
1940.9, 0.463539
1941.63, 0.463664
1942.36, 0.463789
1943.09, 0.463664
1943.81, 0.463539
1944.54, 0.463227
1945.27, 0.463040
1946.0, 0.462666
1946.73, 0.462355
1947.47, 0.462168
1948.2, 0.462043
1948.93, 0.461669
1949.66, 0.461482
1950.4, 0.461357
1951.13, 0.461045
1951.86, 0.461045
1952.6, 0.460796
1953.34, 0.460235
1954.07, 0.459861
1954.81, 0.459861
1955.55, 0.459736
1956.29, 0.459424
1957.02, 0.459175
1957.76, 0.458988
1958.5, 0.458863
1959.24, 0.458614
1959.98, 0.458178
1960.72, 0.457866
1961.47, 0.457741
1962.21, 0.457367
1962.95, 0.457180
1963.7, 0.456993
1964.44, 0.456619
1965.18, 0.456307
1965.93, 0.456120
1966.67, 0.456058
1967.42, 0.455808
1968.17, 0.455621
1968.92, 0.455434
1969.66, 0.455123
1970.41, 0.455123
1971.16, 0.454998
1971.91, 0.454748
1972.66, 0.454499
1973.41, 0.454374
1974.16, 0.454312
1974.92, 0.454437
1975.67, 0.454374
1976.42, 0.454250
1977.18, 0.454312
1977.93, 0.454437
1978.69, 0.454312
1979.44, 0.454000
1980.2, 0.453938
1980.95, 0.453938
1981.71, 0.454063
1982.47, 0.454063
1983.23, 0.454125
1983.99, 0.454312
1984.74, 0.454499
1985.51, 0.454437
1986.27, 0.454561
1987.03, 0.454811
1987.79, 0.454811
1988.55, 0.454748
1989.32, 0.454748
1990.08, 0.454998
1990.84, 0.455434
1991.61, 0.455497
1992.37, 0.455559
1993.14, 0.455808
1993.9, 0.456058
1994.67, 0.456120
1995.44, 0.456245
1996.21, 0.456619
1996.98, 0.456868
1997.75, 0.456993
1998.52, 0.456993
1999.29, 0.457055
2000.06, 0.457242
2000.83, 0.457492
2001.6, 0.457866
2002.38, 0.458115
2003.15, 0.458365
2003.93, 0.458676
2004.7, 0.458676
2005.48, 0.458614
2006.25, 0.458801
2007.03, 0.458988
2007.81, 0.459300
2008.58, 0.459674
2009.36, 0.459986
2010.14, 0.460235
2010.92, 0.460235
2011.7, 0.460547
2012.48, 0.460921
2013.26, 0.461108
2014.05, 0.461232
2014.83, 0.461482
2015.61, 0.461856
2016.4, 0.462355
2017.18, 0.462666
2017.97, 0.462791
2018.75, 0.462978
2019.54, 0.463290
2020.32, 0.463539
2021.11, 0.463976
2021.9, 0.464474
2022.69, 0.464848
2023.48, 0.465160
2024.27, 0.465410
2025.06, 0.465597
2025.85, 0.466095
2026.64, 0.466469
2027.44, 0.466906
2028.23, 0.467093
2029.02, 0.467342
2029.82, 0.467716
2030.61, 0.467966
2031.41, 0.468215
2032.2, 0.468527
2033.0, 0.468901
2033.8, 0.469150
2034.6, 0.469213
2035.4, 0.469524
2036.2, 0.470023
2037.0, 0.470460
2037.8, 0.470584
2038.6, 0.470647
2039.4, 0.470896
2040.2, 0.470958
2041.01, 0.471145
2041.81, 0.471395
2042.61, 0.471706
2043.42, 0.472018
2044.22, 0.472330
2045.03, 0.472143
2045.84, 0.472205
2046.65, 0.472642
2047.46, 0.473016
2048.26, 0.472891
2049.07, 0.472829
2049.88, 0.473140
2050.69, 0.473327
2051.51, 0.473514
2052.32, 0.473639
2053.13, 0.473639
2053.94, 0.473702
2054.76, 0.473826
2055.57, 0.474076
2056.39, 0.474076
2057.2, 0.474013
2058.02, 0.474200
2058.84, 0.474387
2059.66, 0.474574
2060.48, 0.474512
2061.29, 0.474450
2062.11, 0.474699
2062.94, 0.474761
2063.76, 0.474824
2064.58, 0.474824
2065.4, 0.474637
2066.22, 0.474886
2067.05, 0.474948
2067.87, 0.474761
2068.7, 0.474699
2069.52, 0.474637
2070.35, 0.474512
2071.18, 0.474450
2072.0, 0.474325
2072.83, 0.474200
2073.66, 0.474138
2074.49, 0.473826
2075.32, 0.473265
2076.15, 0.472953
2076.98, 0.472766
2077.82, 0.472455
2078.65, 0.472205
2079.48, 0.472081
2080.32, 0.471706
2081.15, 0.470958
2081.99, 0.470210
2082.83, 0.469524
2083.66, 0.468901
2084.5, 0.468277
2085.34, 0.467779
2086.18, 0.467342
2087.02, 0.466843
2087.86, 0.466158
2088.7, 0.465534
2089.54, 0.465035
2090.39, 0.464786
2091.23, 0.464412
2092.07, 0.463976
2092.92, 0.463664
2093.76, 0.463415
2094.61, 0.463103
2095.45, 0.462791
2096.3, 0.462604
2097.15, 0.462417
2098.0, 0.462168
2098.85, 0.462043
2099.7, 0.461794
2100.55, 0.461482
2101.4, 0.461419
2102.25, 0.461669
2103.1, 0.461731
2103.96, 0.461357
2104.81, 0.460796
2105.67, 0.460360
2106.52, 0.459986
2107.38, 0.459424
2108.24, 0.458988
2109.09, 0.458365
2109.95, 0.457990
2110.81, 0.458240
2111.67, 0.458676
2112.53, 0.458863
2113.39, 0.459050
2114.25, 0.459362
2115.12, 0.459424
2115.98, 0.459611
2116.84, 0.459986
2117.71, 0.460110
2118.58, 0.460110
2119.44, 0.460360
2120.31, 0.460422
2121.18, 0.460360
2122.04, 0.460734
2122.91, 0.461108
2123.78, 0.461232
2124.65, 0.461232
2125.52, 0.461357
2126.4, 0.461419
2127.27, 0.461419
2128.14, 0.461357
2129.02, 0.461045
2129.89, 0.460734
2130.77, 0.460297
2131.64, 0.460235
2132.52, 0.460547
2133.4, 0.460796
2134.27, 0.460858
2135.15, 0.461045
2136.03, 0.461357
2136.91, 0.461607
2137.79, 0.461731
2138.68, 0.461794
2139.56, 0.461981
2140.44, 0.462230
2141.33, 0.462292
2142.21, 0.462292
2143.1, 0.462168
2143.99, 0.462292
2144.87, 0.462542
2145.76, 0.462729
2146.65, 0.462916
2147.54, 0.463290
2148.43, 0.463602
2149.32, 0.464100
2150.21, 0.464225
2151.1, 0.464474
2151.99, 0.464911
2152.89, 0.465223
2153.78, 0.465597
2154.68, 0.465721
2155.57, 0.465784
2156.47, 0.465971
2157.37, 0.466407
2158.27, 0.466843
2159.16, 0.467031
2160.06, 0.467218
2160.96, 0.467467
2161.86, 0.467716
2162.77, 0.467716
2163.67, 0.467966
2164.57, 0.468340
2165.48, 0.468402
2166.38, 0.468589
2167.29, 0.468776
2168.2, 0.468839
2169.1, 0.468901
2170.01, 0.469213
2170.92, 0.469213
2171.83, 0.469150
2172.74, 0.469213
2173.65, 0.469400
2174.56, 0.469462
2175.47, 0.469400
2176.39, 0.469464
2177.3, 0.469787
2178.22, 0.469981
2179.13, 0.469529
2180.05, 0.469464
2180.96, 0.469787
2181.88, 0.470304
2182.8, 0.469981
2183.72, 0.469787
2184.64, 0.469917
2185.56, 0.470240
2186.48, 0.469594
2187.41, 0.469206
2188.33, 0.469012
2189.25, 0.468689
2190.18, 0.468301
2191.1, 0.468818
2192.03, 0.469141
2192.96, 0.468560
2193.89, 0.468236
2194.82, 0.468366
2195.74, 0.467590
2196.68, 0.467396
2197.61, 0.467655
2198.54, 0.467913
2199.47, 0.467590
2200.4, 0.467461
2201.34, 0.466621
2202.28, 0.466169
2203.21, 0.466492
2204.15, 0.466363
2205.08, 0.465781
2206.02, 0.465781
2206.96, 0.465587
2207.9, 0.465135
2208.84, 0.465005
2209.78, 0.464553
2210.73, 0.464165
2211.67, 0.464359
2212.61, 0.464036
2213.56, 0.463390
2214.5, 0.462485
2215.45, 0.462291
2216.4, 0.461968
2217.35, 0.461775
2218.3, 0.461193
2219.24, 0.460030
2220.2, 0.458802
2221.15, 0.458479
2222.1, 0.458091
2223.05, 0.456799
2224.0, 0.455119
2224.96, 0.453632
2225.91, 0.452211
2226.87, 0.450595
2227.83, 0.448657
2228.79, 0.446783
2229.74, 0.444263
2230.7, 0.442324
2231.66, 0.440385
2232.63, 0.437865
2233.59, 0.435862
2234.55, 0.433729
2235.51, 0.431532
2236.48, 0.429788
2237.44, 0.427720
2238.41, 0.425587
2239.38, 0.424295
2240.34, 0.423002
2241.31, 0.421258
2242.28, 0.420159
2243.25, 0.418867
2244.22, 0.417316
2245.19, 0.416347
2246.17, 0.415442
2247.14, 0.414473
2248.12, 0.413116
2249.09, 0.412082
2250.07, 0.411177
2251.04, 0.410660
2252.02, 0.410143
2253.0, 0.409691
2253.98, 0.408980
2254.96, 0.407946
2255.94, 0.407171
2256.92, 0.406783
2257.91, 0.406137
2258.89, 0.405620
2259.88, 0.405297
2260.86, 0.404844
2261.85, 0.403810
2262.83, 0.402389
2263.82, 0.400644
2264.81, 0.398705
2265.8, 0.397025
2266.79, 0.394828
2267.78, 0.392696
2268.78, 0.390757
2269.77, 0.388237
2270.76, 0.385911
2271.76, 0.383649
2272.75, 0.381323
2273.75, 0.379384
2274.75, 0.377898
2275.75, 0.376153
2276.75, 0.374085
2277.75, 0.371823
2278.75, 0.369433
2279.75, 0.367752
2280.75, 0.366137
2281.76, 0.363811
2282.76, 0.361484
2283.77, 0.359610
2284.77, 0.357801
2285.78, 0.355862
2286.79, 0.353924
2287.8, 0.351921
2288.81, 0.349336
2289.82, 0.346234
2290.83, 0.342874
2291.84, 0.339513
2292.86, 0.336153
2293.87, 0.332793
2294.89, 0.329368
2295.91, 0.326396
2296.92, 0.323488
2297.94, 0.320774
2298.96, 0.318253
2299.98, 0.316832
2301.0, 0.316896
2302.02, 0.316961
2303.04, 0.316250
2304.07, 0.314958
2305.09, 0.312825
2306.12, 0.310693
2307.15, 0.308108
2308.17, 0.305330
2309.2, 0.302098
2310.23, 0.298480
2311.26, 0.295120
2312.29, 0.291565
2313.32, 0.288593
2314.35, 0.286073
2315.39, 0.283617
2316.42, 0.282325
2317.46, 0.281420
2318.5, 0.280192
2319.53, 0.278706
2320.57, 0.277866
2321.61, 0.277349
2322.65, 0.276961
2323.69, 0.277801
2324.73, 0.279675
2325.78, 0.281549
2326.82, 0.284457
2327.86, 0.287559
2328.91, 0.290725
2329.96, 0.293827
2331.01, 0.296735
2332.05, 0.300095
2333.1, 0.303972
2334.15, 0.307914
2335.21, 0.311598
2336.26, 0.315152
2337.31, 0.318706
2338.36, 0.322583
2339.42, 0.326137
2340.48, 0.329174
2341.53, 0.332858
2342.59, 0.336799
2343.65, 0.340483
2344.71, 0.343972
2345.77, 0.347332
2346.83, 0.350499
2347.9, 0.353536
2348.96, 0.356509
2350.02, 0.359546
2351.09, 0.362195
2352.16, 0.363811
2353.23, 0.365232
2354.29, 0.366719
2355.36, 0.368334
2356.43, 0.369885
2357.51, 0.371694
2358.58, 0.373374
2359.65, 0.374150
2360.73, 0.375054
2361.8, 0.375571
2362.88, 0.375507
2363.96, 0.375571
2365.03, 0.375701
2366.11, 0.375895
2367.19, 0.375571
2368.27, 0.374925
2369.36, 0.374279
2370.44, 0.373633
2371.53, 0.372340
2372.61, 0.370143
2373.7, 0.368075
2374.78, 0.365878
2375.87, 0.363294
2376.96, 0.360063
2378.05, 0.356832
2379.14, 0.353794
2380.24, 0.350822
2381.33, 0.348366
2382.42, 0.345846
2383.52, 0.343649
2384.61, 0.342551
2385.71, 0.342551
2386.81, 0.343520
2387.91, 0.344942
2389.01, 0.346428
2390.11, 0.347785
2391.22, 0.349142
2392.32, 0.350887
2393.42, 0.352308
2394.53, 0.353730
2395.64, 0.355216
2396.74, 0.356444
2397.85, 0.358059
2398.96, 0.359675
2400.07, 0.360903
2401.18, 0.361678
2402.3, 0.361872
2403.41, 0.361549
2404.52, 0.361097
2405.64, 0.360256
2406.76, 0.359416
2407.88, 0.358576
2408.99, 0.357219
2410.11, 0.355992
2411.23, 0.355216
2412.36, 0.353924
2413.48, 0.352437
2414.6, 0.351080
2415.73, 0.349917
2416.85, 0.348754
2417.98, 0.347397
2419.11, 0.346299
2420.24, 0.345523
2421.37, 0.344812
2422.5, 0.344618
2423.64, 0.344554
2424.77, 0.344554
2425.9, 0.344101
2427.04, 0.343326
2428.18, 0.343261
2429.31, 0.343714
2430.45, 0.344554
2431.59, 0.344877
2432.73, 0.344942
2433.88, 0.345135
2435.02, 0.344942
2436.16, 0.344360
2437.31, 0.343520
2438.45, 0.343003
2439.6, 0.342034
2440.75, 0.340935
2441.9, 0.340095
2443.05, 0.339772
2444.2, 0.339449
2445.35, 0.338673
2446.51, 0.337704
2447.67, 0.336993
2448.82, 0.336476
2449.98, 0.335313
2451.14, 0.334150
2452.3, 0.333245
2453.46, 0.332470
2454.62, 0.331824
2455.78, 0.331178
2456.94, 0.330596
2458.11, 0.330208
2459.28, 0.330337
2460.44, 0.330661
2461.61, 0.331565
2462.78, 0.332534
2463.95, 0.333439
2465.12, 0.334344
2466.3, 0.335249
2467.47, 0.336153
2468.65, 0.336670
2469.82, 0.337316
2471.0, 0.338027
2472.18, 0.338609
2473.36, 0.339061
2474.54, 0.339126
2475.72, 0.339320
2476.9, 0.339126
2478.08, 0.338480
2479.27, 0.337704
2480.46, 0.337510
2481.64, 0.337381
2482.83, 0.336735
2484.02, 0.335507
2485.21, 0.334473
2486.4, 0.333245
2487.6, 0.332018
2488.79, 0.330596
2489.99, 0.328851
2491.18, 0.327494
2492.38, 0.325814
2493.58, 0.324134
2494.78, 0.322906
2495.98, 0.322195
2497.18, 0.321420
2498.39, 0.320192
2499.59, 0.319740
2500.8, 0.319352
2502.01, 0.318900
2503.21, 0.318383
2504.42, 0.317995
2505.63, 0.317284
2506.84, 0.316573
2508.06, 0.316186
2509.27, 0.315927
2510.49, 0.315152
2511.7, 0.314376
2512.92, 0.313665
2514.14, 0.312955
2515.36, 0.312373
2516.58, 0.312373
2517.8, 0.312632
2519.03, 0.313019
2520.25, 0.313148
2521.48, 0.313730
2522.7, 0.314441
2523.93, 0.315216
2525.16, 0.315992
2526.39, 0.316767
2527.62, 0.317672
2528.86, 0.318835
2530.09, 0.319675
2531.33, 0.320838
2532.56, 0.322131
2533.8, 0.323617
2535.04, 0.324909
2536.28, 0.326460
2537.52, 0.328528
2538.76, 0.329950
2540.01, 0.330919
2541.25, 0.331242
2542.5, 0.330790
2543.75, 0.331759
2544.99, 0.333051
2546.24, 0.333633
2547.49, 0.333439
2548.75, 0.333827
2550.0, 0.333051
2551.26, 0.331953
2552.51, 0.331242
2553.77, 0.331953
2555.03, 0.332470
2556.29, 0.332018
2557.55, 0.331242
2558.81, 0.329756
2560.08, 0.326266
2561.34, 0.323617
2562.61, 0.323165
2563.88, 0.322841
2565.14, 0.324069
2566.41, 0.325620
2567.68, 0.324328
2568.96, 0.321678
2570.23, 0.322389
2571.51, 0.323746
2572.78, 0.321549
2574.06, 0.323488
2575.34, 0.325426
2576.62, 0.325103
2577.9, 0.327753
2579.18, 0.329691
2580.47, 0.329045
2581.75, 0.329433
2583.04, 0.327430
2584.32, 0.328657
2585.61, 0.332405
2586.9, 0.332276
2588.2, 0.333956
2589.49, 0.336541
2590.78, 0.338867
2592.08, 0.338738
2593.37, 0.331824
2594.67, 0.326460
2595.97, 0.334602
2597.27, 0.342874
2598.57, 0.346880
2599.88, 0.347785
2601.18, 0.347139
2602.49, 0.347074
2603.79, 0.346040
2605.1, 0.344037
2606.41, 0.346945
2607.72, 0.351080
2609.03, 0.353019
2610.35, 0.355022
2611.66, 0.356896
2612.98, 0.357607
2614.3, 0.358576
2615.62, 0.354958
2616.94, 0.353148
2618.26, 0.356832
2619.58, 0.355022
2620.91, 0.356702
2622.23, 0.362324
2623.56, 0.363811
2624.89, 0.361872
2626.22, 0.358059
2627.55, 0.360644
2628.88, 0.359998
2630.21, 0.356379
2631.55, 0.360709
2632.89, 0.362712
2634.22, 0.362647
2635.56, 0.364651
2636.9, 0.365103
2638.25, 0.364909
2639.59, 0.364198
2640.93, 0.363164
2642.28, 0.362324
2643.63, 0.361678
2644.98, 0.359029
2646.33, 0.358512
2647.68, 0.358899
2649.03, 0.357801
2650.39, 0.355281
2651.74, 0.351016
2653.1, 0.348625
2654.46, 0.346945
2655.82, 0.344812
2657.18, 0.344037
2658.54, 0.340483
2659.9, 0.337446
2661.27, 0.335701
2662.64, 0.333698
2664.01, 0.326977
2665.38, 0.320451
2666.74, 0.318383
2668.12, 0.319481
2669.49, 0.311921
2670.87, 0.307785
2672.24, 0.310564
2673.62, 0.306945
2675.0, 0.299255
2676.38, 0.290855
2677.76, 0.285168
2679.15, 0.277672
2680.54, 0.268884
2681.92, 0.254474
2683.31, 0.236186
2684.7, 0.218416
2686.09, 0.202067
2687.48, 0.187915
2688.88, 0.176606
2690.27, 0.166590
2691.67, 0.156768
2693.07, 0.146429
2694.47, 0.138610
2695.87, 0.133053
2697.27, 0.128012
2698.67, 0.122003
2700.08, 0.114442
2701.49, 0.106365
2702.9, 0.0997090
2704.31, 0.0944740
2705.72, 0.0920190
2707.13, 0.0901450
2708.54, 0.0873660
2709.96, 0.0840710
2711.38, 0.0816150
2712.8, 0.0797410
2714.22, 0.0770270
2715.64, 0.0727620
2717.06, 0.0664940
2718.49, 0.0584160
2719.91, 0.0504040
2721.34, 0.0467850
2722.77, 0.0467850
2724.2, 0.0473660
2725.63, 0.0492400
2727.07, 0.0527300
2728.5, 0.0549920
2729.94, 0.0528590
2731.38, 0.0502100
2732.82, 0.0504040
2734.26, 0.0524710
2735.7, 0.0560900
2737.15, 0.0590630
2738.59, 0.0609370
2740.04, 0.0625520
2741.49, 0.0642320
2742.94, 0.0651370
2744.39, 0.0656540
2745.84, 0.0671400
2747.3, 0.0692730
2748.76, 0.0705650
2750.21, 0.0713400
2751.67, 0.0720510
2753.14, 0.0725040
2754.6, 0.0722450
2756.06, 0.0736020
2757.53, 0.0758640
2759.0, 0.0772210
2760.46, 0.0780610
2761.94, 0.0781900
2763.41, 0.0792240
2764.88, 0.0809040
2766.36, 0.0818090
2767.83, 0.0828430
2769.31, 0.0841350
2770.79, 0.0852980
2772.27, 0.0867850
2773.76, 0.0881420
2775.24, 0.0892400
2776.73, 0.0900800
2778.22, 0.0904680
2779.71, 0.0907260
2781.2, 0.0906620
2782.69, 0.0906620
2784.18, 0.0909850
2785.68, 0.0904030
2787.18, 0.0898220
2788.68, 0.0903390
2790.18, 0.0907910
2791.68, 0.0909200
2793.19, 0.0907910
2794.69, 0.0906620
2796.2, 0.0904030
2797.71, 0.0901450
2799.22, 0.0898860
2800.73, 0.0893690
2802.24, 0.0883360
2803.76, 0.0881420
2805.28, 0.0886590
2806.8, 0.0889170
2808.32, 0.0889820
2809.84, 0.0892400
2811.36, 0.0893690
2812.89, 0.0893690
2814.42, 0.0893690
2815.94, 0.0898220
2817.48, 0.0901450
2819.01, 0.0900800
2820.54, 0.0905330
2822.08, 0.0913730
2823.61, 0.0921480
2825.15, 0.0929240
2826.69, 0.0934410
2828.23, 0.0940220
2829.78, 0.0948620
2831.32, 0.0958310
2832.87, 0.0964780
2834.42, 0.0970590
2835.97, 0.0979640
2837.52, 0.0988690
2839.08, 0.0997730
2840.63, 0.100743
2842.19, 0.101906
2843.75, 0.102940
2845.31, 0.103974
2846.87, 0.105137
2848.44, 0.105977
2850.0, 0.107011
2851.57, 0.108303
2853.14, 0.109272
2854.71, 0.110112
2856.28, 0.111276
2857.86, 0.112439
2859.43, 0.113085
2861.01, 0.113860
2862.59, 0.114636
2864.17, 0.115411
2865.76, 0.116058
2867.34, 0.116639
2868.93, 0.117285
2870.52, 0.117608
2872.11, 0.117931
2873.7, 0.118061
2875.29, 0.118190
2876.89, 0.118319
2878.49, 0.118448
2880.08, 0.118707
2881.69, 0.119030
2883.29, 0.119224
2884.89, 0.119224
2886.5, 0.119224
2888.11, 0.119353
2889.72, 0.119612
2891.33, 0.119805
2892.94, 0.119870
2894.56, 0.120129
2896.17, 0.120516
2897.79, 0.120646
2899.42, 0.120839
2901.04, 0.121033
2902.66, 0.121550
2904.29, 0.122067
2905.92, 0.122455
2907.55, 0.122843
2909.18, 0.123230
2910.81, 0.123747
2912.45, 0.124329
2914.08, 0.124910
2915.72, 0.125621
2917.36, 0.126655
2919.01, 0.127560
2920.65, 0.128206
2922.3, 0.129046
2923.94, 0.130080
2925.59, 0.131114
2927.25, 0.132083
2928.9, 0.133053
2930.56, 0.134151
2932.21, 0.135185
2933.87, 0.136413
2935.53, 0.137770
2937.2, 0.138933
2938.86, 0.140419
2940.53, 0.142035
2942.2, 0.143586
2943.87, 0.145072
2945.54, 0.146687
2947.22, 0.148368
2948.89, 0.150241
2950.57, 0.151986
2952.25, 0.153666
2953.93, 0.155605
2955.62, 0.157544
2957.3, 0.159611
2958.99, 0.161615
2960.68, 0.163489
2962.37, 0.165621
2964.07, 0.167689
2965.76, 0.169757
2967.46, 0.171889
2969.16, 0.174151
2970.86, 0.176348
2972.56, 0.178739
2974.27, 0.181130
2975.98, 0.183456
2977.69, 0.186106
2979.4, 0.188755
2981.11, 0.191404
2982.83, 0.193989
2984.54, 0.196316
2986.26, 0.198642
2987.98, 0.201227
2989.71, 0.203488
2991.43, 0.205685
2993.16, 0.208012
2994.89, 0.210338
2996.62, 0.212664
2998.35, 0.215120
3000.09, 0.217382
3001.83, 0.219514
3003.57, 0.221582
3005.31, 0.223714
3007.05, 0.225718
3008.79, 0.227721
3010.54, 0.229918
3012.29, 0.232050
3014.04, 0.234054
3015.8, 0.236057
3017.55, 0.238125
3019.31, 0.240257
3021.07, 0.242131
3022.83, 0.244070
3024.59, 0.246008
3026.36, 0.247688
3028.13, 0.249304
3029.9, 0.250984
3031.67, 0.252729
3033.44, 0.254409
3035.22, 0.256154
3037.0, 0.257769
3038.78, 0.259255
3040.56, 0.260742
3042.34, 0.262357
3044.13, 0.263973
3045.92, 0.265524
3047.71, 0.267074
3049.5, 0.268755
3051.3, 0.270176
3053.09, 0.271469
3054.89, 0.272955
3056.69, 0.274700
3058.5, 0.276380
3060.3, 0.277995
3062.11, 0.279481
3063.92, 0.280774
3065.73, 0.282131
3067.55, 0.283746
3069.36, 0.285297
3071.18, 0.286525
3073.0, 0.287753
3074.82, 0.289110
3076.65, 0.290661
3078.48, 0.292147
3080.31, 0.293375
3082.14, 0.294732
3083.97, 0.296153
3085.8, 0.297510
3087.64, 0.298480
3089.48, 0.299514
3091.33, 0.300806
3093.17, 0.301969
3095.02, 0.303068
3096.87, 0.304102
3098.72, 0.305136
3100.57, 0.306105
3102.43, 0.307203
3104.28, 0.308108
3106.14, 0.308819
3108.01, 0.309982
3109.87, 0.311016
3111.74, 0.311985
3113.61, 0.312696
3115.48, 0.313536
3117.35, 0.314570
3119.23, 0.315475
3121.1, 0.316250
3122.98, 0.316961
3124.87, 0.317737
3126.75, 0.318641
3128.64, 0.319417
3130.53, 0.319998
3132.42, 0.320709
3134.31, 0.321678
3136.21, 0.322454
3138.11, 0.323229
3140.01, 0.324199
3141.91, 0.325103
3143.82, 0.325943
3145.73, 0.326848
3147.64, 0.328076
3149.55, 0.329110
3151.46, 0.330079
3153.38, 0.331307
3155.3, 0.332341
3157.22, 0.333245
3159.14, 0.334085
3161.07, 0.334861
3163.0, 0.335378
3164.93, 0.335959
3166.86, 0.336606
3168.8, 0.337446
3170.74, 0.338350
3172.68, 0.339384
3174.62, 0.340741
3176.56, 0.342227
3178.51, 0.343326
3180.46, 0.344166
3182.42, 0.344942
3184.37, 0.345975
3186.33, 0.347268
3188.29, 0.348560
3190.25, 0.349659
3192.21, 0.350693
3194.18, 0.351856
3196.15, 0.352825
3198.12, 0.353794
3200.09, 0.354764
3202.07, 0.355539
3204.05, 0.356379
3206.03, 0.357155
3208.02, 0.357930
3210.0, 0.358576
3211.99, 0.359093
3213.98, 0.359416
3215.98, 0.359546
3217.97, 0.359546
3219.97, 0.359416
3221.97, 0.359158
3223.98, 0.358641
3225.98, 0.358318
3227.99, 0.358124
3230.0, 0.357672
3232.02, 0.357026
3234.03, 0.356509
3236.05, 0.356056
3238.07, 0.355733
3240.1, 0.355345
3242.12, 0.354893
3244.15, 0.354441
3246.18, 0.354118
3248.22, 0.354118
3250.25, 0.354118
3252.29, 0.353988
3254.33, 0.353730
3256.38, 0.353730
3258.43, 0.353601
3260.47, 0.353471
3262.53, 0.353342
3264.58, 0.353278
3266.64, 0.353148
3268.7, 0.352890
3270.76, 0.352696
3272.82, 0.352502
3274.89, 0.352114
3276.96, 0.351468
3279.04, 0.350499
3281.11, 0.349530
3283.19, 0.348302
3285.27, 0.346557
3287.35, 0.344489
3289.44, 0.342098
3291.53, 0.339061
3293.62, 0.335119
3295.71, 0.329950
3297.81, 0.324586
3299.91, 0.319740
3302.01, 0.315927
3304.11, 0.313148
3306.22, 0.311468
3308.33, 0.310693
3310.44, 0.310693
3312.56, 0.311404
3314.68, 0.312308
3316.8, 0.313148
3318.92, 0.313989
3321.05, 0.314829
3323.18, 0.315733
3325.31, 0.316703
3327.44, 0.317413
3329.58, 0.317801
3331.72, 0.317672
3333.86, 0.317284
3336.01, 0.316896
3338.16, 0.316703
3340.31, 0.316832
3342.46, 0.317026
3344.61, 0.317349
3346.77, 0.318060
3348.94, 0.319094
3351.1, 0.320386
3353.27, 0.321937
3355.44, 0.323423
3357.61, 0.324715
3359.79, 0.325943
3361.97, 0.327236
3364.15, 0.328528
3366.33, 0.329756
3368.52, 0.330984
3370.71, 0.332018
3372.9, 0.332922
3375.1, 0.333827
3377.3, 0.334667
3379.5, 0.335119
3381.71, 0.335184
3383.91, 0.335119
3386.12, 0.335313
3388.34, 0.335572
3390.55, 0.336024
3392.77, 0.336476
3394.99, 0.336541
3397.22, 0.336282
3399.45, 0.335959
3401.68, 0.335636
3403.91, 0.335313
3406.15, 0.335184
3408.39, 0.335184
3410.63, 0.335119
3412.87, 0.335119
3415.12, 0.335507
3417.37, 0.336153
3419.63, 0.336993
3421.88, 0.338092
3424.14, 0.339126
3426.41, 0.339837
3428.67, 0.340160
3430.94, 0.340095
3433.21, 0.339707
3435.49, 0.338932
3437.77, 0.338092
3440.05, 0.337381
3442.33, 0.336929
3444.62, 0.336541
3446.91, 0.336412
3449.2, 0.336476
3451.5, 0.336929
3453.8, 0.337575
3456.1, 0.338221
3458.41, 0.338996
3460.72, 0.339772
3463.03, 0.340418
3465.34, 0.341064
3467.66, 0.341581
3469.98, 0.342227
3472.31, 0.343068
3474.63, 0.344037
3476.96, 0.345071
3479.3, 0.346299
3481.64, 0.347591
3483.97, 0.348819
3486.32, 0.349982
3488.66, 0.351274
3491.01, 0.352890
3493.36, 0.354764
3495.72, 0.356896
3498.08, 0.359416
3500.44, 0.362518
3502.81, 0.366137
3505.18, 0.369885
3507.55, 0.373956
3509.92, 0.377962
3512.3, 0.381581
3514.68, 0.384941
3517.06, 0.388172
3519.45, 0.391145
3521.84, 0.393665
3524.24, 0.395733
3526.64, 0.397542
3529.04, 0.399222
3531.44, 0.400773
3533.85, 0.402195
3536.26, 0.403423
3538.67, 0.404327
3541.09, 0.404844
3543.51, 0.405038
3545.93, 0.405297
3548.36, 0.405749
3550.79, 0.406783
3553.22, 0.408140
3555.66, 0.409691
3558.1, 0.411306
3560.54, 0.412599
3562.99, 0.413697
3565.44, 0.414602
3567.9, 0.415377
3570.35, 0.416088
3572.81, 0.416734
3575.28, 0.417251
3577.75, 0.417833
3580.22, 0.418350
3582.69, 0.418608
3585.17, 0.418802
3587.65, 0.419190
3590.14, 0.419578
3592.62, 0.419965
3595.11, 0.420353
3597.61, 0.420482
3600.11, 0.420676
3602.61, 0.420870
3605.11, 0.421129
3607.62, 0.421322
3610.14, 0.421452
3612.65, 0.421581
3615.17, 0.421645
3617.69, 0.421775
3620.22, 0.422033
3622.75, 0.422162
3625.28, 0.422227
3627.82, 0.422356
3630.36, 0.422486
3632.9, 0.422421
3635.45, 0.422550
3638.0, 0.422615
3640.56, 0.422744
3643.12, 0.422679
3645.68, 0.422615
3648.24, 0.422744
3650.81, 0.422873
3653.39, 0.422809
3655.96, 0.422809
3658.54, 0.422744
3661.13, 0.422744
3663.71, 0.422679
3666.3, 0.422550
3668.9, 0.422486
3671.5, 0.422550
3674.1, 0.422486
3676.7, 0.422356
3679.31, 0.422292
3681.93, 0.422356
3684.54, 0.422227
3687.17, 0.421710
3689.79, 0.420288
3692.42, 0.419707
3695.05, 0.419771
3697.69, 0.419255
3700.32, 0.418608
3702.97, 0.418027
3705.61, 0.417574
3708.27, 0.417057
3710.92, 0.416670
3713.58, 0.416347
3716.24, 0.416282
3718.91, 0.416282
3721.58, 0.416153
3724.25, 0.415959
3726.93, 0.415765
3729.61, 0.415700
3732.29, 0.415700
3734.98, 0.415571
3737.67, 0.414990
3740.37, 0.414020
3743.07, 0.412793
3745.78, 0.411177
3748.49, 0.409174
3751.2, 0.407106
3753.91, 0.404909
3756.63, 0.402453
3759.36, 0.399933
3762.09, 0.397413
3764.82, 0.395087
3767.55, 0.392825
3770.29, 0.390499
3773.04, 0.388237
3775.78, 0.386040
3778.54, 0.383843
3781.29, 0.381581
3784.05, 0.379384
3786.82, 0.377058
3789.59, 0.374796
3792.36, 0.372664
3795.13, 0.370725
3797.92, 0.368980
3800.7, 0.367623
3803.49, 0.366719
3806.28, 0.366331
3809.08, 0.366848
3811.88, 0.368140
3814.68, 0.369949
3817.49, 0.372017
3820.31, 0.374085
3823.12, 0.376218
3825.94, 0.378221
3828.77, 0.380353
3831.6, 0.382292
3834.43, 0.383778
3837.27, 0.384941
3840.11, 0.385588
3842.96, 0.385523
3845.81, 0.384230
3848.67, 0.381775
3851.53, 0.378479
3854.39, 0.375054
3857.26, 0.371888
3860.13, 0.369433
3863.01, 0.367688
3865.89, 0.366331
3868.77, 0.365232
3871.66, 0.364457
3874.55, 0.363617
3877.45, 0.362841
3880.35, 0.362260
3883.26, 0.361807
3886.17, 0.361484
3889.09, 0.361226
3892.01, 0.360838
3894.93, 0.360256
3897.86, 0.359158
3900.79, 0.357478
3903.73, 0.355798
3906.67, 0.354118
3909.62, 0.352437
3912.57, 0.350887
3915.52, 0.349659
3918.48, 0.348754
3921.45, 0.348108
3924.42, 0.347656
3927.39, 0.347203
3930.37, 0.346816
3933.35, 0.346299
3936.34, 0.345588
3939.33, 0.345200
3942.32, 0.344877
3945.32, 0.344425
3948.33, 0.344101
3951.34, 0.343843
3954.35, 0.343714
3957.37, 0.343520
3960.39, 0.343391
3963.42, 0.343391
3966.45, 0.343649
3969.49, 0.344489
3972.53, 0.345846
3975.58, 0.347849
3978.63, 0.350240
3981.68, 0.353148
3984.75, 0.356121
3987.81, 0.358899
3990.88, 0.361549
3993.95, 0.364198
3997.03, 0.366848
4000.12, 0.369562
4003.21, 0.372340
4006.3, 0.375313
4009.4, 0.378350
4012.5, 0.381323
4015.61, 0.384101
4018.72, 0.386621
4021.84, 0.388754
4024.96, 0.390951
4028.09, 0.392890
4031.22, 0.394699
4034.36, 0.396314
4037.5, 0.397736
4040.65, 0.398964
4043.8, 0.400062
4046.96, 0.401161
4050.12, 0.402259
4053.29, 0.403035
4056.46, 0.403810
4059.64, 0.404521
4062.82, 0.405103
4066.0, 0.405620
4069.19, 0.406201
4072.39, 0.406589
4075.59, 0.406977
4078.8, 0.407429
4082.01, 0.407688
4085.23, 0.407817
4088.45, 0.407946
4091.68, 0.408075
4094.91, 0.408334
4098.15, 0.408528
4101.39, 0.408528
4104.63, 0.408398
4107.89, 0.408269
4111.14, 0.408205
4114.41, 0.408269
4117.67, 0.408140
4120.95, 0.407946
4124.23, 0.407752
4127.51, 0.407752
4130.8, 0.407623
4134.09, 0.407429
4137.39, 0.407171
4140.7, 0.406912
4144.01, 0.406524
4147.32, 0.406331
4150.64, 0.406266
4153.97, 0.406266
4157.3, 0.406201
4160.64, 0.406266
4163.98, 0.406460
4167.33, 0.406460
4170.68, 0.406266
4174.04, 0.406201
4177.4, 0.406007
4180.77, 0.405943
4184.14, 0.405814
4187.52, 0.405814
4190.91, 0.405555
4194.3, 0.405038
4197.69, 0.404198
4201.1, 0.402776
4204.5, 0.400709
4207.92, 0.398318
4211.34, 0.395410
4214.76, 0.392373
4218.19, 0.389335
4221.62, 0.386621
4225.06, 0.384424
4228.51, 0.382938
4231.96, 0.381775
4235.42, 0.381323
4238.88, 0.381775
4242.35, 0.382938
4245.83, 0.385135
4249.31, 0.388302
4252.79, 0.392308
4256.28, 0.394570
4259.78, 0.392567
4263.29, 0.388819
4266.79, 0.385846
4270.31, 0.383843
4273.83, 0.382809
4277.35, 0.382227
4280.89, 0.381904
4284.42, 0.381904
4287.97, 0.382163
4291.52, 0.382680
4295.07, 0.383390
4298.63, 0.384295
4302.2, 0.385135
4305.78, 0.385911
4309.35, 0.386880
4312.94, 0.387914
4316.53, 0.388883
4320.13, 0.389723
4323.73, 0.390434
4327.34, 0.391145
4330.96, 0.391726
4334.58, 0.392243
4338.21, 0.392825
4341.84, 0.393342
4345.48, 0.393794
4349.12, 0.393988
4352.77, 0.394182
4356.43, 0.394247
4360.1, 0.394053
4363.76, 0.393794
4367.44, 0.393277
4371.12, 0.392890
4374.81, 0.392502
4378.51, 0.391985
4382.21, 0.391468
4385.92, 0.390886
4389.63, 0.390240
4393.35, 0.389594
4397.08, 0.389012
4400.81, 0.388366
4404.55, 0.387526
4408.29, 0.386686
4412.04, 0.385846
4415.8, 0.385071
4419.57, 0.384295
4423.34, 0.383584
4427.12, 0.382938
4430.9, 0.382163
4434.69, 0.381452
4438.49, 0.380935
4442.29, 0.380483
4446.1, 0.380030
4449.92, 0.379707
4453.74, 0.379449
4457.57, 0.379255
4461.41, 0.379126
4465.25, 0.378932
4469.1, 0.378544
4472.95, 0.378156
4476.82, 0.377639
4480.69, 0.376928
4484.56, 0.376218
4488.44, 0.375184
4492.33, 0.374214
4496.23, 0.373051
4500.13, 0.371759
4504.04, 0.370143
4507.96, 0.368657
4511.88, 0.367042
4515.81, 0.365426
4519.75, 0.364004
4523.69, 0.362454
4527.65, 0.360773
4531.6, 0.359287
4535.57, 0.357995
4539.54, 0.356638
4543.52, 0.355281
4547.5, 0.353665
4551.5, 0.351662
4555.5, 0.349594
4559.5, 0.347656
4563.52, 0.345652
4567.54, 0.343649
4571.56, 0.341581
4575.6, 0.339578
4579.64, 0.337639
4583.69, 0.335636
4587.75, 0.333568
4591.81, 0.331630
4595.88, 0.329885
4599.96, 0.328205
4604.04, 0.326589
4608.14, 0.324974
4612.24, 0.323423
4616.34, 0.322001
4620.46, 0.320709
4624.58, 0.319417
4628.71, 0.318124
4632.84, 0.316767
4636.99, 0.315604
4641.14, 0.314570
4645.3, 0.313601
4649.47, 0.312696
4653.64, 0.311921
4657.82, 0.311210
4662.01, 0.310564
4666.21, 0.310047
4670.41, 0.309336
4674.62, 0.308496
4678.84, 0.307527
4683.07, 0.306234
4687.3, 0.304748
4691.54, 0.303132
4695.79, 0.301388
4700.05, 0.299643
4704.31, 0.297963
4708.59, 0.296412
4712.87, 0.294926
4717.15, 0.293246
4721.45, 0.291436
4725.76, 0.289627
4730.07, 0.287882
4734.39, 0.286073
4738.72, 0.284070
4743.05, 0.282002
4747.39, 0.280063
4751.75, 0.278189
4756.1, 0.276315
4760.47, 0.274377
4764.85, 0.272503
4769.23, 0.270629
4773.62, 0.268819
4778.02, 0.267204
4782.43, 0.265653
4786.85, 0.264231
4791.27, 0.263068
4795.7, 0.261905
4800.14, 0.261000
4804.59, 0.260289
4809.05, 0.259772
4813.51, 0.259255
4817.99, 0.258868
4822.47, 0.258545
4826.96, 0.257963
4831.46, 0.257252
4835.96, 0.256606
4840.48, 0.255766
4845.0, 0.254991
4849.54, 0.254086
4854.08, 0.252987
4858.63, 0.251824
4863.18, 0.250596
4867.75, 0.249498
4872.33, 0.248464
4876.91, 0.247495
4881.5, 0.246525
4886.1, 0.245750
4890.71, 0.244910
4895.33, 0.244005
4899.96, 0.242907
4904.59, 0.241873
4909.24, 0.240774
4913.89, 0.239611
4918.55, 0.238448
4923.22, 0.237091
4927.9, 0.235928
4932.59, 0.234764
4937.29, 0.233472
4942.0, 0.232180
4946.71, 0.230887
4951.44, 0.229401
4956.17, 0.227785
4960.91, 0.226364
4965.67, 0.225071
4970.43, 0.223585
4975.2, 0.222034
4979.98, 0.220483
4984.76, 0.218997
4989.56, 0.217511
4994.37, 0.216025
4999.18, 0.214538
5004.01, 0.212987
5008.84, 0.211437
5013.69, 0.209757
5018.54, 0.208076
5023.4, 0.206913
5028.28, 0.205750
5033.16, 0.204587
5038.05, 0.203424
5042.95, 0.202261
5047.86, 0.201097
5052.78, 0.199676
5057.71, 0.198448
5062.65, 0.197608
5067.6, 0.197156
5072.56, 0.196897
5077.53, 0.196574
5082.5, 0.195992
5087.49, 0.195540
5092.49, 0.194959
5097.5, 0.194054
5102.51, 0.193020
5107.54, 0.191921
5112.58, 0.190629
5117.62, 0.189530
5122.68, 0.188690
5127.75, 0.187980
5132.82, 0.187592
5137.91, 0.187527
5143.01, 0.187592
5148.12, 0.187786
5153.23, 0.188949
5158.36, 0.189854
5163.5, 0.190500
5168.65, 0.191081
5173.81, 0.191663
5178.98, 0.192115
5184.15, 0.192309
5189.34, 0.192309
5194.54, 0.191857
5199.75, 0.190952
5204.98, 0.190306
5210.21, 0.188626
5215.45, 0.187075
5220.7, 0.186041
5225.96, 0.183909
5231.23, 0.181194
5236.52, 0.178222
5241.81, 0.175573
5247.12, 0.173182
5252.44, 0.171308
5257.76, 0.170015
5263.1, 0.169111
5268.45, 0.168270
5273.81, 0.167237
5279.18, 0.166332
5284.56, 0.165492
5289.95, 0.164070
5295.36, 0.163036
5300.77, 0.162067
5306.2, 0.160645
5311.63, 0.159288
5317.08, 0.158061
5322.54, 0.156768
5328.01, 0.155670
5333.49, 0.154894
5338.98, 0.154119
5344.49, 0.152891
5350.0, 0.151792
5355.53, 0.151986
5361.07, 0.151857
5366.62, 0.151146
5372.18, 0.150241
5377.75, 0.149337
5383.34, 0.148238
5388.93, 0.147140
5394.54, 0.145977
5400.16, 0.144813
5405.79, 0.143456
5411.44, 0.141841
5417.09, 0.139321
5422.76, 0.136865
5428.43, 0.136154
5434.12, 0.134733
5439.83, 0.132471
5445.54, 0.130209
5451.26, 0.128077
5457.0, 0.125686
5462.75, 0.123166
5468.52, 0.122132
5474.29, 0.121679
5480.08, 0.121227
5485.88, 0.121679
5491.69, 0.121679
5497.51, 0.121486
5503.35, 0.121227
5509.2, 0.121033
5515.06, 0.120452
5520.93, 0.119870
5526.82, 0.119547
5532.71, 0.119418
5538.63, 0.119095
5544.55, 0.118513
5550.49, 0.117738
5556.44, 0.117350
5562.4, 0.117156
5568.37, 0.116574
5574.36, 0.114959
5580.36, 0.113990
5586.37, 0.114507
5592.4, 0.114377
5598.44, 0.113408
5604.49, 0.112827
5610.56, 0.112310
5616.63, 0.111469
5622.73, 0.110888
5628.83, 0.110242
5634.95, 0.108755
5641.08, 0.107140
5647.23, 0.107657
5653.39, 0.108045
5659.56, 0.108045
5665.74, 0.108174
5671.94, 0.107075
5678.15, 0.106688
5684.38, 0.107011
5690.62, 0.106494
5696.87, 0.106688
5703.14, 0.106300
5709.42, 0.104878
5715.72, 0.104684
5722.03, 0.104814
5728.35, 0.104684
5734.69, 0.103909
5741.03, 0.102875
5747.4, 0.101518
5753.78, 0.101130
5760.17, 0.0989980
5766.58, 0.0967360
5773.0, 0.0978350
5779.44, 0.0982220
5785.88, 0.0978350
5792.35, 0.0975120
5798.83, 0.0968650
5805.32, 0.0962840
5811.83, 0.0951210
5818.35, 0.0926650
5824.89, 0.0917600
5831.45, 0.0924710
5838.01, 0.0929240
5844.59, 0.0927940
5851.19, 0.0919540
5857.8, 0.0909200
5864.43, 0.0900160
5871.07, 0.0893050
5877.73, 0.0864620
5884.4, 0.0861380
5891.09, 0.0866550
5897.79, 0.0860740
5904.5, 0.0875600
5911.23, 0.0879480
5917.98, 0.0876250
5924.75, 0.0873020
5931.53, 0.0853630
5938.32, 0.0845880
5945.13, 0.0869140
5951.96, 0.0878830
5958.8, 0.0879480
5965.65, 0.0871080
5972.53, 0.0872370
5979.42, 0.0877540
5986.32, 0.0870430
5993.24, 0.0872370
6000.18, 0.0880770
6007.13, 0.0872370
6014.1, 0.0860740
6021.08, 0.0858150
6028.09, 0.0851050
6035.1, 0.0834890
6042.14, 0.0796760
6049.19, 0.0762520
6056.25, 0.0777380
6063.34, 0.0778670
6070.44, 0.0756700
6077.55, 0.0750880
6084.69, 0.0752820
6091.84, 0.0746360
6099.0, 0.0736020
6106.19, 0.0717930
6113.39, 0.0702420
6120.61, 0.0710170
6127.84, 0.0717930
6135.09, 0.0714700
6142.36, 0.0710820
6149.65, 0.0710170
6156.95, 0.0703710
6164.27, 0.0705650
6171.61, 0.0710170
6178.97, 0.0699190
6186.34, 0.0692730
6193.73, 0.0705650
6201.14, 0.0711470
6208.57, 0.0711470
6216.01, 0.0713400
6223.47, 0.0716640
6230.95, 0.0720510
6238.45, 0.0726330
6245.97, 0.0732790
6253.5, 0.0739250
6261.06, 0.0745710
6268.63, 0.0753470
6276.21, 0.0763160
6283.82, 0.0775440
6291.45, 0.0789010
6299.1, 0.0804520
6306.76, 0.0819380
6314.44, 0.0834890
6322.14, 0.0851690
6329.86, 0.0869140
6337.6, 0.0873660
6345.35, 0.0886590
6353.13, 0.0925360
6360.92, 0.0948620
6368.74, 0.0957020
6376.57, 0.0978990
6384.43, 0.0997090
6392.3, 0.100872
6400.19, 0.101324
6408.1, 0.0987390
6416.03, 0.0984160
6423.98, 0.102293
6431.95, 0.104426
6439.94, 0.105912
6447.95, 0.106817
6455.98, 0.107463
6464.03, 0.107786
6472.1, 0.106881
6480.19, 0.105783
6488.31, 0.104103
6496.44, 0.104491
6504.59, 0.107592
6512.76, 0.108174
6520.95, 0.107205
6529.16, 0.107980
6537.4, 0.107980
6545.65, 0.106946
6553.92, 0.106041
6562.22, 0.104943
6570.54, 0.102875
6578.88, 0.103004
6587.23, 0.103134
6595.61, 0.102617
6604.02, 0.102358
6612.44, 0.101260
6620.89, 0.0999030
6629.35, 0.0968010
6637.84, 0.0942810
6646.35, 0.0957020
6654.88, 0.0966720
6663.44, 0.0955080
6672.01, 0.0938930
6680.61, 0.0926000
6689.23, 0.0927940
6697.88, 0.0927940
6706.54, 0.0913730
6715.23, 0.0904680
6723.94, 0.0904680
6732.67, 0.0905330
6741.42, 0.0901450
6750.2, 0.0894990
6759.0, 0.0889170
6767.82, 0.0878190
6776.67, 0.0865260
6785.54, 0.0849750
6794.44, 0.0847170
6803.35, 0.0855570
6812.29, 0.0853630
6821.26, 0.0840710
6830.24, 0.0834240
6839.25, 0.0836180
6848.29, 0.0825840
6857.35, 0.0801290
6866.43, 0.0794180
6875.54, 0.0810980
6884.67, 0.0814860
6893.82, 0.0812270
6903.0, 0.0805170
6912.2, 0.0803230
6921.43, 0.0802580
6930.69, 0.0798700
6939.96, 0.0794180
6949.27, 0.0785130
6958.59, 0.0769620
6967.95, 0.0771560
6977.33, 0.0774790
6986.73, 0.0768980
6996.16, 0.0763810
7005.61, 0.0761870
7015.09, 0.0754760
7024.6, 0.0745710
7034.13, 0.0734730
7043.69, 0.0715340
7053.27, 0.0708880
7062.88, 0.0705650
7072.52, 0.0695960
7082.18, 0.0685620
7091.87, 0.0677220
7101.58, 0.0671400
7111.32, 0.0661710
7121.09, 0.0653950
7130.88, 0.0646850
7140.71, 0.0635860
7150.56, 0.0628110
7160.43, 0.0620350
7170.33, 0.0610660
7180.27, 0.0606780
7190.23, 0.0600320
7200.21, 0.0589980
7210.23, 0.0580290
7220.27, 0.0575760
7230.34, 0.0569950
7240.44, 0.0562190
7250.56, 0.0553790
7260.72, 0.0544750
7270.9, 0.0534410
7281.12, 0.0526650
7291.36, 0.0519540
7301.63, 0.0511790
7311.93, 0.0504680
7322.25, 0.0496930
7332.61, 0.0487880
7343.0, 0.0480130
7353.41, 0.0474310
7363.86, 0.0468490
7374.33, 0.0462680
7384.83, 0.0457510
7395.37, 0.0452340
7405.93, 0.0447170
7416.53, 0.0442650
7427.15, 0.0438120
7437.81, 0.0433600
7448.5, 0.0429080
7459.22, 0.0423260
7469.96, 0.0418740
7480.74, 0.0417450
7491.55, 0.0415510
7502.39, 0.0412920
7513.27, 0.0411630
7524.17, 0.0409040
7535.11, 0.0406460
7546.08, 0.0404520
7557.08, 0.0401290
7568.11, 0.0398060
7579.17, 0.0394830
7590.27, 0.0392240
7601.4, 0.0389660
7612.56, 0.0387070
7623.76, 0.0383200
7634.98, 0.0378670
7646.24, 0.0374800
7657.54, 0.0370920
7668.87, 0.0366400
7680.23, 0.0359930
7691.62, 0.0355410
7703.05, 0.0350890
7714.51, 0.0345720
7726.01, 0.0339900
7737.54, 0.0336020
7749.11, 0.0332790
7760.71, 0.0328920
7772.35, 0.0326330
7784.02, 0.0323100
7795.72, 0.0318580
7807.46, 0.0315350
7819.23, 0.0310820
7831.04, 0.0306300
7842.89, 0.0302420
7854.77, 0.0299190
7866.69, 0.0294020
7878.65, 0.0288210
7890.64, 0.0282390
7902.67, 0.0275930
7914.74, 0.0270110
7926.84, 0.0264300
7938.98, 0.0257190
7951.16, 0.0250080
7963.37, 0.0243620
7975.62, 0.0237800
7987.91, 0.0231340
8000.24, 0.0225520
8012.6, 0.0219710
8025.01, 0.0214540
8037.45, 0.0208720
8049.93, 0.0201610
8062.45, 0.0196440
8075.01, 0.0191920
8087.61, 0.0188040
8100.24, 0.0182230
8112.91, 0.0176410
8125.63, 0.0170600
8138.39, 0.0165430
8151.18, 0.0159610
8164.02, 0.0155090
8176.9, 0.0151860
8189.81, 0.0148630
8202.77, 0.0144750
8215.77, 0.0140870
8228.82, 0.0137640
8241.9, 0.0135700
8255.02, 0.0132470
8268.19, 0.0131180
8281.39, 0.0130530
8294.65, 0.0129890
8307.94, 0.0131820
8321.28, 0.0133760
8334.66, 0.0135700
8348.08, 0.0137640
8361.54, 0.0140230
8375.05, 0.0142810
8388.6, 0.0146690
8402.2, 0.0151210
8415.84, 0.0157670
8429.52, 0.0162200
8443.25, 0.0169300
8457.02, 0.0179000
8470.84, 0.0189980
8484.7, 0.0202260
8498.61, 0.0218420
8512.57, 0.0237800
8526.57, 0.0259770
8540.62, 0.0283680
8554.71, 0.0310180
8568.85, 0.0339900
8583.04, 0.0372210
8597.27, 0.0402580
8611.55, 0.0432950
8625.88, 0.0464620
8640.26, 0.0494340
8654.68, 0.0517610
8669.16, 0.0535700
8683.68, 0.0549270
8698.25, 0.0562190
8712.87, 0.0571890
8727.53, 0.0580930
8742.25, 0.0588690
8757.02, 0.0596440
8771.83, 0.0604200
8786.7, 0.0608720
8801.62, 0.0614540
8816.59, 0.0621640
8831.61, 0.0623580
8846.68, 0.0622290
8861.8, 0.0621640
8876.97, 0.0621000
8892.2, 0.0628110
8907.48, 0.0647490
8922.81, 0.0672690
8938.2, 0.0695960
8953.63, 0.0719870
8969.13, 0.0745710
8984.67, 0.0771560
9000.27, 0.0798700
9015.92, 0.0825840
9031.63, 0.0850400
9047.39, 0.0871720
9063.21, 0.0895630
9079.08, 0.0924070
9095.01, 0.0954440
9111.0, 0.0988690
9127.04, 0.102358
9143.13, 0.105395
9159.28, 0.108174
9175.49, 0.110759
9191.76, 0.112762
9208.09, 0.114377
9224.47, 0.115993
9240.92, 0.118190
9257.42, 0.120839
9273.98, 0.123553
9290.6, 0.125944
9307.28, 0.127948
9324.02, 0.129498
9340.82, 0.130662
9357.68, 0.132083
9374.6, 0.134603
9391.58, 0.138287
9408.62, 0.143198
9425.73, 0.149531
9442.9, 0.157220
9460.13, 0.165492
9477.42, 0.173182
9494.78, 0.179256
9512.2, 0.183198
9529.69, 0.185459
9547.24, 0.186106
9564.86, 0.185330
9582.54, 0.183973
9600.28, 0.183327
9618.1, 0.182293
9635.97, 0.178545
9653.92, 0.172535
9671.93, 0.166009
9690.01, 0.160128
9708.16, 0.155088
9726.37, 0.151599
9744.65, 0.150758
9763.0, 0.152115
9781.43, 0.154506
9799.92, 0.156510
9818.48, 0.157414
9837.1, 0.156897
9855.8, 0.155670
9874.58, 0.154054
9893.42, 0.152309
9912.34, 0.150758
9931.33, 0.149014
9950.39, 0.147334
9969.52, 0.145847
9988.74, 0.144426
10008.0, 0.143198
10027.4, 0.142229
10046.8, 0.141259
10066.3, 0.140355
10085.9, 0.139902
10105.6, 0.138998
10125.3, 0.137124
10145.1, 0.134151
10165.0, 0.130403
10185.0, 0.126591
10205.0, 0.122843
10225.2, 0.119224
10245.4, 0.116510
10265.7, 0.114184
10286.0, 0.112051
10306.5, 0.110177
10327.0, 0.108109
10347.6, 0.105718
10368.3, 0.103974
10389.1, 0.102487
10409.9, 0.100290
10430.9, 0.0977700
10451.9, 0.0954440
10473.0, 0.0930530
10494.2, 0.0907260
10515.5, 0.0878190
10536.9, 0.0842640
10558.4, 0.0807100
10579.9, 0.0772210
10601.5, 0.0734080
10623.3, 0.0694660
10645.1, 0.0659770
10667.0, 0.0631980
10689.0, 0.0607430
10711.1, 0.0587400
10733.2, 0.0574470
10755.5, 0.0573180
10777.9, 0.0588040
10800.3, 0.0608720
10822.9, 0.0626810
10845.5, 0.0642320
10868.2, 0.0648140
10891.1, 0.0642970
10914.0, 0.0628750
10937.0, 0.0611950
10960.2, 0.0595150
10983.4, 0.0580930
11006.7, 0.0568010
11030.1, 0.0558320
11053.6, 0.0551850
11077.3, 0.0547330
11101.0, 0.0542160
11124.8, 0.0541520
11148.7, 0.0541520
11172.7, 0.0538930
11196.9, 0.0533110
11221.1, 0.0522130
11245.4, 0.0513730
11269.9, 0.0505970
11294.4, 0.0494990
11319.1, 0.0483360
11343.9, 0.0473020
11368.8, 0.0463330
11393.7, 0.0451690
11418.8, 0.0443940
11444.0, 0.0438770
11469.4, 0.0432310
11494.8, 0.0427780
11520.3, 0.0425850
11546.0, 0.0423910
11571.8, 0.0420030
11597.7, 0.0416800
11623.7, 0.0412280
11649.8, 0.0407750
11676.0, 0.0401290
11702.4, 0.0388370
11728.9, 0.0382550
11755.5, 0.0384490
11782.2, 0.0388370
11809.0, 0.0390950
11836.0, 0.0389660
11863.0, 0.0388370
11890.3, 0.0387070
11917.6, 0.0384490
11945.0, 0.0379320
11972.6, 0.0374150
12000.4, 0.0370270
12028.2, 0.0365100
12056.2, 0.0357990
12084.3, 0.0350240
12112.5, 0.0346360
12140.9, 0.0341190
12169.4, 0.0336670
12198.0, 0.0332150
12226.8, 0.0326330
12255.7, 0.0321810
12284.7, 0.0319220
12313.9, 0.0314700
12343.2, 0.0309530
12372.7, 0.0300480
12402.3, 0.0294670
12432.0, 0.0288850
12461.9, 0.0282390
12491.9, 0.0276570
12522.1, 0.0273990
12552.4, 0.0267530
12582.9, 0.0261710
12613.5, 0.0255250
12644.3, 0.0246200
12675.2, 0.0241680
12706.3, 0.0242970
12737.5, 0.0234570
12768.9, 0.0224880
12800.4, 0.0220350
12832.1, 0.0219710
12863.9, 0.0220350
12895.9, 0.0224880
12928.1, 0.0235220
12960.4, 0.0255250
12992.9, 0.0279800
13025.5, 0.0305010
13058.3, 0.0325040
13091.3, 0.0341190
13124.4, 0.0354120
13157.8, 0.0350240
13191.2, 0.0329560
13224.9, 0.0307590
13258.7, 0.0284970
13292.7, 0.0261710
13326.9, 0.0245560
13361.2, 0.0239090
13395.7, 0.0230690
13430.4, 0.0224230
13465.3, 0.0218420
13500.4, 0.0210010
13535.7, 0.0210010
13571.1, 0.0210010
13606.7, 0.0201610
13642.5, 0.0199030
13678.5, 0.0206140
13714.7, 0.0216480
13751.1, 0.0222940
13787.6, 0.0226820
13824.4, 0.0235220
13861.4, 0.0245560
13898.5, 0.0253960
13935.9, 0.0259130
13973.5, 0.0266880
14011.2, 0.0280450
14049.2, 0.0291440
14087.4, 0.0298540
14125.8, 0.0307590
14164.3, 0.0322450
14203.2, 0.0339250
14242.2, 0.0361870
14281.4, 0.0389660
14320.9, 0.0425200
14360.5, 0.0465910
14400.4, 0.0513080
14440.5, 0.0562840
14480.9, 0.0610660
14521.4, 0.0652020
14562.2, 0.0680450
14603.3, 0.0699830
14644.5, 0.0709530
14686.0, 0.0708880
14727.7, 0.0706940
14769.7, 0.0708880
14811.9, 0.0708880
14854.3, 0.0699830
14897.0, 0.0684970
14939.9, 0.0655890
14983.1, 0.0637150
15026.5, 0.0636510
15070.2, 0.0625520
15114.2, 0.0610010
15158.3, 0.0604200
15202.8, 0.0599030
15247.5, 0.0595800
15292.5, 0.0589330
15337.7, 0.0584810
15383.2, 0.0582230
15429.0, 0.0575120
15475.1, 0.0568660
15521.4, 0.0560900
15568.0, 0.0557670
15614.9, 0.0550560
15662.1, 0.0541520
15709.6, 0.0536990
15757.3, 0.0530530
15805.4, 0.0526010
15853.7, 0.0524710
15902.3, 0.0516310
15951.2, 0.0507270
16000.5, 0.0501450
16050.0, 0.0494340
16099.8, 0.0486590
16150.0, 0.0478190
16200.5, 0.0465910
16251.3, 0.0455570
16302.4, 0.0446520
16353.8, 0.0431660
16405.5, 0.0418740
16457.6, 0.0407110
16510.0, 0.0397410
16562.8, 0.0390950
16615.9, 0.0381900
16669.3, 0.0376730
16723.1, 0.0376090
16777.2, 0.0377380
16831.7, 0.0382550
16886.5, 0.0392890
16941.7, 0.0404520
16997.2, 0.0415510
17053.1, 0.0436180
17109.4, 0.0460090
17166.1, 0.0484650
17223.1, 0.0507910
17280.5, 0.0530530
17338.3, 0.0547980
17396.5, 0.0571240
17455.1, 0.0599030
17514.0, 0.0628110
17573.4, 0.0660420
17633.2, 0.0689500
17693.4, 0.0715990
17754.0, 0.0733440
17815.0, 0.0739250
17876.4, 0.0744420
17938.3, 0.0740550
18000.5, 0.0733440
18063.3, 0.0735380
18126.4, 0.0743130
18190.0, 0.0752180
18254.1, 0.0769620
18318.6, 0.0801290
18383.5, 0.0836180
18449.0, 0.0860090
18514.9, 0.0891760
18581.2, 0.0932470
18648.0, 0.0980930
18715.4, 0.102423
18783.2, 0.106429
18851.5, 0.111082
18920.3, 0.115153
18989.6, 0.118319
19059.4, 0.122067
19129.7, 0.127560
19200.6, 0.134410
19272.0, 0.141389
19343.9, 0.145783
19416.3, 0.148368
19489.3, 0.150888
19562.8, 0.154054
19637.0, 0.156380
19711.6, 0.156703
19786.8, 0.156833
19862.6, 0.157220
19939.0, 0.158901
20016.0, 0.163101
20093.6, 0.166332
20171.8, 0.168206
20250.6, 0.170144
20330.0, 0.171049
20410.0, 0.170920
20490.7, 0.171243
20572.0, 0.173052
20654.0, 0.175443
20736.6, 0.176671
20819.9, 0.177640
20903.8, 0.178351
20988.5, 0.177447
21073.8, 0.176800
21159.8, 0.177382
21246.5, 0.180484
21334.0, 0.181518
21422.1, 0.180225
21511.0, 0.178804
21600.7, 0.176865
21691.0, 0.175379
21782.1, 0.176219
21874.0, 0.178351
21966.7, 0.181518
22060.2, 0.182681
22154.5, 0.179902
22249.6, 0.174668
22345.5, 0.168917
22442.2, 0.162713
22539.8, 0.155993
22638.2, 0.151922
22737.5, 0.147657
22837.7, 0.140678
22938.7, 0.134410
23040.7, 0.127495
23143.5, 0.121227
23247.3, 0.116768
23352.1, 0.112827
23457.7, 0.110371
23564.4, 0.109660
23672.0, 0.108045
23780.5, 0.105589
23890.1, 0.102552
24000.7, 0.0996440
24112.3, 0.0978990
24225.0, 0.0993860
24338.7, 0.0996440
24453.5, 0.0963480
24569.4, 0.0929240
24686.4, 0.0951850
24804.5, 0.0965420
24923.8, 0.0984810
