Database of Origin, USGS Spectral Database
Sample Description, See USGS database for additional info
Date Added,2016-08-10 02:51:52.066380

Data ID,USGS_gro06          
Sample ID, gross_ws484.8698
Mineral Name, gross
Material Class,Nesosilicate

Wavelength
1746.68, 0.620474
1747.27, 0.621185
1747.86, 0.621975
1748.45, 0.621975
1749.04, 0.621896
1749.63, 0.621659
1750.22, 0.621659
1750.81, 0.621580
1751.4, 0.622212
1751.99, 0.622687
1752.59, 0.623082
1753.18, 0.623082
1753.77, 0.623082
1754.37, 0.623161
1754.96, 0.623872
1755.56, 0.624030
1756.15, 0.624109
1756.74, 0.624030
1757.34, 0.624425
1757.94, 0.624662
1758.53, 0.624820
1759.13, 0.624583
1759.73, 0.624583
1760.32, 0.624425
1760.92, 0.624979
1761.52, 0.625216
1762.12, 0.625690
1762.72, 0.625848
1763.32, 0.626085
1763.92, 0.626164
1764.52, 0.626401
1765.12, 0.626480
1765.72, 0.627112
1766.32, 0.627033
1766.92, 0.627349
1767.53, 0.627428
1768.13, 0.627587
1768.73, 0.627508
1769.34, 0.627824
1769.94, 0.627508
1770.55, 0.627508
1771.15, 0.627666
1771.76, 0.627666
1772.36, 0.627982
1772.97, 0.628614
1773.57, 0.628772
1774.18, 0.629325
1774.79, 0.629009
1775.4, 0.629246
1776.0, 0.629483
1776.61, 0.629325
1777.22, 0.628851
1777.83, 0.629088
1778.44, 0.629167
1779.05, 0.629483
1779.66, 0.629325
1780.27, 0.629799
1780.88, 0.629720
1781.5, 0.630116
1782.11, 0.630590
1782.72, 0.630590
1783.33, 0.630353
1783.95, 0.630748
1784.56, 0.630827
1785.18, 0.631064
1785.79, 0.631380
1786.41, 0.631617
1787.02, 0.631222
1787.64, 0.631380
1788.26, 0.631538
1788.87, 0.632012
1789.49, 0.631854
1790.11, 0.632091
1790.73, 0.632091
1791.35, 0.632407
1791.96, 0.632328
1792.58, 0.632882
1793.21, 0.632724
1793.83, 0.632487
1794.45, 0.632645
1795.07, 0.632961
1795.69, 0.633119
1796.31, 0.633909
1796.93, 0.634067
1797.56, 0.634304
1798.18, 0.634462
1798.8, 0.634620
1799.43, 0.634383
1800.05, 0.634699
1800.68, 0.634778
1801.3, 0.635253
1801.93, 0.635174
1802.56, 0.635332
1803.18, 0.635015
1803.81, 0.635490
1804.44, 0.635727
1805.07, 0.636043
1805.7, 0.636201
1806.33, 0.636596
1806.95, 0.636201
1807.58, 0.636280
1808.22, 0.636596
1808.85, 0.636754
1809.48, 0.636596
1810.11, 0.637307
1810.74, 0.637307
1811.38, 0.636991
1812.01, 0.637149
1812.64, 0.637782
1813.28, 0.637782
1813.91, 0.638177
1814.55, 0.638335
1815.18, 0.638888
1815.82, 0.639046
1816.45, 0.639204
1817.09, 0.639283
1817.73, 0.639599
1818.36, 0.639757
1819.0, 0.639994
1819.64, 0.640153
1820.28, 0.641101
1820.92, 0.641022
1821.56, 0.641259
1822.2, 0.641101
1822.84, 0.640864
1823.48, 0.640864
1824.12, 0.641338
1824.76, 0.641180
1825.41, 0.642128
1826.05, 0.643788
1826.69, 0.643393
1827.34, 0.642207
1827.98, 0.642523
1828.63, 0.642761
1829.27, 0.643314
1829.92, 0.643867
1830.56, 0.644657
1831.21, 0.644657
1831.86, 0.644341
1832.5, 0.644262
1833.15, 0.644183
1833.8, 0.644262
1834.45, 0.645290
1835.1, 0.645685
1835.75, 0.646317
1836.4, 0.646633
1837.05, 0.646870
1837.7, 0.647107
1838.35, 0.646475
1839.01, 0.646317
1839.66, 0.647660
1840.31, 0.647423
1840.96, 0.647107
1841.62, 0.648293
1842.27, 0.648135
1842.93, 0.646870
1843.58, 0.646712
1844.24, 0.646949
1844.9, 0.647265
1845.55, 0.647344
1846.21, 0.648609
1846.87, 0.650110
1847.53, 0.650348
1848.18, 0.649952
1848.84, 0.649241
1849.5, 0.648530
1850.16, 0.648846
1850.82, 0.649004
1851.48, 0.649004
1852.14, 0.649004
1852.81, 0.649952
1853.47, 0.651296
1854.13, 0.651375
1854.8, 0.650268
1855.46, 0.650348
1856.12, 0.651059
1856.79, 0.651612
1857.45, 0.650664
1858.12, 0.650585
1858.79, 0.651296
1859.45, 0.652797
1860.12, 0.652481
1860.79, 0.651454
1861.46, 0.650664
1862.12, 0.650980
1862.79, 0.651138
1863.46, 0.651849
1864.13, 0.652007
1864.8, 0.651928
1865.48, 0.651612
1866.15, 0.651928
1866.82, 0.652797
1867.49, 0.654378
1868.16, 0.654062
1868.84, 0.653193
1869.51, 0.653193
1870.19, 0.654536
1870.86, 0.655722
1871.54, 0.654457
1872.21, 0.654299
1872.89, 0.655959
1873.56, 0.655326
1874.24, 0.654062
1874.92, 0.654062
1875.6, 0.654457
1876.28, 0.654457
1876.96, 0.655089
1877.64, 0.654220
1878.32, 0.654062
1879.0, 0.654141
1879.68, 0.654536
1880.36, 0.654536
1881.04, 0.654694
1881.73, 0.654457
1882.41, 0.654694
1883.09, 0.655406
1883.78, 0.656354
1884.46, 0.656117
1885.15, 0.655801
1885.83, 0.655484
1886.52, 0.655880
1887.21, 0.655643
1887.89, 0.655959
1888.58, 0.656117
1889.27, 0.656591
1889.96, 0.657460
1890.65, 0.657065
1891.34, 0.656749
1892.03, 0.657539
1892.72, 0.657381
1893.41, 0.657460
1894.1, 0.657223
1894.79, 0.657144
1895.49, 0.657065
1896.18, 0.657539
1896.87, 0.657697
1897.57, 0.658330
1898.26, 0.658567
1898.96, 0.659910
1899.65, 0.660463
1900.35, 0.659673
1901.05, 0.658646
1901.74, 0.658962
1902.44, 0.659989
1903.14, 0.660147
1903.84, 0.659357
1904.54, 0.660305
1905.24, 0.661254
1905.94, 0.661017
1906.64, 0.661096
1907.34, 0.660701
1908.04, 0.660226
1908.75, 0.660463
1909.45, 0.660305
1910.15, 0.660780
1910.86, 0.661333
1911.56, 0.661570
1912.27, 0.661017
1912.97, 0.662202
1913.68, 0.663072
1914.39, 0.662518
1915.09, 0.661728
1915.8, 0.662044
1916.51, 0.662123
1917.22, 0.662044
1917.93, 0.662123
1918.64, 0.662676
1919.35, 0.663783
1920.06, 0.665047
1920.77, 0.664731
1921.48, 0.663783
1922.19, 0.663388
1922.91, 0.663862
1923.62, 0.664257
1924.33, 0.664494
1925.05, 0.664178
1925.76, 0.664415
1926.48, 0.664573
1927.19, 0.665047
1927.91, 0.665284
1928.63, 0.665601
1929.35, 0.665126
1930.07, 0.665522
1930.78, 0.665759
1931.5, 0.666154
1932.22, 0.665996
1932.94, 0.666154
1933.66, 0.666391
1934.39, 0.666549
1935.11, 0.666549
1935.83, 0.667023
1936.55, 0.667102
1937.28, 0.667181
1938.0, 0.667339
1938.73, 0.667734
1939.45, 0.667576
1940.18, 0.667813
1940.9, 0.668050
1941.63, 0.668288
1942.36, 0.668130
1943.09, 0.667971
1943.81, 0.668050
1944.54, 0.668604
1945.27, 0.668762
1946.0, 0.668762
1946.73, 0.668446
1947.47, 0.668683
1948.2, 0.668920
1948.93, 0.668920
1949.66, 0.669078
1950.4, 0.669868
1951.13, 0.669868
1951.86, 0.670105
1952.6, 0.670026
1953.34, 0.669789
1954.07, 0.669631
1954.81, 0.670105
1955.55, 0.670105
1956.29, 0.670342
1957.02, 0.670342
1957.76, 0.670421
1958.5, 0.670105
1959.24, 0.670263
1959.98, 0.670500
1960.72, 0.671133
1961.47, 0.671212
1962.21, 0.671528
1962.95, 0.671449
1963.7, 0.671686
1964.44, 0.671686
1965.18, 0.671607
1965.93, 0.671133
1966.67, 0.671212
1967.42, 0.671212
1968.17, 0.671449
1968.92, 0.671686
1969.66, 0.672239
1970.41, 0.672160
1971.16, 0.672160
1971.91, 0.672160
1972.66, 0.672476
1973.41, 0.672476
1974.16, 0.672792
1974.92, 0.672871
1975.67, 0.673109
1976.42, 0.673029
1977.18, 0.673109
1977.93, 0.673029
1978.69, 0.673188
1979.44, 0.673662
1980.2, 0.673820
1980.95, 0.673504
1981.71, 0.673662
1982.47, 0.673899
1983.23, 0.674294
1983.99, 0.674057
1984.74, 0.674452
1985.51, 0.674610
1986.27, 0.674531
1987.03, 0.674610
1987.79, 0.675084
1988.55, 0.675321
1989.32, 0.675796
1990.08, 0.675637
1990.84, 0.675717
1991.61, 0.675796
1992.37, 0.676191
1993.14, 0.676507
1993.9, 0.676586
1994.67, 0.676665
1995.44, 0.677139
1996.21, 0.677218
1996.98, 0.677297
1997.75, 0.677139
1998.52, 0.677692
1999.29, 0.678167
2000.06, 0.678087
2000.83, 0.677692
2001.6, 0.678087
2002.38, 0.678325
2003.15, 0.678562
2003.93, 0.678483
2004.7, 0.678799
2005.48, 0.678878
2006.25, 0.679036
2007.03, 0.678878
2007.81, 0.679273
2008.58, 0.679589
2009.36, 0.680063
2010.14, 0.679826
2010.92, 0.679905
2011.7, 0.680142
2012.48, 0.680063
2013.26, 0.680063
2014.05, 0.680696
2014.83, 0.680616
2015.61, 0.680854
2016.4, 0.681012
2017.18, 0.681091
2017.97, 0.681012
2018.75, 0.681328
2019.54, 0.681565
2020.32, 0.681960
2021.11, 0.681960
2021.9, 0.682355
2022.69, 0.682434
2023.48, 0.682592
2024.27, 0.682434
2025.06, 0.682750
2025.85, 0.682671
2026.64, 0.683066
2027.44, 0.683224
2028.23, 0.683462
2029.02, 0.683383
2029.82, 0.683462
2030.61, 0.683462
2031.41, 0.683620
2032.2, 0.683699
2033.0, 0.684015
2033.8, 0.684331
2034.6, 0.684410
2035.4, 0.684331
2036.2, 0.684726
2037.0, 0.684647
2037.8, 0.684884
2038.6, 0.684805
2039.4, 0.684805
2040.2, 0.684963
2041.01, 0.685200
2041.81, 0.685279
2042.61, 0.685200
2043.42, 0.685042
2044.22, 0.685358
2045.03, 0.685437
2045.84, 0.685516
2046.65, 0.685279
2047.46, 0.685833
2048.26, 0.686070
2049.07, 0.686149
2049.88, 0.686228
2050.69, 0.686465
2051.51, 0.686465
2052.32, 0.686623
2053.13, 0.686149
2053.94, 0.685991
2054.76, 0.686544
2055.57, 0.686860
2056.39, 0.686465
2057.2, 0.686702
2058.02, 0.686781
2058.84, 0.686781
2059.66, 0.686702
2060.48, 0.687097
2061.29, 0.687334
2062.11, 0.687334
2062.94, 0.687255
2063.76, 0.687097
2064.58, 0.686702
2065.4, 0.686860
2066.22, 0.686939
2067.05, 0.687176
2067.87, 0.687176
2068.7, 0.687255
2069.52, 0.687334
2070.35, 0.687334
2071.18, 0.687018
2072.0, 0.687334
2072.83, 0.687492
2073.66, 0.687650
2074.49, 0.687650
2075.32, 0.687571
2076.15, 0.687255
2076.98, 0.687492
2077.82, 0.687334
2078.65, 0.687334
2079.48, 0.687334
2080.32, 0.687255
2081.15, 0.687334
2081.99, 0.687729
2082.83, 0.687966
2083.66, 0.688362
2084.5, 0.687887
2085.34, 0.687966
2086.18, 0.688282
2087.02, 0.688441
2087.86, 0.688520
2088.7, 0.688678
2089.54, 0.688599
2090.39, 0.688915
2091.23, 0.688994
2092.07, 0.689073
2092.92, 0.688915
2093.76, 0.689073
2094.61, 0.689073
2095.45, 0.689389
2096.3, 0.689152
2097.15, 0.689152
2098.0, 0.689310
2098.85, 0.689547
2099.7, 0.689468
2100.55, 0.689626
2101.4, 0.689626
2102.25, 0.689784
2103.1, 0.689863
2103.96, 0.690258
2104.81, 0.690495
2105.67, 0.690337
2106.52, 0.690021
2107.38, 0.690416
2108.24, 0.690653
2109.09, 0.690653
2109.95, 0.690653
2110.81, 0.690811
2111.67, 0.690811
2112.53, 0.691128
2113.39, 0.691365
2114.25, 0.691523
2115.12, 0.691365
2115.98, 0.691444
2116.84, 0.691602
2117.71, 0.691681
2118.58, 0.691602
2119.44, 0.691839
2120.31, 0.692155
2121.18, 0.692392
2122.04, 0.692392
2122.91, 0.692392
2123.78, 0.692076
2124.65, 0.692155
2125.52, 0.692234
2126.4, 0.692471
2127.27, 0.692392
2128.14, 0.692708
2129.02, 0.692787
2129.89, 0.692708
2130.77, 0.692550
2131.64, 0.692471
2132.52, 0.692392
2133.4, 0.692629
2134.27, 0.692550
2135.15, 0.692866
2136.03, 0.692708
2136.91, 0.692787
2137.79, 0.692392
2138.68, 0.692471
2139.56, 0.692708
2140.44, 0.692787
2141.33, 0.692392
2142.21, 0.692392
2143.1, 0.692471
2143.99, 0.692313
2144.87, 0.691839
2145.76, 0.692076
2146.65, 0.691918
2147.54, 0.691997
2148.43, 0.691839
2149.32, 0.691602
2150.21, 0.691286
2151.1, 0.691365
2151.99, 0.691286
2152.89, 0.691207
2153.78, 0.690970
2154.68, 0.690811
2155.57, 0.690653
2156.47, 0.690653
2157.37, 0.690258
2158.27, 0.689942
2159.16, 0.689468
2160.06, 0.689310
2160.96, 0.689073
2161.86, 0.689073
2162.77, 0.688678
2163.67, 0.688520
2164.57, 0.688045
2165.48, 0.687887
2166.38, 0.687650
2167.29, 0.687334
2168.2, 0.686544
2169.1, 0.686386
2170.01, 0.686228
2170.92, 0.686149
2171.83, 0.685516
2172.74, 0.685358
2173.65, 0.685042
2174.56, 0.684884
2175.47, 0.684410
2176.39, 0.684331
2177.3, 0.684094
2178.22, 0.684015
2179.13, 0.683699
2180.05, 0.683383
2180.96, 0.682829
2181.88, 0.682592
2182.8, 0.682434
2183.72, 0.682671
2184.64, 0.682434
2185.56, 0.682592
2186.48, 0.682355
2187.41, 0.682039
2188.33, 0.681881
2189.25, 0.681881
2190.18, 0.681486
2191.1, 0.681328
2192.03, 0.681407
2192.96, 0.681170
2193.89, 0.680933
2194.82, 0.681091
2195.74, 0.680854
2196.68, 0.680854
2197.61, 0.680616
2198.54, 0.680616
2199.47, 0.680300
2200.4, 0.680537
2201.34, 0.680696
2202.28, 0.681091
2203.21, 0.681249
2204.15, 0.681486
2205.08, 0.681407
2206.02, 0.681723
2206.96, 0.681802
2207.9, 0.681960
2208.84, 0.681802
2209.78, 0.682118
2210.73, 0.682434
2211.67, 0.682750
2212.61, 0.682750
2213.56, 0.682987
2214.5, 0.683066
2215.45, 0.683541
2216.4, 0.683383
2217.35, 0.683383
2218.3, 0.683462
2219.24, 0.683620
2220.2, 0.683462
2221.15, 0.683857
2222.1, 0.683936
2223.05, 0.683936
2224.0, 0.683857
2224.96, 0.684173
2225.91, 0.684410
2226.87, 0.684489
2227.83, 0.684015
2228.79, 0.684015
2229.74, 0.683778
2230.7, 0.683857
2231.66, 0.683778
2232.63, 0.684094
2233.59, 0.684173
2234.55, 0.684173
2235.51, 0.684331
2236.48, 0.684568
2237.44, 0.684489
2238.41, 0.684647
2239.38, 0.684647
2240.34, 0.684805
2241.31, 0.684963
2242.28, 0.685279
2243.25, 0.685042
2244.22, 0.685279
2245.19, 0.685200
2246.17, 0.685437
2247.14, 0.685437
2248.12, 0.685674
2249.09, 0.685595
2250.07, 0.685358
2251.04, 0.684805
2252.02, 0.684647
2253.0, 0.684252
2253.98, 0.684331
2254.96, 0.684094
2255.94, 0.683778
2256.92, 0.683145
2257.91, 0.682750
2258.89, 0.682197
2259.88, 0.681960
2260.86, 0.681960
2261.85, 0.682276
2262.83, 0.682434
2263.82, 0.683224
2264.81, 0.683699
2265.8, 0.684489
2266.79, 0.685121
2267.78, 0.685754
2268.78, 0.685991
2269.77, 0.686860
2270.76, 0.687176
2271.76, 0.687255
2272.75, 0.687334
2273.75, 0.687571
2274.75, 0.687502
2275.75, 0.687779
2276.75, 0.687571
2277.75, 0.687156
2278.75, 0.686810
2279.75, 0.686948
2280.75, 0.686810
2281.76, 0.686672
2282.76, 0.686256
2283.77, 0.686326
2284.77, 0.686118
2285.78, 0.686118
2286.79, 0.686118
2287.8, 0.686118
2288.81, 0.685980
2289.82, 0.686395
2290.83, 0.686879
2291.84, 0.686810
2292.86, 0.686879
2293.87, 0.687018
2294.89, 0.687502
2295.91, 0.687917
2296.92, 0.687502
2297.94, 0.687225
2298.96, 0.686948
2299.98, 0.687087
2301.0, 0.687087
2302.02, 0.686948
2303.04, 0.686672
2304.07, 0.686741
2305.09, 0.686326
2306.12, 0.686326
2307.15, 0.685841
2308.17, 0.685703
2309.2, 0.685772
2310.23, 0.685564
2311.26, 0.684734
2312.29, 0.684803
2313.32, 0.684042
2314.35, 0.683765
2315.39, 0.683558
2316.42, 0.683419
2317.46, 0.683004
2318.5, 0.683142
2319.53, 0.682796
2320.57, 0.681897
2321.61, 0.681205
2322.65, 0.680790
2323.69, 0.680305
2324.73, 0.680028
2325.78, 0.679544
2326.82, 0.679267
2327.86, 0.678990
2328.91, 0.678575
2329.96, 0.677745
2331.01, 0.677330
2332.05, 0.676361
2333.1, 0.675876
2334.15, 0.675600
2335.21, 0.674977
2336.26, 0.673939
2337.31, 0.673593
2338.36, 0.672901
2339.42, 0.672278
2340.48, 0.671586
2341.53, 0.670825
2342.59, 0.669856
2343.65, 0.669579
2344.71, 0.669372
2345.77, 0.668956
2346.83, 0.668610
2347.9, 0.668264
2348.96, 0.667642
2350.02, 0.667088
2351.09, 0.666950
2352.16, 0.666950
2353.23, 0.666119
2354.29, 0.665635
2355.36, 0.665427
2356.43, 0.664943
2357.51, 0.664112
2358.58, 0.663490
2359.65, 0.663213
2360.73, 0.663282
2361.8, 0.663351
2362.88, 0.663351
2363.96, 0.662867
2365.03, 0.662798
2366.11, 0.662659
2367.19, 0.663005
2368.27, 0.662728
2369.36, 0.663351
2370.44, 0.663905
2371.53, 0.664043
2372.61, 0.663628
2373.7, 0.663697
2374.78, 0.663974
2375.87, 0.664112
2376.96, 0.663628
2378.05, 0.664043
2379.14, 0.664528
2380.24, 0.664666
2381.33, 0.664389
2382.42, 0.664528
2383.52, 0.664735
2384.61, 0.665358
2385.71, 0.665496
2386.81, 0.665704
2387.91, 0.666119
2389.01, 0.666465
2390.11, 0.666534
2391.22, 0.667019
2392.32, 0.667296
2393.42, 0.667642
2394.53, 0.667711
2395.64, 0.667988
2396.74, 0.667918
2397.85, 0.668472
2398.96, 0.668403
2400.07, 0.668264
2401.18, 0.668334
2402.3, 0.667988
2403.41, 0.668057
2404.52, 0.668264
2405.64, 0.667918
2406.76, 0.667572
2407.88, 0.667780
2408.99, 0.667642
2410.11, 0.667226
2411.23, 0.667434
2412.36, 0.667503
2413.48, 0.667157
2414.6, 0.666465
2415.73, 0.665912
2416.85, 0.665427
2417.98, 0.665289
2419.11, 0.665220
2420.24, 0.665150
2421.37, 0.664528
2422.5, 0.663905
2423.64, 0.663559
2424.77, 0.663559
2425.9, 0.662867
2427.04, 0.662313
2428.18, 0.661967
2429.31, 0.662175
2430.45, 0.662244
2431.59, 0.662036
2432.73, 0.661483
2433.88, 0.660929
2435.02, 0.660652
2436.16, 0.660514
2437.31, 0.660168
2438.45, 0.659891
2439.6, 0.659684
2440.75, 0.659476
2441.9, 0.659130
2443.05, 0.659061
2444.2, 0.658576
2445.35, 0.658438
2446.51, 0.658230
2447.67, 0.657884
2448.82, 0.657608
2449.98, 0.657954
2451.14, 0.657469
2452.3, 0.656916
2453.46, 0.656639
2454.62, 0.656500
2455.78, 0.656154
2456.94, 0.656154
2458.11, 0.655808
2459.28, 0.655116
2460.44, 0.654286
2461.61, 0.654078
2462.78, 0.653940
2463.95, 0.653248
2465.12, 0.652487
2466.3, 0.652348
2467.47, 0.651795
2468.65, 0.651380
2469.82, 0.651103
2471.0, 0.651172
2472.18, 0.650895
2473.36, 0.650342
2474.54, 0.649926
2475.72, 0.649788
2476.9, 0.649442
2478.08, 0.649373
2479.27, 0.649096
2480.46, 0.649027
2481.64, 0.648750
2482.83, 0.648612
2484.02, 0.648404
2485.21, 0.648058
2486.4, 0.647504
2487.6, 0.647435
2488.79, 0.647712
2489.99, 0.647712
2491.18, 0.647435
2492.38, 0.647228
2493.58, 0.647297
2494.78, 0.647435
2495.98, 0.647366
2497.18, 0.646882
2498.39, 0.646882
2499.59, 0.647158
2500.8, 0.647089
2502.01, 0.647574
2503.21, 0.647781
2504.42, 0.648058
2505.63, 0.648196
2506.84, 0.648473
2508.06, 0.648473
2509.27, 0.648681
2510.49, 0.648958
2511.7, 0.649027
2512.92, 0.649096
2514.14, 0.649096
2515.36, 0.649304
2516.58, 0.649926
2517.8, 0.649719
2519.03, 0.649996
2520.25, 0.650065
2521.48, 0.649650
2522.7, 0.649857
2523.93, 0.650480
2525.16, 0.650549
2526.39, 0.650895
2527.62, 0.651103
2528.86, 0.651380
2530.09, 0.651933
2531.33, 0.652694
2532.56, 0.653110
2533.8, 0.652833
2535.04, 0.653525
2536.28, 0.654217
2537.52, 0.652902
2538.76, 0.652210
2540.01, 0.652002
2541.25, 0.653317
2542.5, 0.655393
2543.75, 0.655186
2544.99, 0.653871
2546.24, 0.654078
2547.49, 0.655601
2548.75, 0.655116
2550.0, 0.655393
2551.26, 0.657123
2552.51, 0.658161
2553.77, 0.656293
2555.03, 0.653940
2556.29, 0.653594
2557.55, 0.653594
2558.81, 0.655739
2560.08, 0.661068
2561.34, 0.665358
2562.61, 0.664666
2563.88, 0.663628
2565.14, 0.658853
2566.41, 0.654355
2567.68, 0.655393
2568.96, 0.660237
2570.23, 0.658853
2571.51, 0.655947
2572.78, 0.662036
2574.06, 0.660722
2575.34, 0.657608
2576.62, 0.660099
2577.9, 0.656500
2579.18, 0.654078
2580.47, 0.658023
2581.75, 0.658992
2583.04, 0.664804
2584.32, 0.665081
2585.61, 0.658922
2586.9, 0.661414
2588.2, 0.659684
2589.49, 0.656085
2590.78, 0.652764
2592.08, 0.655324
2593.37, 0.672209
2594.67, 0.688056
2595.97, 0.671378
2597.27, 0.654978
2598.57, 0.649442
2599.88, 0.650757
2601.18, 0.653802
2602.49, 0.655462
2603.79, 0.659407
2605.1, 0.666050
2606.41, 0.661275
2607.72, 0.654840
2609.03, 0.653110
2610.35, 0.650826
2611.66, 0.648542
2612.98, 0.648888
2614.3, 0.647574
2615.62, 0.655393
2616.94, 0.659753
2618.26, 0.651864
2619.58, 0.655670
2620.91, 0.653940
2622.23, 0.642730
2623.56, 0.640100
2624.89, 0.643560
2626.22, 0.651587
2627.55, 0.646743
2628.88, 0.648473
2630.21, 0.656708
2631.55, 0.648335
2632.89, 0.643214
2634.22, 0.642730
2635.56, 0.638439
2636.9, 0.637747
2638.25, 0.637540
2639.59, 0.638024
2640.93, 0.638647
2642.28, 0.639200
2643.63, 0.638785
2644.98, 0.642107
2646.33, 0.641415
2647.68, 0.638439
2649.03, 0.637401
2650.39, 0.639270
2651.74, 0.643906
2653.1, 0.643768
2654.46, 0.641830
2655.82, 0.641761
2657.18, 0.638232
2658.54, 0.641484
2659.9, 0.643352
2661.27, 0.642107
2662.64, 0.641553
2664.01, 0.652141
2665.38, 0.662244
2666.74, 0.660998
2668.12, 0.651380
2669.49, 0.661068
2670.87, 0.661275
2672.24, 0.643422
2673.62, 0.639962
2675.0, 0.645844
2676.38, 0.651726
2677.76, 0.649511
2679.15, 0.646259
2680.54, 0.636986
2681.92, 0.633388
2683.31, 0.633526
2684.7, 0.630758
2686.09, 0.628474
2687.48, 0.624530
2688.88, 0.620032
2690.27, 0.615603
2691.67, 0.615050
2693.07, 0.619824
2694.47, 0.616780
2695.87, 0.606123
2697.27, 0.595120
2698.67, 0.587370
2700.08, 0.583494
2701.49, 0.576021
2702.9, 0.562042
2704.31, 0.546196
2705.72, 0.523913
2707.13, 0.489659
2708.54, 0.441773
2709.96, 0.389596
2711.38, 0.362885
2712.8, 0.376448
2714.22, 0.410771
2715.64, 0.432708
2717.06, 0.431185
2718.49, 0.414231
2719.91, 0.400806
2721.34, 0.383299
2722.77, 0.366483
2724.2, 0.348491
2725.63, 0.311331
2727.07, 0.266628
2728.5, 0.235488
2729.94, 0.227460
2731.38, 0.231059
2732.82, 0.230021
2734.26, 0.228706
2735.7, 0.236526
2737.15, 0.254864
2738.59, 0.276800
2740.04, 0.286626
2741.49, 0.277423
2742.94, 0.257286
2744.39, 0.239086
2745.84, 0.235972
2747.3, 0.243999
2748.76, 0.247805
2750.21, 0.241508
2751.67, 0.230505
2753.14, 0.223793
2754.6, 0.231751
2756.06, 0.247321
2757.53, 0.258393
2759.0, 0.264413
2760.46, 0.265728
2761.94, 0.265590
2763.41, 0.261438
2764.88, 0.251127
2766.36, 0.238186
2767.83, 0.227391
2769.31, 0.226838
2770.79, 0.237425
2772.27, 0.250296
2773.76, 0.264828
2775.24, 0.283928
2776.73, 0.303304
2778.22, 0.318320
2779.71, 0.331468
2781.2, 0.346415
2782.69, 0.361155
2784.18, 0.372227
2785.68, 0.380185
2787.18, 0.381707
2788.68, 0.375064
2790.18, 0.368559
2791.68, 0.368559
2793.19, 0.374718
2794.69, 0.382330
2796.2, 0.387243
2797.71, 0.387935
2799.22, 0.384614
2800.73, 0.379424
2802.24, 0.373403
2803.76, 0.363438
2805.28, 0.352090
2806.8, 0.343163
2808.32, 0.338665
2809.84, 0.339772
2811.36, 0.346208
2812.89, 0.357003
2814.42, 0.369459
2815.94, 0.380531
2817.48, 0.390011
2819.01, 0.398661
2820.54, 0.404820
2822.08, 0.408695
2823.61, 0.411325
2825.15, 0.413262
2826.69, 0.414785
2828.23, 0.415823
2829.78, 0.416238
2831.32, 0.417207
2832.87, 0.419560
2834.42, 0.424196
2835.97, 0.431462
2837.52, 0.440804
2839.08, 0.450423
2840.63, 0.459004
2842.19, 0.466962
2843.75, 0.474020
2845.31, 0.480040
2846.87, 0.485161
2848.44, 0.489382
2850.0, 0.492773
2851.57, 0.495264
2853.14, 0.497756
2854.71, 0.499624
2856.28, 0.500316
2857.86, 0.500731
2859.43, 0.501285
2861.01, 0.501492
2862.59, 0.501631
2864.17, 0.501977
2865.76, 0.503015
2867.34, 0.503776
2868.93, 0.504191
2870.52, 0.505022
2872.11, 0.505714
2873.7, 0.506336
2875.29, 0.507305
2876.89, 0.508551
2878.49, 0.509381
2880.08, 0.509935
2881.69, 0.510904
2883.29, 0.511665
2884.89, 0.512011
2886.5, 0.512564
2888.11, 0.512703
2889.72, 0.512841
2891.33, 0.513049
2892.94, 0.513395
2894.56, 0.513602
2896.17, 0.513741
2897.79, 0.514018
2899.42, 0.514848
2901.04, 0.514986
2902.66, 0.514848
2904.29, 0.515125
2905.92, 0.515194
2907.55, 0.515263
2909.18, 0.515263
2910.81, 0.515125
2912.45, 0.515056
2914.08, 0.515194
2915.72, 0.515609
2917.36, 0.515678
2919.01, 0.515817
2920.65, 0.516024
2922.3, 0.516370
2923.94, 0.516440
2925.59, 0.516509
2927.25, 0.516716
2928.9, 0.516855
2930.56, 0.516993
2932.21, 0.517408
2933.87, 0.517685
2935.53, 0.517962
2937.2, 0.518239
2938.86, 0.518654
2940.53, 0.519277
2942.2, 0.519900
2943.87, 0.520246
2945.54, 0.520661
2947.22, 0.521214
2948.89, 0.521491
2950.57, 0.521630
2952.25, 0.521906
2953.93, 0.522183
2955.62, 0.522668
2957.3, 0.522668
2958.99, 0.522737
2960.68, 0.522806
2962.37, 0.523083
2964.07, 0.523014
2965.76, 0.523083
2967.46, 0.523014
2969.16, 0.523083
2970.86, 0.523014
2972.56, 0.523083
2974.27, 0.523152
2975.98, 0.522875
2977.69, 0.522737
2979.4, 0.522944
2981.11, 0.522806
2982.83, 0.522668
2984.54, 0.522598
2986.26, 0.522598
2987.98, 0.522529
2989.71, 0.522460
2991.43, 0.522391
2993.16, 0.522460
2994.89, 0.522460
2996.62, 0.522875
2998.35, 0.523152
3000.09, 0.523290
3001.83, 0.523567
3003.57, 0.523982
3005.31, 0.524052
3007.05, 0.524121
3008.79, 0.524467
3010.54, 0.525090
3012.29, 0.525782
3014.04, 0.526404
3015.8, 0.526750
3017.55, 0.527581
3019.31, 0.527996
3021.07, 0.528480
3022.83, 0.529034
3024.59, 0.529657
3026.36, 0.530141
3028.13, 0.530556
3029.9, 0.530902
3031.67, 0.531525
3033.44, 0.531871
3035.22, 0.532217
3037.0, 0.532771
3038.78, 0.533048
3040.56, 0.533255
3042.34, 0.533532
3044.13, 0.533809
3045.92, 0.534293
3047.71, 0.534501
3049.5, 0.534708
3051.3, 0.534985
3053.09, 0.535262
3054.89, 0.535400
3056.69, 0.535539
3058.5, 0.535746
3060.3, 0.536162
3062.11, 0.536438
3063.92, 0.536784
3065.73, 0.537130
3067.55, 0.537407
3069.36, 0.537615
3071.18, 0.538168
3073.0, 0.538584
3074.82, 0.538791
3076.65, 0.539206
3078.48, 0.539622
3080.31, 0.540037
3082.14, 0.540660
3083.97, 0.540867
3085.8, 0.541421
3087.64, 0.541974
3089.48, 0.542528
3091.33, 0.542943
3093.17, 0.543428
3095.02, 0.544050
3096.87, 0.544604
3098.72, 0.544950
3100.57, 0.545434
3102.43, 0.545780
3104.28, 0.546334
3106.14, 0.546818
3108.01, 0.547303
3109.87, 0.547995
3111.74, 0.548756
3113.61, 0.549240
3115.48, 0.549794
3117.35, 0.550071
3119.23, 0.550624
3121.1, 0.551040
3122.98, 0.551524
3124.87, 0.552008
3126.75, 0.552424
3128.64, 0.553046
3130.53, 0.553600
3132.42, 0.554015
3134.31, 0.554430
3136.21, 0.554846
3138.11, 0.555468
3140.01, 0.555814
3141.91, 0.555953
3143.82, 0.556299
3145.73, 0.557060
3147.64, 0.557475
3149.55, 0.557960
3151.46, 0.558444
3153.38, 0.558998
3155.3, 0.559344
3157.22, 0.559966
3159.14, 0.560589
3161.07, 0.561212
3163.0, 0.561766
3164.93, 0.562388
3166.86, 0.563080
3168.8, 0.563772
3170.74, 0.564464
3172.68, 0.565226
3174.62, 0.565918
3176.56, 0.566610
3178.51, 0.567163
3180.46, 0.568063
3182.42, 0.568893
3184.37, 0.569516
3186.33, 0.570139
3188.29, 0.570762
3190.25, 0.571523
3192.21, 0.572284
3194.18, 0.572768
3196.15, 0.573530
3198.12, 0.574291
3200.09, 0.575052
3202.07, 0.575467
3204.05, 0.576021
3206.03, 0.576644
3208.02, 0.577266
3210.0, 0.577820
3211.99, 0.578304
3213.98, 0.578720
3215.98, 0.579135
3217.97, 0.579550
3219.97, 0.580242
3221.97, 0.580796
3223.98, 0.581280
3225.98, 0.581626
3227.99, 0.581903
3230.0, 0.582180
3232.02, 0.582595
3234.03, 0.582941
3236.05, 0.583425
3238.07, 0.583771
3240.1, 0.584048
3242.12, 0.584325
3244.15, 0.584809
3246.18, 0.585017
3248.22, 0.585363
3250.25, 0.585570
3252.29, 0.585570
3254.33, 0.585640
3256.38, 0.585986
3258.43, 0.586401
3260.47, 0.586885
3262.53, 0.587024
3264.58, 0.587231
3266.64, 0.587508
3268.7, 0.587854
3270.76, 0.588269
3272.82, 0.588754
3274.89, 0.588754
3276.96, 0.588961
3279.04, 0.589446
3281.11, 0.589930
3283.19, 0.590138
3285.27, 0.590484
3287.35, 0.590760
3289.44, 0.591176
3291.53, 0.591522
3293.62, 0.591868
3295.71, 0.592214
3297.81, 0.592767
3299.91, 0.593044
3302.01, 0.593252
3304.11, 0.593528
3306.22, 0.593874
3308.33, 0.594220
3310.44, 0.594566
3312.56, 0.594705
3314.68, 0.594912
3316.8, 0.594912
3318.92, 0.595189
3321.05, 0.595258
3323.18, 0.595189
3325.31, 0.595189
3327.44, 0.595535
3329.58, 0.595674
3331.72, 0.595881
3333.86, 0.595950
3336.01, 0.596227
3338.16, 0.596296
3340.31, 0.596296
3342.46, 0.596158
3344.61, 0.596158
3346.77, 0.595812
3348.94, 0.595535
3351.1, 0.595258
3353.27, 0.594982
3355.44, 0.594636
3357.61, 0.594013
3359.79, 0.593321
3361.97, 0.592836
3364.15, 0.591868
3366.33, 0.590899
3368.52, 0.590138
3370.71, 0.589238
3372.9, 0.588408
3375.1, 0.587923
3377.3, 0.587854
3379.5, 0.588062
3381.71, 0.588408
3383.91, 0.588823
3386.12, 0.589446
3388.34, 0.589722
3390.55, 0.589653
3392.77, 0.589100
3394.99, 0.587992
3397.22, 0.586539
3399.45, 0.585017
3401.68, 0.583425
3403.91, 0.581349
3406.15, 0.579204
3408.39, 0.577197
3410.63, 0.575398
3412.87, 0.573945
3415.12, 0.573114
3417.37, 0.573391
3419.63, 0.574914
3421.88, 0.577197
3424.14, 0.580104
3426.41, 0.583079
3428.67, 0.585847
3430.94, 0.588338
3433.21, 0.590899
3435.49, 0.592975
3437.77, 0.594428
3440.05, 0.595466
3442.33, 0.596573
3444.62, 0.597473
3446.91, 0.598372
3449.2, 0.599272
3451.5, 0.600172
3453.8, 0.600794
3456.1, 0.601348
3458.41, 0.601902
3460.72, 0.602386
3463.03, 0.602594
3465.34, 0.602801
3467.66, 0.602801
3469.98, 0.602732
3472.31, 0.602594
3474.63, 0.602594
3476.96, 0.602317
3479.3, 0.602178
3481.64, 0.602178
3483.97, 0.601832
3486.32, 0.601140
3488.66, 0.600310
3491.01, 0.599134
3493.36, 0.597680
3495.72, 0.596020
3498.08, 0.594705
3500.44, 0.593944
3502.81, 0.594290
3505.18, 0.595674
3507.55, 0.597611
3509.92, 0.599964
3512.3, 0.602801
3514.68, 0.605085
3517.06, 0.606607
3519.45, 0.607853
3521.84, 0.609029
3524.24, 0.609721
3526.64, 0.610275
3529.04, 0.610759
3531.44, 0.611105
3533.85, 0.611520
3536.26, 0.611866
3538.67, 0.612143
3541.09, 0.612420
3543.51, 0.612628
3545.93, 0.612628
3548.36, 0.612558
3550.79, 0.612628
3553.22, 0.612974
3555.66, 0.613043
3558.1, 0.613043
3560.54, 0.613043
3562.99, 0.613181
3565.44, 0.613389
3567.9, 0.613527
3570.35, 0.613735
3572.81, 0.613666
3575.28, 0.613458
3577.75, 0.613250
3580.22, 0.613320
3582.69, 0.613320
3585.17, 0.613250
3587.65, 0.613112
3590.14, 0.613112
3592.62, 0.613112
3595.11, 0.612974
3597.61, 0.612766
3600.11, 0.612628
3602.61, 0.612489
3605.11, 0.612420
3607.62, 0.612143
3610.14, 0.612005
3612.65, 0.611797
3615.17, 0.611728
3617.69, 0.611451
3620.22, 0.611244
3622.75, 0.611036
3625.28, 0.610898
3627.82, 0.610621
3630.36, 0.610482
3632.9, 0.610206
3635.45, 0.610067
3638.0, 0.609721
3640.56, 0.609514
3643.12, 0.609237
3645.68, 0.609098
3648.24, 0.608752
3650.81, 0.608614
3653.39, 0.608406
3655.96, 0.608268
3658.54, 0.607784
3661.13, 0.607507
3663.71, 0.607368
3666.3, 0.607368
3668.9, 0.607092
3671.5, 0.606676
3674.1, 0.606330
3676.7, 0.606192
3679.31, 0.605984
3681.93, 0.605708
3684.54, 0.605362
3687.17, 0.605292
3689.79, 0.605223
3692.42, 0.605016
3695.05, 0.604739
3697.69, 0.604600
3700.32, 0.604254
3702.97, 0.603978
3705.61, 0.603701
3708.27, 0.603632
3710.92, 0.603493
3713.58, 0.603286
3716.24, 0.602870
3718.91, 0.602594
3721.58, 0.602317
3724.25, 0.602178
3726.93, 0.602040
3729.61, 0.601832
3732.29, 0.601486
3734.98, 0.601210
3737.67, 0.601002
3740.37, 0.600933
3743.07, 0.600725
3745.78, 0.600448
3748.49, 0.600172
3751.2, 0.599964
3753.91, 0.599756
3756.63, 0.599549
3759.36, 0.599341
3762.09, 0.599341
3764.82, 0.599134
3767.55, 0.599064
3770.29, 0.598926
3773.04, 0.598857
3775.78, 0.598718
3778.54, 0.598442
3781.29, 0.598026
3784.05, 0.597819
3786.82, 0.597611
3789.59, 0.597473
3792.36, 0.597058
3795.13, 0.596781
3797.92, 0.596435
3800.7, 0.596020
3803.49, 0.595466
3806.28, 0.595258
3809.08, 0.594982
3811.88, 0.594566
3814.68, 0.594082
3817.49, 0.593736
3820.31, 0.593252
3823.12, 0.592629
3825.94, 0.592075
3828.77, 0.591798
3831.6, 0.591314
3834.43, 0.590760
3837.27, 0.590207
3840.11, 0.589722
3842.96, 0.589169
3845.81, 0.588615
3848.67, 0.587923
3851.53, 0.587370
3854.39, 0.586678
3857.26, 0.586124
3860.13, 0.585570
3863.01, 0.585086
3865.89, 0.584325
3868.77, 0.583702
3871.66, 0.583148
3874.55, 0.582526
3877.45, 0.581764
3880.35, 0.581142
3883.26, 0.580519
3886.17, 0.579965
3889.09, 0.579273
3892.01, 0.578581
3894.93, 0.577889
3897.86, 0.577336
3900.79, 0.576713
3903.73, 0.576090
3906.67, 0.575329
3909.62, 0.574775
3912.57, 0.574222
3915.52, 0.573668
3918.48, 0.572907
3921.45, 0.572492
3924.42, 0.572076
3927.39, 0.571730
3930.37, 0.571177
3933.35, 0.570831
3936.34, 0.570416
3939.33, 0.570070
3942.32, 0.569654
3945.32, 0.569378
3948.33, 0.569032
3951.34, 0.568824
3954.35, 0.568547
3957.37, 0.568270
3960.39, 0.567924
3963.42, 0.567994
3966.45, 0.567924
3969.49, 0.567994
3972.53, 0.567855
3975.58, 0.567924
3978.63, 0.568132
3981.68, 0.568132
3984.75, 0.568063
3987.81, 0.568409
3990.88, 0.568824
3993.95, 0.569239
3997.03, 0.569516
4000.12, 0.569793
4003.21, 0.570070
4006.3, 0.570485
4009.4, 0.570692
4012.5, 0.571177
4015.61, 0.571730
4018.72, 0.572146
4021.84, 0.572422
4024.96, 0.572838
4028.09, 0.573184
4031.22, 0.573530
4034.36, 0.573945
4037.5, 0.574429
4040.65, 0.574844
4043.8, 0.575260
4046.96, 0.575606
4050.12, 0.575882
4053.29, 0.576159
4056.46, 0.576574
4059.64, 0.576713
4062.82, 0.576990
4066.0, 0.577128
4069.19, 0.577266
4072.39, 0.577405
4075.59, 0.577543
4078.8, 0.577543
4082.01, 0.577612
4085.23, 0.577474
4088.45, 0.577474
4091.68, 0.577336
4094.91, 0.577128
4098.15, 0.576990
4101.39, 0.576920
4104.63, 0.576713
4107.89, 0.576505
4111.14, 0.576298
4114.41, 0.576228
4117.67, 0.575952
4120.95, 0.575744
4124.23, 0.575329
4127.51, 0.575052
4130.8, 0.574706
4134.09, 0.574429
4137.39, 0.574083
4140.7, 0.573876
4144.01, 0.573530
4147.32, 0.573253
4150.64, 0.572768
4153.97, 0.572353
4157.3, 0.572007
4160.64, 0.571661
4163.98, 0.571246
4167.33, 0.570900
4170.68, 0.570554
4174.04, 0.570346
4177.4, 0.569862
4180.77, 0.569516
4184.14, 0.569101
4187.52, 0.568893
4190.91, 0.568547
4194.3, 0.568270
4197.69, 0.567994
4201.1, 0.568063
4204.5, 0.568201
4207.92, 0.568616
4211.34, 0.569239
4214.76, 0.570070
4218.19, 0.570900
4221.62, 0.571661
4225.06, 0.572353
4228.51, 0.572976
4231.96, 0.573114
4235.42, 0.572907
4238.88, 0.572146
4242.35, 0.571038
4245.83, 0.569308
4249.31, 0.567440
4252.79, 0.565295
4256.28, 0.563980
4259.78, 0.564395
4263.29, 0.565641
4266.79, 0.566333
4270.31, 0.566817
4273.83, 0.566817
4277.35, 0.566610
4280.89, 0.566264
4284.42, 0.565987
4287.97, 0.565364
4291.52, 0.564741
4295.07, 0.563980
4298.63, 0.563288
4302.2, 0.562596
4305.78, 0.561766
4309.35, 0.560935
4312.94, 0.560243
4316.53, 0.559690
4320.13, 0.559344
4323.73, 0.558790
4327.34, 0.558375
4330.96, 0.557960
4334.58, 0.557683
4338.21, 0.557198
4341.84, 0.556991
4345.48, 0.556714
4349.12, 0.556506
4352.77, 0.556368
4356.43, 0.556299
4360.1, 0.556230
4363.76, 0.556160
4367.44, 0.555953
4371.12, 0.555745
4374.81, 0.555607
4378.51, 0.555468
4382.21, 0.555468
4385.92, 0.555468
4389.63, 0.555330
4393.35, 0.555330
4397.08, 0.555330
4400.81, 0.555330
4404.55, 0.555261
4408.29, 0.555330
4412.04, 0.555261
4415.8, 0.555192
4419.57, 0.555330
4423.34, 0.555399
4427.12, 0.555261
4430.9, 0.555261
4434.69, 0.555330
4438.49, 0.555538
4442.29, 0.555607
4446.1, 0.555538
4449.92, 0.555468
4453.74, 0.555538
4457.57, 0.555676
4461.41, 0.555745
4465.25, 0.555745
4469.1, 0.555884
4472.95, 0.555884
4476.82, 0.555953
4480.69, 0.556022
4484.56, 0.556091
4488.44, 0.556160
4492.33, 0.556091
4496.23, 0.556091
4500.13, 0.556230
4504.04, 0.556230
4507.96, 0.556437
4511.88, 0.556714
4515.81, 0.556783
4519.75, 0.556783
4523.69, 0.556991
4527.65, 0.556991
4531.6, 0.557129
4535.57, 0.557129
4539.54, 0.557268
4543.52, 0.557198
4547.5, 0.557337
4551.5, 0.557337
4555.5, 0.557337
4559.5, 0.557268
4563.52, 0.557198
4567.54, 0.556922
4571.56, 0.556922
4575.6, 0.556783
4579.64, 0.556645
4583.69, 0.556299
4587.75, 0.555953
4591.81, 0.555745
4595.88, 0.555538
4599.96, 0.555122
4604.04, 0.554915
4608.14, 0.554776
4612.24, 0.554776
4616.34, 0.554776
4620.46, 0.554776
4624.58, 0.554915
4628.71, 0.555122
4632.84, 0.555399
4636.99, 0.555745
4641.14, 0.556022
4645.3, 0.556368
4649.47, 0.556852
4653.64, 0.557129
4657.82, 0.557337
4662.01, 0.557683
4666.21, 0.557960
4670.41, 0.558513
4674.62, 0.558859
4678.84, 0.559205
4683.07, 0.559620
4687.3, 0.560036
4691.54, 0.560312
4695.79, 0.560866
4700.05, 0.561350
4704.31, 0.561350
4708.59, 0.561696
4712.87, 0.561696
4717.15, 0.562112
4721.45, 0.562042
4725.76, 0.562388
4730.07, 0.562181
4734.39, 0.562319
4738.72, 0.562112
4743.05, 0.562181
4747.39, 0.562250
4751.75, 0.562181
4756.1, 0.562112
4760.47, 0.561835
4764.85, 0.561973
4769.23, 0.561766
4773.62, 0.562181
4778.02, 0.561835
4782.43, 0.562112
4786.85, 0.561766
4791.27, 0.561904
4795.7, 0.561766
4800.14, 0.561766
4804.59, 0.561558
4809.05, 0.561281
4813.51, 0.561074
4817.99, 0.560797
4822.47, 0.560658
4826.96, 0.560520
4831.46, 0.560312
4835.96, 0.560312
4840.48, 0.560382
4845.0, 0.560520
4849.54, 0.560174
4854.08, 0.560105
4858.63, 0.559897
4863.18, 0.560036
4867.75, 0.559759
4872.33, 0.559482
4876.91, 0.559136
4881.5, 0.558928
4886.1, 0.558652
4890.71, 0.558375
4895.33, 0.558029
4899.96, 0.557683
4904.59, 0.557129
4909.24, 0.556783
4913.89, 0.556230
4918.55, 0.555814
4923.22, 0.555330
4927.9, 0.554846
4932.59, 0.554015
4937.29, 0.553323
4942.0, 0.552424
4946.71, 0.551593
4951.44, 0.550486
4956.17, 0.549517
4960.91, 0.547787
4965.67, 0.545711
4970.43, 0.543635
4975.2, 0.541905
4979.98, 0.539829
4984.76, 0.537892
4989.56, 0.535954
4994.37, 0.534362
4999.18, 0.532909
5004.01, 0.531664
5008.84, 0.530418
5013.69, 0.529864
5018.54, 0.529726
5023.4, 0.528965
5028.28, 0.528273
5033.16, 0.528273
5038.05, 0.528342
5042.95, 0.528757
5047.86, 0.528896
5052.78, 0.529172
5057.71, 0.529311
5062.65, 0.529311
5067.6, 0.529034
5072.56, 0.528757
5077.53, 0.528411
5082.5, 0.528204
5087.49, 0.526681
5092.49, 0.524744
5097.5, 0.522875
5102.51, 0.520938
5107.54, 0.518446
5112.58, 0.516440
5117.62, 0.514433
5122.68, 0.512564
5127.75, 0.510696
5132.82, 0.509035
5137.91, 0.507374
5143.01, 0.506406
5148.12, 0.505022
5153.23, 0.502046
5158.36, 0.499347
5163.5, 0.497202
5168.65, 0.495126
5173.81, 0.493050
5178.98, 0.490766
5184.15, 0.488414
5189.34, 0.485853
5194.54, 0.483570
5199.75, 0.480940
5204.98, 0.476857
5210.21, 0.473674
5215.45, 0.469038
5220.7, 0.461564
5225.96, 0.454990
5231.23, 0.448347
5236.52, 0.441150
5241.81, 0.432431
5247.12, 0.422950
5252.44, 0.412778
5257.76, 0.402121
5263.1, 0.390980
5268.45, 0.379839
5273.81, 0.369044
5279.18, 0.358387
5284.56, 0.348422
5289.95, 0.340256
5295.36, 0.331676
5300.77, 0.323648
5306.2, 0.317144
5311.63, 0.311192
5317.08, 0.305587
5322.54, 0.300605
5328.01, 0.295899
5333.49, 0.291470
5338.98, 0.287249
5344.49, 0.284481
5350.0, 0.281782
5355.53, 0.276800
5361.07, 0.271748
5366.62, 0.267596
5372.18, 0.263860
5377.75, 0.260607
5383.34, 0.257632
5388.93, 0.254864
5394.54, 0.252372
5400.16, 0.249881
5405.79, 0.247182
5411.44, 0.244484
5417.09, 0.243100
5422.76, 0.241093
5428.43, 0.235557
5434.12, 0.232028
5439.83, 0.230159
5445.54, 0.228844
5451.26, 0.227945
5457.0, 0.228291
5462.75, 0.229813
5468.52, 0.229467
5474.29, 0.229467
5480.08, 0.230159
5485.88, 0.229260
5491.69, 0.228844
5497.51, 0.228568
5503.35, 0.228291
5509.2, 0.227530
5515.06, 0.227114
5520.93, 0.226699
5526.82, 0.225661
5532.71, 0.224208
5538.63, 0.223170
5544.55, 0.222478
5550.49, 0.222270
5556.44, 0.221094
5562.4, 0.219641
5568.37, 0.218949
5574.36, 0.220540
5580.36, 0.221025
5586.37, 0.218603
5592.4, 0.217011
5598.44, 0.216596
5604.49, 0.215074
5610.56, 0.212928
5616.63, 0.210576
5622.73, 0.207185
5628.83, 0.203932
5634.95, 0.202341
5641.08, 0.200957
5647.23, 0.195698
5653.39, 0.191130
5659.56, 0.187048
5665.74, 0.183449
5671.94, 0.182411
5678.15, 0.180335
5684.38, 0.177360
5690.62, 0.175699
5696.87, 0.173069
5703.14, 0.171201
5709.42, 0.170301
5715.72, 0.167049
5722.03, 0.163174
5728.35, 0.159437
5734.69, 0.156461
5741.03, 0.154108
5747.4, 0.152240
5753.78, 0.148711
5760.17, 0.148572
5766.58, 0.149334
5773.0, 0.144836
5779.44, 0.141514
5785.88, 0.139507
5792.35, 0.137985
5798.83, 0.137154
5805.32, 0.136047
5811.83, 0.135909
5818.35, 0.137639
5824.89, 0.136878
5831.45, 0.133625
5838.01, 0.131203
5844.59, 0.129542
5851.19, 0.128920
5857.8, 0.128989
5864.43, 0.128712
5871.07, 0.128297
5877.73, 0.131826
5884.4, 0.131480
5891.09, 0.130165
5897.79, 0.131065
5904.5, 0.128989
5911.23, 0.129335
5917.98, 0.131272
5924.75, 0.133833
5931.53, 0.139438
5938.32, 0.143936
5945.13, 0.143106
5951.96, 0.144628
5958.8, 0.147880
5965.65, 0.153416
5972.53, 0.156461
5979.42, 0.158745
5986.32, 0.163589
5993.24, 0.166634
6000.18, 0.168156
6007.13, 0.172654
6014.1, 0.178121
6021.08, 0.181788
6028.09, 0.186356
6035.1, 0.193483
6042.14, 0.206700
6049.19, 0.220956
6056.25, 0.220610
6063.34, 0.224762
6070.44, 0.236249
6077.55, 0.243376
6084.69, 0.247459
6091.84, 0.255002
6099.0, 0.264206
6106.19, 0.277077
6113.39, 0.289948
6120.61, 0.292716
6127.84, 0.295692
6135.09, 0.303373
6142.36, 0.311192
6149.65, 0.317559
6156.95, 0.325309
6164.27, 0.329530
6171.61, 0.331883
6178.97, 0.341294
6186.34, 0.348560
6193.73, 0.345723
6201.14, 0.346000
6208.57, 0.348906
6216.01, 0.351259
6223.47, 0.352366
6230.95, 0.353197
6238.45, 0.353750
6245.97, 0.353889
6253.5, 0.353889
6261.06, 0.354235
6268.63, 0.354581
6276.21, 0.354719
6283.82, 0.354996
6291.45, 0.355480
6299.1, 0.355826
6306.76, 0.356380
6314.44, 0.356864
6322.14, 0.357349
6329.86, 0.358318
6337.6, 0.364961
6345.35, 0.369044
6353.13, 0.361985
6360.92, 0.361155
6368.74, 0.365722
6376.57, 0.363646
6384.43, 0.361432
6392.3, 0.361501
6400.19, 0.364476
6408.1, 0.378524
6416.03, 0.382814
6423.98, 0.369805
6431.95, 0.363923
6439.94, 0.359702
6447.95, 0.357210
6455.98, 0.355204
6464.03, 0.353889
6472.1, 0.355411
6480.19, 0.357487
6488.31, 0.361985
6496.44, 0.357210
6504.59, 0.342125
6512.76, 0.336104
6520.95, 0.334582
6529.16, 0.326970
6537.4, 0.321988
6545.65, 0.319842
6553.92, 0.317351
6562.22, 0.314929
6570.54, 0.315621
6578.88, 0.308770
6587.23, 0.302404
6595.61, 0.297629
6604.02, 0.292232
6612.44, 0.289671
6620.89, 0.288149
6629.35, 0.292370
6637.84, 0.294308
6646.35, 0.283789
6654.88, 0.275900
6663.44, 0.274655
6672.01, 0.275139
6680.61, 0.274724
6689.23, 0.270018
6697.88, 0.266628
6706.54, 0.267389
6715.23, 0.266282
6723.94, 0.262891
6732.67, 0.259085
6741.42, 0.256040
6750.2, 0.253756
6759.0, 0.250435
6767.82, 0.248290
6776.67, 0.246075
6785.54, 0.244553
6794.44, 0.238809
6803.35, 0.230090
6812.29, 0.224762
6821.26, 0.222340
6830.24, 0.218049
6839.25, 0.212444
6848.29, 0.210506
6857.35, 0.212098
6866.43, 0.209192
6875.54, 0.200957
6884.67, 0.196597
6893.82, 0.193968
6903.0, 0.192376
6912.2, 0.189885
6921.43, 0.187117
6930.69, 0.185318
6939.96, 0.184003
6949.27, 0.184280
6958.59, 0.185664
6967.95, 0.182826
6977.33, 0.179920
6986.73, 0.179090
6996.16, 0.177706
7005.61, 0.175422
7015.09, 0.173900
7024.6, 0.172239
7034.13, 0.171062
7043.69, 0.171478
7053.27, 0.168571
7062.88, 0.165457
7072.52, 0.164212
7082.18, 0.163727
7091.87, 0.163450
7101.58, 0.163727
7111.32, 0.164765
7121.09, 0.165665
7130.88, 0.166218
7140.71, 0.168087
7150.56, 0.169471
7160.43, 0.170301
7170.33, 0.170924
7180.27, 0.169609
7190.23, 0.168433
7200.21, 0.168225
7210.23, 0.167187
7220.27, 0.164834
7230.34, 0.162828
7240.44, 0.160890
7250.56, 0.159229
7260.72, 0.157776
7270.9, 0.156807
7281.12, 0.155354
7291.36, 0.153693
7301.63, 0.152586
7311.93, 0.151548
7322.25, 0.150441
7332.61, 0.149749
7343.0, 0.148296
7353.41, 0.146220
7363.86, 0.144213
7374.33, 0.142483
7384.83, 0.140684
7395.37, 0.138815
7405.93, 0.137085
7416.53, 0.135424
7427.15, 0.134040
7437.81, 0.132933
7448.5, 0.132310
7459.22, 0.132310
7469.96, 0.132310
7480.74, 0.132449
7491.55, 0.132726
7502.39, 0.133210
7513.27, 0.133625
7524.17, 0.133902
7535.11, 0.134040
7546.08, 0.133902
7557.08, 0.133556
7568.11, 0.133141
7579.17, 0.132864
7590.27, 0.132518
7601.4, 0.132310
7612.56, 0.132310
7623.76, 0.132518
7634.98, 0.132656
7646.24, 0.132933
7657.54, 0.133141
7668.87, 0.133279
7680.23, 0.133418
7691.62, 0.133487
7703.05, 0.133418
7714.51, 0.133210
7726.01, 0.133002
7737.54, 0.132726
7749.11, 0.132310
7760.71, 0.131757
7772.35, 0.130926
7784.02, 0.130027
7795.72, 0.128850
7807.46, 0.127466
7819.23, 0.126013
7831.04, 0.124629
7842.89, 0.123176
7854.77, 0.121792
7866.69, 0.120408
7878.65, 0.119024
7890.64, 0.117502
7902.67, 0.116048
7914.74, 0.114872
7926.84, 0.113626
7938.98, 0.112381
7951.16, 0.111204
7963.37, 0.110028
7975.62, 0.108921
7987.91, 0.107606
8000.24, 0.106291
8012.6, 0.105046
8025.01, 0.103800
8037.45, 0.102554
8049.93, 0.101240
8062.45, 0.0998560
8075.01, 0.0983330
8087.61, 0.0967420
8100.24, 0.0950120
8112.91, 0.0930740
8125.63, 0.0913440
8138.39, 0.0894060
8151.18, 0.0874000
8164.02, 0.0854620
8176.9, 0.0838010
8189.81, 0.0820710
8202.77, 0.0802030
8215.77, 0.0783340
8228.82, 0.0764660
8241.9, 0.0745980
8255.02, 0.0728680
8268.19, 0.0711380
8281.39, 0.0695460
8294.65, 0.0680240
8307.94, 0.0668470
8321.28, 0.0657400
8334.66, 0.0647020
8348.08, 0.0635950
8361.54, 0.0624880
8375.05, 0.0613800
8388.6, 0.0604810
8402.2, 0.0593740
8415.84, 0.0581280
8429.52, 0.0569520
8443.25, 0.0557060
8457.02, 0.0541840
8470.84, 0.0527300
8484.7, 0.0514160
8498.61, 0.0500320
8512.57, 0.0485090
8526.57, 0.0468480
8540.62, 0.0451880
8554.71, 0.0435270
8568.85, 0.0417970
8583.04, 0.0399980
8597.27, 0.0381290
8611.55, 0.0366070
8625.88, 0.0350150
8640.26, 0.0337000
8654.68, 0.0321090
8669.16, 0.0306560
8683.68, 0.0293410
8698.25, 0.0283030
8712.87, 0.0269880
8727.53, 0.0256040
8742.25, 0.0242200
8757.02, 0.0231130
8771.83, 0.0220750
8786.7, 0.0211750
8801.62, 0.0202060
8816.59, 0.0194450
8831.61, 0.0184760
8846.68, 0.0177840
8861.8, 0.0172310
8876.97, 0.0166080
8892.2, 0.0157080
8907.48, 0.0149470
8922.81, 0.0142550
8938.2, 0.0137020
8953.63, 0.0130100
8969.13, 0.0125940
8984.67, 0.0120410
9000.27, 0.0114870
9015.92, 0.0108640
9031.63, 0.0102420
9047.39, 0.00961900
9063.21, 0.00920400
9079.08, 0.00885800
9095.01, 0.00858100
9111.0, 0.00816600
9127.04, 0.00775000
9143.13, 0.00719700
9159.28, 0.00705800
9175.49, 0.00664300
9191.76, 0.00643600
9208.09, 0.00629700
9224.47, 0.00615900
9240.92, 0.00615900
9257.42, 0.00622800
9273.98, 0.00629700
9290.6, 0.00643600
9307.28, 0.00664300
9324.02, 0.00692000
9340.82, 0.00712800
9357.68, 0.00761200
9374.6, 0.00837300
9391.58, 0.00927300
9408.62, 0.0101720
9425.73, 0.0115560
9442.9, 0.0134940
9460.13, 0.0157080
9477.42, 0.0184070
9494.78, 0.0217980
9512.2, 0.0253270
9529.69, 0.0294790
9547.24, 0.0343230
9564.86, 0.0397900
9582.54, 0.0456030
9600.28, 0.0521080
9618.1, 0.0592350
9635.97, 0.0671240
9653.92, 0.0759120
9671.93, 0.0857390
9690.01, 0.0963260
9708.16, 0.107675
9726.37, 0.120131
9744.65, 0.133556
9763.0, 0.147604
9781.43, 0.162205
9799.92, 0.177498
9818.48, 0.192791
9837.1, 0.207669
9855.8, 0.221924
9874.58, 0.235280
9893.42, 0.247667
9912.34, 0.259638
9931.33, 0.271541
9950.39, 0.283236
9969.52, 0.293754
9988.74, 0.302958
10008.0, 0.310154
10027.4, 0.314998
10046.8, 0.317697
10066.3, 0.318666
10085.9, 0.318043
10105.6, 0.315898
10125.3, 0.312922
10145.1, 0.309808
10165.0, 0.306348
10185.0, 0.303165
10205.0, 0.300812
10225.2, 0.299152
10245.4, 0.297768
10265.7, 0.296591
10286.0, 0.296038
10306.5, 0.296660
10327.0, 0.298252
10347.6, 0.300397
10368.3, 0.302335
10389.1, 0.303511
10409.9, 0.303788
10430.9, 0.303580
10451.9, 0.303027
10473.0, 0.302196
10494.2, 0.301089
10515.5, 0.299844
10536.9, 0.298321
10558.4, 0.297006
10579.9, 0.295968
10601.5, 0.294723
10623.3, 0.293477
10645.1, 0.292232
10667.0, 0.290432
10689.0, 0.288149
10711.1, 0.285865
10733.2, 0.283305
10755.5, 0.280537
10777.9, 0.277423
10800.3, 0.273478
10822.9, 0.268842
10845.5, 0.263098
10868.2, 0.256248
10891.1, 0.247805
10914.0, 0.237287
10937.0, 0.224000
10960.2, 0.207531
10983.4, 0.188432
11006.7, 0.166980
11030.1, 0.144559
11053.6, 0.123176
11077.3, 0.104423
11101.0, 0.0882990
11124.8, 0.0747360
11148.7, 0.0634560
11172.7, 0.0546680
11196.9, 0.0485780
11221.1, 0.0472640
11245.4, 0.0527300
11269.9, 0.0670550
11294.4, 0.0899600
11319.1, 0.117363
11343.9, 0.144144
11368.8, 0.167533
11393.7, 0.186286
11418.8, 0.200542
11444.0, 0.211406
11469.4, 0.219710
11494.8, 0.225523
11520.3, 0.228637
11546.0, 0.229121
11571.8, 0.226353
11597.7, 0.219156
11623.7, 0.207392
11649.8, 0.191753
11676.0, 0.175560
11702.4, 0.165526
11728.9, 0.167118
11755.5, 0.178121
11782.2, 0.191407
11809.0, 0.202479
11836.0, 0.209399
11863.0, 0.211337
11890.3, 0.208223
11917.6, 0.200957
11945.0, 0.190715
11972.6, 0.179159
12000.4, 0.167879
12028.2, 0.157914
12056.2, 0.149057
12084.3, 0.141652
12112.5, 0.135632
12140.9, 0.130234
12169.4, 0.125667
12198.0, 0.121861
12226.8, 0.118747
12255.7, 0.115841
12284.7, 0.113626
12313.9, 0.111758
12343.2, 0.110166
12372.7, 0.108782
12402.3, 0.107468
12432.0, 0.106360
12461.9, 0.106014
12491.9, 0.105668
12522.1, 0.105184
12552.4, 0.104838
12582.9, 0.104700
12613.5, 0.104215
12644.3, 0.103731
12675.2, 0.103385
12706.3, 0.102693
12737.5, 0.102208
12768.9, 0.101932
12800.4, 0.101932
12832.1, 0.102001
12863.9, 0.101793
12895.9, 0.101378
12928.1, 0.101101
12960.4, 0.101447
12992.9, 0.101724
13025.5, 0.101932
13058.3, 0.102485
13091.3, 0.103246
13124.4, 0.103869
13157.8, 0.104700
13191.2, 0.105184
13224.9, 0.105115
13258.7, 0.105392
13292.7, 0.106014
13326.9, 0.106084
13361.2, 0.105738
13395.7, 0.105530
13430.4, 0.105461
13465.3, 0.104976
13500.4, 0.104284
13535.7, 0.103523
13571.1, 0.102831
13606.7, 0.102554
13642.5, 0.102347
13678.5, 0.101655
13714.7, 0.100894
13751.1, 0.100340
13787.6, 0.0996480
13824.4, 0.0988870
13861.4, 0.0977100
13898.5, 0.0966720
13935.9, 0.0956340
13973.5, 0.0945270
14011.2, 0.0933510
14049.2, 0.0921740
14087.4, 0.0909290
14125.8, 0.0894060
14164.3, 0.0876760
14203.2, 0.0862230
14242.2, 0.0847700
14281.4, 0.0829710
14320.9, 0.0813100
14360.5, 0.0798570
14400.4, 0.0781270
14440.5, 0.0763280
14480.9, 0.0750130
14521.4, 0.0739750
14562.2, 0.0723140
14603.3, 0.0704460
14644.5, 0.0691310
14686.0, 0.0678160
14727.7, 0.0662240
14769.7, 0.0648400
14811.9, 0.0633180
14854.3, 0.0615190
14897.0, 0.0600660
14939.9, 0.0585430
14983.1, 0.0563980
15026.5, 0.0538380
15070.2, 0.0514160
15114.2, 0.0492010
15158.3, 0.0471250
15202.8, 0.0443570
15247.5, 0.0412430
15292.5, 0.0387520
15337.7, 0.0363300
15383.2, 0.0337000
15429.0, 0.0305170
15475.1, 0.0278180
15521.4, 0.0258120
15568.0, 0.0234590
15614.9, 0.0208980
15662.1, 0.0184070
15709.6, 0.0161240
15757.3, 0.0141860
15805.4, 0.0128710
15853.7, 0.0123870
15902.3, 0.0139090
15951.2, 0.0186150
16000.5, 0.0265040
16050.0, 0.0355000
16099.8, 0.0412430
16150.0, 0.0415890
16200.5, 0.0379220
16251.3, 0.0334240
16302.4, 0.0295480
16353.8, 0.0263650
16405.5, 0.0238050
16457.6, 0.0211060
16510.0, 0.0187530
16562.8, 0.0175080
16615.9, 0.0167460
16669.3, 0.0159850
16723.1, 0.0154320
16777.2, 0.0161240
16831.7, 0.0181300
16886.5, 0.0205520
16941.7, 0.0247740
16997.2, 0.0318320
17053.1, 0.0416580
17109.4, 0.0538380
17166.1, 0.0688540
17223.1, 0.0865000
17280.5, 0.106222
17338.3, 0.126152
17396.5, 0.144420
17455.1, 0.160890
17514.0, 0.175076
17573.4, 0.185456
17633.2, 0.193552
17693.4, 0.200472
17754.0, 0.205247
17815.0, 0.208638
17876.4, 0.210437
17938.3, 0.209884
18000.5, 0.208223
18063.3, 0.205662
18126.4, 0.200818
18190.0, 0.193829
18254.1, 0.184902
18318.6, 0.172446
18383.5, 0.154939
18449.0, 0.133072
18514.9, 0.109059
18581.2, 0.0857390
18648.0, 0.0677470
18715.4, 0.0581970
18783.2, 0.0604810
18851.5, 0.0804100
18920.3, 0.116740
18989.6, 0.157707
19059.4, 0.193483
19129.7, 0.221094
19200.6, 0.242131
19272.0, 0.256801
19343.9, 0.267527
19416.3, 0.275416
19489.3, 0.280052
19562.8, 0.281021
19637.0, 0.276108
19711.6, 0.266974
19786.8, 0.262406
19862.6, 0.268288
19939.0, 0.275070
20016.0, 0.279360
20093.6, 0.285035
20171.8, 0.288495
20250.6, 0.288633
20330.0, 0.289325
20410.0, 0.290778
20490.7, 0.290571
20572.0, 0.290917
20654.0, 0.291263
20736.6, 0.290225
20819.9, 0.288426
20903.8, 0.286626
20988.5, 0.281990
21073.8, 0.272510
21159.8, 0.255556
21246.5, 0.235072
21334.0, 0.232927
21422.1, 0.255694
21511.0, 0.279914
21600.7, 0.291609
21691.0, 0.297491
21782.1, 0.304618
21874.0, 0.308217
21966.7, 0.306694
22060.2, 0.308078
22154.5, 0.309947
22249.6, 0.310916
22345.5, 0.311469
22442.2, 0.312784
22539.8, 0.311884
22638.2, 0.307248
22737.5, 0.300120
22837.7, 0.287388
22938.7, 0.267320
23040.7, 0.244830
23143.5, 0.224346
23247.3, 0.206700
23352.1, 0.192653
23457.7, 0.181235
23564.4, 0.171685
23672.0, 0.162828
23780.5, 0.156046
23890.1, 0.148988
24000.7, 0.137500
24112.3, 0.125736
24225.0, 0.115772
24338.7, 0.107883
24453.5, 0.102485
24569.4, 0.106637
24686.4, 0.123660
24804.5, 0.147327
