Database of Origin, USGS Spectral Database
Sample Description, See USGS database for additional info
Date Added,2016-08-03 21:03:58.893631

Data ID,USGS_aug03          
Sample ID, augite_ws588.3204
Mineral Name, augite
Material Class,Inosilicate

Wavelength
1493.56, 0.236445
1493.99, 0.236516
1494.42, 0.236799
1494.85, 0.237011
1495.29, 0.237364
1495.72, 0.237506
1496.15, 0.237152
1496.58, 0.237081
1497.01, 0.237435
1497.44, 0.237930
1497.88, 0.238496
1498.31, 0.238425
1498.74, 0.238071
1499.18, 0.238001
1499.61, 0.238425
1500.04, 0.238637
1500.48, 0.238425
1500.91, 0.238637
1501.35, 0.238778
1501.78, 0.238637
1502.22, 0.239132
1502.65, 0.239486
1503.09, 0.239698
1503.53, 0.239556
1503.96, 0.239698
1504.4, 0.239768
1504.83, 0.239698
1505.27, 0.239627
1505.71, 0.240263
1506.15, 0.240475
1506.58, 0.240263
1507.02, 0.240263
1507.46, 0.240688
1507.9, 0.240970
1508.34, 0.241182
1508.78, 0.241041
1509.21, 0.241253
1509.66, 0.241465
1510.09, 0.241677
1510.53, 0.241395
1510.97, 0.240688
1511.42, 0.240970
1511.86, 0.241182
1512.3, 0.241112
1512.74, 0.241748
1513.18, 0.241748
1513.62, 0.241465
1514.06, 0.241536
1514.51, 0.241465
1514.95, 0.241395
1515.39, 0.242172
1515.83, 0.242455
1516.28, 0.242172
1516.72, 0.242172
1517.16, 0.242597
1517.61, 0.242950
1518.05, 0.243233
1518.5, 0.243092
1518.94, 0.243021
1519.39, 0.243092
1519.83, 0.243092
1520.28, 0.243304
1520.73, 0.243516
1521.17, 0.243304
1521.62, 0.243304
1522.07, 0.243374
1522.51, 0.243445
1522.96, 0.244081
1523.41, 0.244364
1523.85, 0.244294
1524.3, 0.244435
1524.75, 0.244152
1525.2, 0.244081
1525.65, 0.244506
1526.1, 0.244930
1526.55, 0.244930
1527.0, 0.244930
1527.45, 0.245142
1527.9, 0.245071
1528.35, 0.245001
1528.8, 0.245425
1529.25, 0.245778
1529.7, 0.245778
1530.15, 0.245708
1530.6, 0.245566
1531.05, 0.245920
1531.51, 0.246415
1531.96, 0.246132
1532.41, 0.245637
1532.87, 0.245566
1533.32, 0.245778
1533.77, 0.246203
1534.23, 0.246839
1534.68, 0.246768
1535.14, 0.246415
1535.59, 0.246627
1536.05, 0.246698
1536.5, 0.246486
1536.96, 0.246556
1537.41, 0.246839
1537.87, 0.247051
1538.32, 0.247051
1538.78, 0.247193
1539.24, 0.247475
1539.7, 0.247475
1540.15, 0.247617
1540.61, 0.248395
1541.07, 0.248748
1541.53, 0.248395
1541.98, 0.248465
1542.44, 0.249102
1542.9, 0.249243
1543.36, 0.249031
1543.82, 0.248890
1544.28, 0.249102
1544.74, 0.249243
1545.2, 0.249385
1545.66, 0.249243
1546.12, 0.249243
1546.59, 0.249385
1547.05, 0.249738
1547.51, 0.249950
1547.97, 0.250162
1548.43, 0.249879
1548.9, 0.249597
1549.36, 0.250021
1549.82, 0.250374
1550.29, 0.250799
1550.75, 0.250940
1551.21, 0.250587
1551.68, 0.250869
1552.14, 0.251082
1552.61, 0.251082
1553.07, 0.251294
1553.54, 0.251506
1554.0, 0.251364
1554.47, 0.251859
1554.93, 0.252213
1555.4, 0.252284
1555.87, 0.252001
1556.34, 0.252001
1556.8, 0.251930
1557.27, 0.251930
1557.74, 0.252142
1558.21, 0.252496
1558.68, 0.252637
1559.14, 0.252849
1559.61, 0.252991
1560.08, 0.253132
1560.55, 0.253273
1561.02, 0.252991
1561.49, 0.253273
1561.96, 0.253839
1562.43, 0.253981
1562.9, 0.253910
1563.38, 0.253839
1563.85, 0.254122
1564.32, 0.254405
1564.79, 0.254263
1565.26, 0.253910
1565.74, 0.253910
1566.21, 0.254334
1566.68, 0.254829
1567.16, 0.254900
1567.63, 0.254970
1568.1, 0.254758
1568.58, 0.255183
1569.05, 0.255395
1569.53, 0.255677
1570.0, 0.255819
1570.48, 0.256102
1570.96, 0.256243
1571.43, 0.256385
1571.91, 0.256455
1572.39, 0.256455
1572.86, 0.256385
1573.34, 0.256385
1573.82, 0.256385
1574.3, 0.256880
1574.77, 0.257021
1575.25, 0.257092
1575.73, 0.257445
1576.21, 0.257587
1576.69, 0.257516
1577.17, 0.257304
1577.65, 0.257516
1578.13, 0.257657
1578.61, 0.257869
1579.09, 0.258364
1579.57, 0.258647
1580.05, 0.258576
1580.54, 0.258576
1581.02, 0.258647
1581.5, 0.258647
1581.98, 0.259001
1582.47, 0.259071
1582.95, 0.259213
1583.43, 0.259284
1583.92, 0.259213
1584.4, 0.259496
1584.88, 0.260061
1585.37, 0.260061
1585.85, 0.259849
1586.34, 0.259566
1586.82, 0.259849
1587.31, 0.259991
1587.8, 0.259991
1588.28, 0.259849
1588.77, 0.260132
1589.26, 0.260486
1589.74, 0.260486
1590.23, 0.260556
1590.72, 0.260698
1591.21, 0.260698
1591.7, 0.260981
1592.19, 0.261122
1592.67, 0.261122
1593.16, 0.261051
1593.65, 0.261334
1594.14, 0.261758
1594.63, 0.261829
1595.12, 0.261688
1595.61, 0.261476
1596.11, 0.262112
1596.6, 0.262677
1597.09, 0.262395
1597.58, 0.262112
1598.08, 0.262183
1598.57, 0.262183
1599.06, 0.262890
1599.55, 0.263243
1600.05, 0.262960
1600.54, 0.262960
1601.04, 0.263243
1601.53, 0.263597
1602.03, 0.263597
1602.52, 0.263385
1603.02, 0.263526
1603.51, 0.263880
1604.01, 0.264021
1604.5, 0.264021
1605.0, 0.263950
1605.5, 0.264021
1606.0, 0.264374
1606.49, 0.264657
1606.99, 0.264304
1607.49, 0.264657
1607.99, 0.265082
1608.49, 0.265223
1608.99, 0.265364
1609.49, 0.265435
1609.99, 0.265506
1610.49, 0.265789
1610.99, 0.265647
1611.49, 0.265435
1611.99, 0.265718
1612.49, 0.266213
1612.99, 0.266708
1613.49, 0.266566
1614.0, 0.266284
1614.5, 0.266496
1615.0, 0.266779
1615.51, 0.266779
1616.01, 0.266849
1616.51, 0.267203
1617.02, 0.267203
1617.52, 0.267273
1618.03, 0.267344
1618.53, 0.267486
1619.04, 0.267415
1619.54, 0.267839
1620.05, 0.268051
1620.55, 0.268122
1621.06, 0.268475
1621.57, 0.268617
1622.08, 0.268688
1622.58, 0.268829
1623.09, 0.269041
1623.6, 0.269324
1624.11, 0.269183
1624.62, 0.269253
1625.13, 0.269607
1625.64, 0.269890
1626.15, 0.270031
1626.66, 0.270243
1627.17, 0.270243
1627.68, 0.270385
1628.19, 0.270314
1628.7, 0.270172
1629.21, 0.270385
1629.72, 0.270455
1630.24, 0.270597
1630.75, 0.271021
1631.26, 0.271233
1631.78, 0.271374
1632.29, 0.271728
1632.8, 0.271799
1633.32, 0.271516
1633.83, 0.271516
1634.35, 0.271516
1634.86, 0.271728
1635.38, 0.272082
1635.9, 0.272294
1636.41, 0.272506
1636.93, 0.272930
1637.45, 0.272859
1637.96, 0.273354
1638.48, 0.273496
1639.0, 0.273496
1639.52, 0.273142
1640.04, 0.273142
1640.56, 0.273708
1641.08, 0.273779
1641.59, 0.273284
1642.11, 0.273425
1642.63, 0.274061
1643.16, 0.274344
1643.68, 0.274132
1644.2, 0.274344
1644.72, 0.274981
1645.24, 0.274981
1645.76, 0.274839
1646.29, 0.274698
1646.81, 0.275263
1647.33, 0.275263
1647.86, 0.275334
1648.38, 0.275617
1648.9, 0.275758
1649.43, 0.275970
1649.95, 0.275900
1650.48, 0.275758
1651.0, 0.275970
1651.53, 0.276183
1652.06, 0.276041
1652.58, 0.275970
1653.11, 0.276253
1653.64, 0.276890
1654.17, 0.276960
1654.69, 0.276536
1655.22, 0.276395
1655.75, 0.276395
1656.28, 0.276819
1656.81, 0.277455
1657.34, 0.277809
1657.87, 0.277809
1658.4, 0.277597
1658.93, 0.277526
1659.46, 0.277880
1659.99, 0.278162
1660.52, 0.278304
1661.05, 0.278516
1661.59, 0.278587
1662.12, 0.279082
1662.65, 0.279506
1663.19, 0.279577
1663.72, 0.279435
1664.26, 0.279294
1664.79, 0.279082
1665.32, 0.279223
1665.86, 0.279506
1666.39, 0.279577
1666.93, 0.279506
1667.47, 0.279789
1668.0, 0.280284
1668.54, 0.280284
1669.08, 0.280213
1669.61, 0.280425
1670.15, 0.280566
1670.69, 0.280637
1671.23, 0.281274
1671.77, 0.281556
1672.31, 0.281344
1672.85, 0.281203
1673.39, 0.281274
1673.93, 0.281415
1674.47, 0.281769
1675.01, 0.281839
1675.55, 0.281769
1676.09, 0.281839
1676.64, 0.282122
1677.18, 0.281981
1677.72, 0.282122
1678.26, 0.282476
1678.81, 0.282617
1679.35, 0.282476
1679.89, 0.282546
1680.44, 0.283041
1680.98, 0.283183
1681.53, 0.283465
1682.07, 0.283678
1682.62, 0.283607
1683.17, 0.283536
1683.71, 0.283819
1684.26, 0.283890
1684.81, 0.284243
1685.36, 0.284102
1685.9, 0.284102
1686.45, 0.284385
1687.0, 0.284667
1687.55, 0.285162
1688.1, 0.285304
1688.65, 0.285304
1689.2, 0.285375
1689.75, 0.285304
1690.3, 0.285445
1690.85, 0.285799
1691.41, 0.286011
1691.96, 0.285728
1692.51, 0.285657
1693.06, 0.285870
1693.61, 0.286152
1694.17, 0.286577
1694.72, 0.286789
1695.28, 0.286718
1695.83, 0.286859
1696.39, 0.286930
1696.94, 0.287072
1697.5, 0.287425
1698.05, 0.287637
1698.61, 0.287779
1699.17, 0.287708
1699.72, 0.287991
1700.28, 0.288274
1700.84, 0.288132
1701.4, 0.288344
1701.95, 0.288910
1702.51, 0.288981
1703.07, 0.288910
1703.63, 0.288981
1704.19, 0.289193
1704.75, 0.289334
1705.31, 0.289334
1705.88, 0.289334
1706.44, 0.289476
1707.0, 0.289546
1707.56, 0.290041
1708.12, 0.290183
1708.69, 0.290678
1709.25, 0.290890
1709.81, 0.290465
1710.38, 0.290324
1710.94, 0.290253
1711.51, 0.290607
1712.07, 0.291173
1712.64, 0.291455
1713.2, 0.291667
1713.77, 0.291738
1714.34, 0.291738
1714.9, 0.292092
1715.47, 0.292304
1716.04, 0.292304
1716.61, 0.292162
1717.18, 0.292304
1717.74, 0.292799
1718.31, 0.292940
1718.88, 0.292587
1719.45, 0.292375
1720.02, 0.292657
1720.59, 0.293152
1721.17, 0.293223
1721.74, 0.293152
1722.31, 0.293364
1722.88, 0.293859
1723.45, 0.293647
1724.03, 0.293577
1724.6, 0.294001
1725.18, 0.294213
1725.75, 0.294142
1726.33, 0.294284
1726.9, 0.294284
1727.48, 0.294284
1728.05, 0.294779
1728.63, 0.295415
1729.2, 0.295203
1729.78, 0.295203
1730.36, 0.295274
1730.94, 0.295415
1731.51, 0.295274
1732.09, 0.295344
1732.67, 0.295698
1733.25, 0.295910
1733.83, 0.295910
1734.41, 0.296051
1734.99, 0.296334
1735.57, 0.296476
1736.15, 0.296758
1736.73, 0.297041
1737.32, 0.297041
1737.9, 0.296900
1738.48, 0.296688
1739.07, 0.296758
1739.65, 0.296971
1740.23, 0.297253
1740.82, 0.297536
1741.4, 0.297536
1741.99, 0.297678
1742.57, 0.297960
1743.16, 0.298314
1743.74, 0.298667
1744.33, 0.298738
1744.92, 0.298667
1745.51, 0.298455
1746.09, 0.298597
1746.68, 0.298950
1747.27, 0.299092
1747.86, 0.299233
1748.45, 0.299445
1749.04, 0.299587
1749.63, 0.299516
1750.22, 0.299304
1750.81, 0.299445
1751.4, 0.299870
1751.99, 0.300152
1752.59, 0.299940
1753.18, 0.299799
1753.77, 0.300152
1754.37, 0.300930
1754.96, 0.301142
1755.56, 0.301213
1756.15, 0.301072
1756.74, 0.301284
1757.34, 0.301496
1757.94, 0.301849
1758.53, 0.301991
1759.13, 0.302061
1759.73, 0.302132
1760.32, 0.302203
1760.92, 0.302203
1761.52, 0.302132
1762.12, 0.302274
1762.72, 0.302415
1763.32, 0.302556
1763.92, 0.302981
1764.52, 0.303405
1765.12, 0.303476
1765.72, 0.303476
1766.32, 0.303476
1766.92, 0.303758
1767.53, 0.303971
1768.13, 0.304253
1768.73, 0.304748
1769.34, 0.304607
1769.94, 0.304465
1770.55, 0.304536
1771.15, 0.304890
1771.76, 0.305102
1772.36, 0.305102
1772.97, 0.305314
1773.57, 0.305738
1774.18, 0.305880
1774.79, 0.305668
1775.4, 0.305950
1776.0, 0.306375
1776.61, 0.306516
1777.22, 0.306516
1777.83, 0.306516
1778.44, 0.306728
1779.05, 0.306940
1779.66, 0.307011
1780.27, 0.307365
1780.88, 0.307577
1781.5, 0.307506
1782.11, 0.307577
1782.72, 0.307647
1783.33, 0.307506
1783.95, 0.307577
1784.56, 0.307718
1785.18, 0.307859
1785.79, 0.308425
1786.41, 0.308637
1787.02, 0.308849
1787.64, 0.308991
1788.26, 0.309061
1788.87, 0.308991
1789.49, 0.308920
1790.11, 0.308708
1790.73, 0.308779
1791.35, 0.308920
1791.96, 0.309415
1792.58, 0.309698
1793.21, 0.309769
1793.83, 0.309698
1794.45, 0.309839
1795.07, 0.310122
1795.69, 0.310476
1796.31, 0.310546
1796.93, 0.310617
1797.56, 0.310758
1798.18, 0.310829
1798.8, 0.311395
1799.43, 0.311748
1800.05, 0.311395
1800.68, 0.311183
1801.3, 0.311253
1801.93, 0.311324
1802.56, 0.311466
1803.18, 0.311960
1803.81, 0.312173
1804.44, 0.312173
1805.07, 0.312173
1805.7, 0.312102
1806.33, 0.312102
1806.95, 0.312314
1807.58, 0.312597
1808.22, 0.312738
1808.85, 0.312950
1809.48, 0.313233
1810.11, 0.313375
1810.74, 0.313587
1811.38, 0.313516
1812.01, 0.313375
1812.64, 0.313587
1813.28, 0.314011
1813.91, 0.314011
1814.55, 0.314082
1815.18, 0.313728
1815.82, 0.314082
1816.45, 0.314647
1817.09, 0.314860
1817.73, 0.314718
1818.36, 0.314718
1819.0, 0.315072
1819.64, 0.314789
1820.28, 0.314011
1820.92, 0.314435
1821.56, 0.314647
1822.2, 0.315425
1822.84, 0.316203
1823.48, 0.316627
1824.12, 0.316627
1824.76, 0.316698
1825.41, 0.315637
1826.05, 0.314506
1826.69, 0.315637
1827.34, 0.316839
1827.98, 0.316769
1828.63, 0.316769
1829.27, 0.316910
1829.92, 0.316981
1830.56, 0.316556
1831.21, 0.316627
1831.86, 0.317334
1832.5, 0.317617
1833.15, 0.318183
1833.8, 0.318466
1834.45, 0.317971
1835.1, 0.317758
1835.75, 0.316910
1836.4, 0.316981
1837.05, 0.317405
1837.7, 0.317122
1838.35, 0.318678
1839.01, 0.318678
1839.66, 0.317405
1840.31, 0.318466
1840.96, 0.318678
1841.62, 0.317476
1842.27, 0.318536
1842.93, 0.320304
1843.58, 0.321082
1844.24, 0.321506
1844.9, 0.321718
1845.55, 0.321577
1846.21, 0.320021
1846.87, 0.318395
1847.53, 0.318890
1848.18, 0.319738
1848.84, 0.321577
1849.5, 0.322354
1850.16, 0.322213
1850.82, 0.322496
1851.48, 0.322991
1852.14, 0.322637
1852.81, 0.321718
1853.47, 0.320516
1854.13, 0.321365
1854.8, 0.323274
1855.46, 0.323556
1856.12, 0.322496
1856.79, 0.322354
1857.45, 0.323698
1858.12, 0.324546
1858.79, 0.323415
1859.45, 0.321365
1860.12, 0.322213
1860.79, 0.324193
1861.46, 0.325395
1862.12, 0.325253
1862.79, 0.325183
1863.46, 0.324758
1864.13, 0.324829
1864.8, 0.325395
1865.48, 0.326031
1866.15, 0.326314
1866.82, 0.325253
1867.49, 0.323062
1868.16, 0.324051
1868.84, 0.325536
1869.51, 0.325466
1870.19, 0.323769
1870.86, 0.322567
1871.54, 0.325112
1872.21, 0.325466
1872.89, 0.323556
1873.56, 0.324688
1874.24, 0.326455
1874.92, 0.326597
1875.6, 0.327021
1876.28, 0.326526
1876.96, 0.325890
1877.64, 0.327516
1878.32, 0.328435
1879.0, 0.328577
1879.68, 0.328577
1880.36, 0.328506
1881.04, 0.328577
1881.73, 0.328860
1882.41, 0.329213
1883.09, 0.328930
1883.78, 0.328082
1884.46, 0.328860
1885.15, 0.329567
1885.83, 0.329637
1886.52, 0.329637
1887.21, 0.330062
1887.89, 0.330415
1888.58, 0.330415
1889.27, 0.329567
1889.96, 0.328718
1890.65, 0.329567
1891.34, 0.330062
1892.03, 0.329991
1892.72, 0.330556
1893.41, 0.330839
1894.1, 0.331193
1894.79, 0.331758
1895.49, 0.331971
1896.18, 0.331829
1896.87, 0.331405
1897.57, 0.330910
1898.26, 0.330981
1898.96, 0.329920
1899.65, 0.329496
1900.35, 0.330486
1901.05, 0.331758
1901.74, 0.332112
1902.44, 0.331051
1903.14, 0.331688
1903.84, 0.332819
1904.54, 0.331688
1905.24, 0.330910
1905.94, 0.331829
1906.64, 0.332324
1907.34, 0.333456
1908.04, 0.334163
1908.75, 0.334375
1909.45, 0.334658
1910.15, 0.334445
1910.86, 0.333950
1911.56, 0.333880
1912.27, 0.334516
1912.97, 0.333385
1913.68, 0.332890
1914.39, 0.334516
1915.09, 0.335152
1915.8, 0.335152
1916.51, 0.335718
1917.22, 0.336142
1917.93, 0.336496
1918.64, 0.336425
1919.35, 0.334940
1920.06, 0.333597
1920.77, 0.334445
1921.48, 0.336849
1922.19, 0.337769
1922.91, 0.337627
1923.62, 0.337062
1924.33, 0.337486
1925.05, 0.338051
1925.76, 0.338334
1926.48, 0.338476
1927.19, 0.338476
1927.91, 0.338122
1928.63, 0.338264
1929.35, 0.339112
1930.07, 0.339324
1930.78, 0.339466
1931.5, 0.339678
1932.22, 0.340102
1932.94, 0.340102
1933.66, 0.339819
1934.39, 0.340314
1935.11, 0.340738
1935.83, 0.340385
1936.55, 0.340385
1937.28, 0.340668
1938.0, 0.340950
1938.73, 0.341304
1939.45, 0.341516
1940.18, 0.341940
1940.9, 0.342294
1941.63, 0.342577
1942.36, 0.342647
1943.09, 0.342718
1943.81, 0.342435
1944.54, 0.342294
1945.27, 0.342860
1946.0, 0.343284
1946.73, 0.343567
1947.47, 0.343637
1948.2, 0.343567
1948.93, 0.343708
1949.66, 0.343920
1950.4, 0.344062
1951.13, 0.344344
1951.86, 0.344698
1952.6, 0.344486
1953.34, 0.344557
1954.07, 0.344698
1954.81, 0.344698
1955.55, 0.344839
1956.29, 0.344981
1957.02, 0.345051
1957.76, 0.345264
1958.5, 0.345617
1959.24, 0.345829
1959.98, 0.346041
1960.72, 0.346112
1961.47, 0.345971
1962.21, 0.346041
1962.95, 0.346536
1963.7, 0.346819
1964.44, 0.346961
1965.18, 0.346961
1965.93, 0.346961
1966.67, 0.347031
1967.42, 0.347243
1968.17, 0.347243
1968.92, 0.347456
1969.66, 0.347809
1970.41, 0.348092
1971.16, 0.347880
1971.91, 0.347950
1972.66, 0.348163
1973.41, 0.348445
1974.16, 0.348587
1974.92, 0.348587
1975.67, 0.348658
1976.42, 0.348799
1977.18, 0.349011
1977.93, 0.348940
1978.69, 0.348870
1979.44, 0.349082
1980.2, 0.349435
1980.95, 0.349577
1981.71, 0.349718
1982.47, 0.350001
1983.23, 0.350072
1983.99, 0.350142
1984.74, 0.350213
1985.51, 0.350496
1986.27, 0.350496
1987.03, 0.350708
1987.79, 0.350991
1988.55, 0.351062
1989.32, 0.351203
1990.08, 0.351274
1990.84, 0.351415
1991.61, 0.351698
1992.37, 0.351769
1993.14, 0.351839
1993.9, 0.352051
1994.67, 0.352264
1995.44, 0.352405
1996.21, 0.352546
1996.98, 0.352759
1997.75, 0.353041
1998.52, 0.352971
1999.29, 0.352900
2000.06, 0.353183
2000.83, 0.353466
2001.6, 0.353536
2002.38, 0.353819
2003.15, 0.353961
2003.93, 0.354031
2004.7, 0.354243
2005.48, 0.354526
2006.25, 0.354809
2007.03, 0.355092
2007.81, 0.355304
2008.58, 0.355304
2009.36, 0.355516
2010.14, 0.355728
2010.92, 0.355799
2011.7, 0.355940
2012.48, 0.355870
2013.26, 0.356223
2014.05, 0.356435
2014.83, 0.356506
2015.61, 0.356647
2016.4, 0.357001
2017.18, 0.357072
2017.97, 0.357213
2018.75, 0.357708
2019.54, 0.358062
2020.32, 0.358132
2021.11, 0.358274
2021.9, 0.358627
2022.69, 0.358627
2023.48, 0.358839
2024.27, 0.359334
2025.06, 0.359334
2025.85, 0.359122
2026.64, 0.359122
2027.44, 0.359617
2028.23, 0.360112
2029.02, 0.360324
2029.82, 0.360466
2030.61, 0.360819
2031.41, 0.361031
2032.2, 0.361031
2033.0, 0.361031
2033.8, 0.361314
2034.6, 0.361314
2035.4, 0.361385
2036.2, 0.361668
2037.0, 0.361738
2037.8, 0.361668
2038.6, 0.361951
2039.4, 0.362233
2040.2, 0.362445
2041.01, 0.362587
2041.81, 0.363011
2042.61, 0.363153
2043.42, 0.363223
2044.22, 0.363435
2045.03, 0.363647
2045.84, 0.363930
2046.65, 0.364213
2047.46, 0.364213
2048.26, 0.364142
2049.07, 0.364496
2049.88, 0.364708
2050.69, 0.364850
2051.51, 0.365062
2052.32, 0.364991
2053.13, 0.365062
2053.94, 0.365203
2054.76, 0.365557
2055.57, 0.365839
2056.39, 0.365769
2057.2, 0.365839
2058.02, 0.366052
2058.84, 0.366193
2059.66, 0.366122
2060.48, 0.366122
2061.29, 0.366264
2062.11, 0.366476
2062.94, 0.366688
2063.76, 0.366971
2064.58, 0.366759
2065.4, 0.366759
2066.22, 0.367183
2067.05, 0.367536
2067.87, 0.367536
2068.7, 0.367536
2069.52, 0.367678
2070.35, 0.367749
2071.18, 0.367819
2072.0, 0.368031
2072.83, 0.368456
2073.66, 0.368456
2074.49, 0.368456
2075.32, 0.368668
2076.15, 0.368738
2076.98, 0.368880
2077.82, 0.368951
2078.65, 0.369021
2079.48, 0.369021
2080.32, 0.369304
2081.15, 0.369375
2081.99, 0.369304
2082.83, 0.369375
2083.66, 0.369728
2084.5, 0.369870
2085.34, 0.370011
2086.18, 0.370294
2087.02, 0.370153
2087.86, 0.370082
2088.7, 0.370365
2089.54, 0.370789
2090.39, 0.370930
2091.23, 0.371142
2092.07, 0.371425
2092.92, 0.371496
2093.76, 0.371496
2094.61, 0.371496
2095.45, 0.371779
2096.3, 0.371991
2097.15, 0.371991
2098.0, 0.372132
2098.85, 0.372486
2099.7, 0.372486
2100.55, 0.372345
2101.4, 0.372486
2102.25, 0.372981
2103.1, 0.373193
2103.96, 0.373122
2104.81, 0.373193
2105.67, 0.373264
2106.52, 0.373476
2107.38, 0.373688
2108.24, 0.374041
2109.09, 0.374183
2109.95, 0.374183
2110.81, 0.374183
2111.67, 0.374324
2112.53, 0.374749
2113.39, 0.375102
2114.25, 0.375385
2115.12, 0.375597
2115.98, 0.375738
2116.84, 0.375738
2117.71, 0.376092
2118.58, 0.376163
2119.44, 0.376233
2120.31, 0.376658
2121.18, 0.376870
2122.04, 0.376870
2122.91, 0.377011
2123.78, 0.377153
2124.65, 0.377506
2125.52, 0.378001
2126.4, 0.378072
2127.27, 0.378142
2128.14, 0.378425
2129.02, 0.378708
2129.89, 0.378708
2130.77, 0.378850
2131.64, 0.379062
2132.52, 0.379345
2133.4, 0.379486
2134.27, 0.379698
2135.15, 0.379769
2136.03, 0.379910
2136.91, 0.380334
2137.79, 0.380759
2138.68, 0.380900
2139.56, 0.380971
2140.44, 0.380900
2141.33, 0.381041
2142.21, 0.381395
2143.1, 0.381678
2143.99, 0.381819
2144.87, 0.382173
2145.76, 0.382314
2146.65, 0.382385
2147.54, 0.382597
2148.43, 0.382738
2149.32, 0.383092
2150.21, 0.383233
2151.1, 0.383163
2151.99, 0.383446
2152.89, 0.383658
2153.78, 0.383799
2154.68, 0.384011
2155.57, 0.384153
2156.47, 0.384223
2157.37, 0.384435
2158.27, 0.384506
2159.16, 0.384577
2160.06, 0.384718
2160.96, 0.384930
2161.86, 0.385284
2162.77, 0.385355
2163.67, 0.385213
2164.57, 0.385567
2165.48, 0.385920
2166.38, 0.385991
2167.29, 0.385920
2168.2, 0.386203
2169.1, 0.386415
2170.01, 0.386486
2170.92, 0.386345
2171.83, 0.386557
2172.74, 0.386698
2173.65, 0.387052
2174.56, 0.387193
2175.47, 0.387193
2176.39, 0.387264
2177.3, 0.387476
2178.22, 0.387547
2179.13, 0.387617
2180.05, 0.387688
2180.96, 0.387900
2181.88, 0.387900
2182.8, 0.387900
2183.72, 0.388183
2184.64, 0.388466
2185.56, 0.388678
2186.48, 0.388890
2187.41, 0.388961
2188.33, 0.388961
2189.25, 0.389031
2190.18, 0.389173
2191.1, 0.389102
2192.03, 0.389302
2192.96, 0.389369
2193.89, 0.389436
2194.82, 0.389236
2195.74, 0.389369
2196.68, 0.389769
2197.61, 0.389836
2198.54, 0.389903
2199.47, 0.390036
2200.4, 0.390103
2201.34, 0.390036
2202.28, 0.390637
2203.21, 0.391438
2204.15, 0.391504
2205.08, 0.390704
2206.02, 0.390971
2206.96, 0.391705
2207.9, 0.392238
2208.84, 0.392172
2209.78, 0.392305
2210.73, 0.392772
2211.67, 0.393039
2212.61, 0.392372
2213.56, 0.392105
2214.5, 0.392439
2215.45, 0.392439
2216.4, 0.392906
2217.35, 0.393506
2218.3, 0.393573
2219.24, 0.393573
2220.2, 0.393440
2221.15, 0.393707
2222.1, 0.394174
2223.05, 0.393506
2224.0, 0.392906
2224.96, 0.393373
2225.91, 0.393973
2226.87, 0.394174
2227.83, 0.393973
2228.79, 0.394441
2229.74, 0.394708
2230.7, 0.394974
2231.66, 0.395041
2232.63, 0.395108
2233.59, 0.394774
2234.55, 0.394574
2235.51, 0.395175
2236.48, 0.395442
2237.44, 0.396042
2238.41, 0.395842
2239.38, 0.394908
2240.34, 0.395108
2241.31, 0.395909
2242.28, 0.396242
2243.25, 0.396643
2244.22, 0.396843
2245.19, 0.397644
2246.17, 0.397577
2247.14, 0.396976
2248.12, 0.397043
2249.09, 0.397110
2250.07, 0.397443
2251.04, 0.398111
2252.02, 0.397844
2253.0, 0.397510
2253.98, 0.397911
2254.96, 0.398244
2255.94, 0.398378
2256.92, 0.398778
2257.91, 0.398645
2258.89, 0.398711
2259.88, 0.398578
2260.86, 0.398645
2261.85, 0.399379
2262.83, 0.399712
2263.82, 0.399379
2264.81, 0.399112
2265.8, 0.399312
2266.79, 0.399579
2267.78, 0.399979
2268.78, 0.400446
2269.77, 0.400380
2270.76, 0.400713
2271.76, 0.401047
2272.75, 0.400980
2273.75, 0.400847
2274.75, 0.400580
2275.75, 0.401047
2276.75, 0.401380
2277.75, 0.401714
2278.75, 0.402181
2279.75, 0.402515
2280.75, 0.402381
2281.76, 0.402381
2282.76, 0.402448
2283.77, 0.402114
2284.77, 0.402381
2285.78, 0.402582
2286.79, 0.402048
2287.8, 0.401514
2288.81, 0.401581
2289.82, 0.402248
2290.83, 0.402849
2291.84, 0.403249
2292.86, 0.403783
2293.87, 0.403783
2294.89, 0.403716
2295.91, 0.403849
2296.92, 0.403983
2297.94, 0.404183
2298.96, 0.404317
2299.98, 0.404984
2301.0, 0.404583
2302.02, 0.404583
2303.04, 0.405051
2304.07, 0.404917
2305.09, 0.404650
2306.12, 0.404650
2307.15, 0.404650
2308.17, 0.404984
2309.2, 0.405451
2310.23, 0.405051
2311.26, 0.404917
2312.29, 0.405384
2313.32, 0.405318
2314.35, 0.405251
2315.39, 0.405785
2316.42, 0.406052
2317.46, 0.406252
2318.5, 0.406452
2319.53, 0.406519
2320.57, 0.406585
2321.61, 0.406919
2322.65, 0.407653
2323.69, 0.407987
2324.73, 0.408587
2325.78, 0.408721
2326.82, 0.409054
2327.86, 0.409388
2328.91, 0.409388
2329.96, 0.409455
2331.01, 0.409722
2332.05, 0.410389
2333.1, 0.410723
2334.15, 0.411123
2335.21, 0.411123
2336.26, 0.411390
2337.31, 0.411523
2338.36, 0.411523
2339.42, 0.411790
2340.48, 0.412324
2341.53, 0.412458
2342.59, 0.412458
2343.65, 0.412324
2344.71, 0.412524
2345.77, 0.413058
2346.83, 0.413325
2347.9, 0.413325
2348.96, 0.413992
2350.02, 0.414126
2351.09, 0.414126
2352.16, 0.414526
2353.23, 0.414726
2354.29, 0.414793
2355.36, 0.414593
2356.43, 0.415127
2357.51, 0.415260
2358.58, 0.415394
2359.65, 0.415594
2360.73, 0.415861
2361.8, 0.416128
2362.88, 0.416261
2363.96, 0.416595
2365.03, 0.416728
2366.11, 0.416662
2367.19, 0.417129
2368.27, 0.417462
2369.36, 0.417195
2370.44, 0.417529
2371.53, 0.418063
2372.61, 0.418263
2373.7, 0.418130
2374.78, 0.418597
2375.87, 0.419131
2376.96, 0.418930
2378.05, 0.418730
2379.14, 0.418930
2380.24, 0.419665
2381.33, 0.420065
2382.42, 0.419865
2383.52, 0.419798
2384.61, 0.419998
2385.71, 0.420332
2386.81, 0.420465
2387.91, 0.420532
2389.01, 0.420732
2390.11, 0.420999
2391.22, 0.420999
2392.32, 0.421533
2393.42, 0.421800
2394.53, 0.421933
2395.64, 0.421800
2396.74, 0.421933
2397.85, 0.422534
2398.96, 0.422534
2400.07, 0.423001
2401.18, 0.423468
2402.3, 0.423535
2403.41, 0.424002
2404.52, 0.424336
2405.64, 0.424269
2406.76, 0.424603
2407.88, 0.424669
2408.99, 0.424803
2410.11, 0.425203
2411.23, 0.425603
2412.36, 0.425537
2413.48, 0.425470
2414.6, 0.425403
2415.73, 0.425870
2416.85, 0.426071
2417.98, 0.426204
2419.11, 0.426938
2420.24, 0.427338
2421.37, 0.427071
2422.5, 0.427272
2423.64, 0.427806
2424.77, 0.428072
2425.9, 0.428673
2427.04, 0.428940
2428.18, 0.429140
2429.31, 0.429340
2430.45, 0.429674
2431.59, 0.429941
2432.73, 0.430074
2433.88, 0.430141
2435.02, 0.430074
2436.16, 0.430074
2437.31, 0.430341
2438.45, 0.430942
2439.6, 0.431142
2440.75, 0.431676
2441.9, 0.432009
2443.05, 0.432076
2444.2, 0.432143
2445.35, 0.432210
2446.51, 0.432210
2447.67, 0.432810
2448.82, 0.433277
2449.98, 0.433544
2451.14, 0.433678
2452.3, 0.434078
2453.46, 0.434345
2454.62, 0.434679
2455.78, 0.434679
2456.94, 0.435079
2458.11, 0.435279
2459.28, 0.435613
2460.44, 0.436147
2461.61, 0.436347
2462.78, 0.436347
2463.95, 0.436214
2465.12, 0.436214
2466.3, 0.436480
2467.47, 0.437081
2468.65, 0.437548
2469.82, 0.438015
2471.0, 0.438482
2472.18, 0.438482
2473.36, 0.438482
2474.54, 0.439016
2475.72, 0.439350
2476.9, 0.439683
2478.08, 0.439884
2479.27, 0.439950
2480.46, 0.440017
2481.64, 0.440551
2482.83, 0.441886
2484.02, 0.442486
2485.21, 0.442820
2486.4, 0.442553
2487.6, 0.442286
2488.79, 0.442553
2489.99, 0.443153
2491.18, 0.443621
2492.38, 0.443487
2493.58, 0.443487
2494.78, 0.443687
2495.98, 0.443954
2497.18, 0.444021
2498.39, 0.444555
2499.59, 0.445022
2500.8, 0.445089
2502.01, 0.445556
2503.21, 0.445889
2504.42, 0.446156
2505.63, 0.446824
2506.84, 0.447024
2508.06, 0.447024
2509.27, 0.447090
2510.49, 0.447357
2511.7, 0.448158
2512.92, 0.448225
2514.14, 0.447958
2515.36, 0.448492
2516.58, 0.448959
2517.8, 0.449092
2519.03, 0.449226
2520.25, 0.449760
2521.48, 0.450160
2522.7, 0.450227
2523.93, 0.450293
2525.16, 0.450427
2526.39, 0.450560
2527.62, 0.450961
2528.86, 0.451228
2530.09, 0.451361
2531.33, 0.451561
2532.56, 0.451561
2533.8, 0.452229
2535.04, 0.452028
2536.28, 0.452095
2537.52, 0.453363
2538.76, 0.453897
2540.01, 0.453897
2541.25, 0.453296
2542.5, 0.452629
2543.75, 0.453230
2544.99, 0.454431
2546.24, 0.454698
2547.49, 0.454497
2548.75, 0.455231
2550.0, 0.455432
2551.26, 0.455165
2552.51, 0.454898
2553.77, 0.456433
2555.03, 0.457634
2556.29, 0.457834
2557.55, 0.458168
2558.81, 0.457767
2560.08, 0.455365
2561.34, 0.454097
2562.61, 0.454698
2563.88, 0.455365
2565.14, 0.457500
2566.41, 0.459502
2567.68, 0.459169
2568.96, 0.457367
2570.23, 0.458501
2571.51, 0.459702
2572.78, 0.457167
2574.06, 0.458368
2575.34, 0.459435
2576.62, 0.458902
2577.9, 0.460904
2579.18, 0.461771
2580.47, 0.460103
2581.75, 0.459969
2583.04, 0.457767
2584.32, 0.458368
2585.61, 0.460570
2586.9, 0.459769
2588.2, 0.460703
2589.49, 0.462105
2590.78, 0.463306
2592.08, 0.461971
2593.37, 0.455498
2594.67, 0.451228
2595.97, 0.457567
2597.27, 0.463573
2598.57, 0.465842
2599.88, 0.465308
2601.18, 0.463906
2602.49, 0.463306
2603.79, 0.461638
2605.1, 0.459903
2606.41, 0.461704
2607.72, 0.464040
2609.03, 0.464774
2610.35, 0.466509
2611.66, 0.467443
2612.98, 0.466976
2614.3, 0.466843
2615.62, 0.463373
2616.94, 0.462372
2618.26, 0.465708
2619.58, 0.464240
2620.91, 0.465641
2622.23, 0.469779
2623.56, 0.470846
2624.89, 0.469312
2626.22, 0.466175
2627.55, 0.468511
2628.88, 0.467510
2630.21, 0.464774
2631.55, 0.468244
2632.89, 0.469645
2634.22, 0.470179
2635.56, 0.472515
2636.9, 0.473582
2638.25, 0.474183
2639.59, 0.473649
2640.93, 0.473182
2642.28, 0.473516
2643.63, 0.473916
2644.98, 0.472581
2646.33, 0.473315
2647.68, 0.474917
2649.03, 0.475384
2650.39, 0.474516
2651.74, 0.472515
2653.1, 0.472782
2654.46, 0.473649
2655.82, 0.474316
2657.18, 0.475584
2658.54, 0.473849
2659.9, 0.473449
2661.27, 0.474450
2662.64, 0.474183
2664.01, 0.469779
2665.38, 0.466576
2666.74, 0.467844
2668.12, 0.470780
2669.49, 0.466576
2670.87, 0.467243
2672.24, 0.473249
2673.62, 0.474116
2675.0, 0.471113
2676.38, 0.468244
2677.76, 0.468778
2679.15, 0.469979
2680.54, 0.472982
2681.92, 0.472715
2683.31, 0.471113
2684.7, 0.471113
2686.09, 0.470913
2687.48, 0.470913
2688.88, 0.471047
2690.27, 0.470913
2691.67, 0.468644
2693.07, 0.464373
2694.47, 0.463172
2695.87, 0.464440
2697.27, 0.465708
2698.67, 0.465041
2700.08, 0.462572
2701.49, 0.460770
2702.9, 0.460503
2704.31, 0.458435
2705.72, 0.455699
2707.13, 0.451695
2708.54, 0.445823
2709.96, 0.438816
2711.38, 0.435279
2712.8, 0.433344
2714.22, 0.427138
2715.64, 0.416328
2717.06, 0.396509
2718.49, 0.368816
2719.91, 0.348931
2721.34, 0.354870
2722.77, 0.369951
2724.2, 0.382563
2725.63, 0.393640
2727.07, 0.398177
2728.5, 0.391905
2729.94, 0.378158
2731.38, 0.369150
2732.82, 0.371352
2734.26, 0.379293
2735.7, 0.389169
2737.15, 0.393640
2738.59, 0.391571
2740.04, 0.389503
2741.49, 0.388835
2742.94, 0.387100
2744.39, 0.384765
2745.84, 0.386099
2747.3, 0.389369
2748.76, 0.391104
2750.21, 0.390904
2751.67, 0.390036
2753.14, 0.388301
2754.6, 0.383964
2756.06, 0.384298
2757.53, 0.386300
2759.0, 0.386033
2760.46, 0.385032
2761.94, 0.383430
2763.41, 0.383697
2764.88, 0.384765
2766.36, 0.384364
2767.83, 0.383831
2769.31, 0.383163
2770.79, 0.382629
2772.27, 0.383630
2773.76, 0.384431
2775.24, 0.384164
2776.73, 0.383363
2778.22, 0.383564
2779.71, 0.383831
2781.2, 0.384031
2782.69, 0.384831
2784.18, 0.385165
2785.68, 0.383497
2787.18, 0.382696
2788.68, 0.384164
2790.18, 0.385365
2791.68, 0.385832
2793.19, 0.385699
2794.69, 0.385365
2796.2, 0.385299
2797.71, 0.384898
2799.22, 0.384498
2800.73, 0.382830
2802.24, 0.380227
2803.76, 0.379693
2805.28, 0.380094
2806.8, 0.379360
2808.32, 0.377825
2809.84, 0.375956
2811.36, 0.374221
2812.89, 0.371886
2814.42, 0.369350
2815.94, 0.367081
2817.48, 0.364212
2819.01, 0.361076
2820.54, 0.358740
2822.08, 0.357139
2823.61, 0.355137
2825.15, 0.352935
2826.69, 0.351200
2828.23, 0.349531
2829.78, 0.348130
2831.32, 0.346662
2832.87, 0.345127
2834.42, 0.343926
2835.97, 0.343325
2837.52, 0.342591
2839.08, 0.342325
2840.63, 0.342258
2842.19, 0.342058
2843.75, 0.341657
2845.31, 0.341257
2846.87, 0.341057
2848.44, 0.341190
2850.0, 0.341457
2851.57, 0.341924
2853.14, 0.342391
2854.71, 0.343259
2856.28, 0.344393
2857.86, 0.345327
2859.43, 0.346061
2861.01, 0.347196
2862.59, 0.348597
2864.17, 0.349998
2865.76, 0.350866
2867.34, 0.351600
2868.93, 0.352534
2870.52, 0.353402
2872.11, 0.354002
2873.7, 0.354603
2875.29, 0.355137
2876.89, 0.355537
2878.49, 0.355737
2880.08, 0.355871
2881.69, 0.356004
2883.29, 0.356338
2884.89, 0.356538
2886.5, 0.356471
2888.11, 0.356204
2889.72, 0.356471
2891.33, 0.357072
2892.94, 0.357606
2894.56, 0.357806
2896.17, 0.358139
2897.79, 0.358807
2899.42, 0.359274
2901.04, 0.359741
2902.66, 0.360475
2904.29, 0.360942
2905.92, 0.361943
2907.55, 0.363211
2909.18, 0.364279
2910.81, 0.365079
2912.45, 0.365680
2914.08, 0.366414
2915.72, 0.367415
2917.36, 0.368483
2919.01, 0.369417
2920.65, 0.370418
2922.3, 0.371219
2923.94, 0.372086
2925.59, 0.373220
2927.25, 0.374288
2928.9, 0.375089
2930.56, 0.376023
2932.21, 0.376757
2933.87, 0.377558
2935.53, 0.378425
2937.2, 0.379159
2938.86, 0.379960
2940.53, 0.380894
2942.2, 0.381695
2943.87, 0.382563
2945.54, 0.383363
2947.22, 0.384164
2948.89, 0.384965
2950.57, 0.385499
2952.25, 0.385766
2953.93, 0.386099
2955.62, 0.386833
2957.3, 0.387901
2958.99, 0.388835
2960.68, 0.389369
2962.37, 0.389903
2964.07, 0.390370
2965.76, 0.390837
2967.46, 0.391571
2969.16, 0.392038
2970.86, 0.392572
2972.56, 0.393239
2974.27, 0.393973
2975.98, 0.394574
2977.69, 0.395108
2979.4, 0.395508
2981.11, 0.396176
2982.83, 0.397043
2984.54, 0.397644
2986.26, 0.397777
2987.98, 0.398311
2989.71, 0.398978
2991.43, 0.399445
2993.16, 0.400113
2994.89, 0.400713
2996.62, 0.401180
2998.35, 0.401848
3000.09, 0.402782
3001.83, 0.403182
3003.57, 0.403516
3005.31, 0.404183
3007.05, 0.404850
3008.79, 0.405117
3010.54, 0.405518
3012.29, 0.406052
3014.04, 0.406786
3015.8, 0.407453
3017.55, 0.407853
3019.31, 0.408320
3021.07, 0.408787
3022.83, 0.409388
3024.59, 0.409922
3026.36, 0.410389
3028.13, 0.410923
3029.9, 0.411523
3031.67, 0.412124
3033.44, 0.412658
3035.22, 0.412991
3037.0, 0.413258
3038.78, 0.413926
3040.56, 0.414593
3042.34, 0.415060
3044.13, 0.415527
3045.92, 0.415794
3047.71, 0.416128
3049.5, 0.416662
3051.3, 0.417062
3053.09, 0.417529
3054.89, 0.417929
3056.69, 0.418196
3058.5, 0.418463
3060.3, 0.419064
3062.11, 0.419531
3063.92, 0.419931
3065.73, 0.420265
3067.55, 0.420532
3069.36, 0.420599
3071.18, 0.420932
3073.0, 0.421266
3074.82, 0.421666
3076.65, 0.421933
3078.48, 0.422133
3080.31, 0.422467
3082.14, 0.423068
3083.97, 0.423535
3085.8, 0.423735
3087.64, 0.424069
3089.48, 0.424536
3091.33, 0.424803
3093.17, 0.425136
3095.02, 0.425470
3096.87, 0.425804
3098.72, 0.426271
3100.57, 0.426805
3102.43, 0.427071
3104.28, 0.427338
3106.14, 0.427605
3108.01, 0.427872
3109.87, 0.428273
3111.74, 0.428806
3113.61, 0.429274
3115.48, 0.429741
3117.35, 0.430475
3119.23, 0.431075
3121.1, 0.431342
3122.98, 0.431609
3124.87, 0.432076
3126.75, 0.432543
3128.64, 0.433144
3130.53, 0.433744
3132.42, 0.434212
3134.31, 0.434545
3136.21, 0.434812
3138.11, 0.435146
3140.01, 0.435479
3141.91, 0.436013
3143.82, 0.436747
3145.73, 0.437081
3147.64, 0.437415
3149.55, 0.438015
3151.46, 0.438616
3153.38, 0.439083
3155.3, 0.439483
3157.22, 0.440017
3159.14, 0.440484
3161.07, 0.440751
3163.0, 0.441151
3164.93, 0.441819
3166.86, 0.442286
3168.8, 0.442820
3170.74, 0.443354
3172.68, 0.443621
3174.62, 0.443887
3176.56, 0.444488
3178.51, 0.444955
3180.46, 0.445222
3182.42, 0.445823
3184.37, 0.446356
3186.33, 0.446623
3188.29, 0.446957
3190.25, 0.447424
3192.21, 0.447958
3194.18, 0.448425
3196.15, 0.448692
3198.12, 0.449026
3200.09, 0.449426
3202.07, 0.449893
3204.05, 0.450360
3206.03, 0.450627
3208.02, 0.451028
3210.0, 0.451561
3211.99, 0.452162
3213.98, 0.452496
3215.98, 0.452896
3217.97, 0.453296
3219.97, 0.453630
3221.97, 0.453830
3223.98, 0.454297
3225.98, 0.454898
3227.99, 0.455165
3230.0, 0.455498
3232.02, 0.455899
3234.03, 0.456366
3236.05, 0.456766
3238.07, 0.456966
3240.1, 0.457167
3242.12, 0.457767
3244.15, 0.458101
3246.18, 0.458501
3248.22, 0.458768
3250.25, 0.459102
3252.29, 0.459702
3254.33, 0.459969
3256.38, 0.460303
3258.43, 0.460703
3260.47, 0.461037
3262.53, 0.461504
3264.58, 0.461905
3266.64, 0.462171
3268.7, 0.462572
3270.76, 0.463039
3272.82, 0.463239
3274.89, 0.463573
3276.96, 0.464107
3279.04, 0.464307
3281.11, 0.464373
3283.19, 0.464707
3285.27, 0.465108
3287.35, 0.465374
3289.44, 0.465641
3291.53, 0.465842
3293.62, 0.466175
3295.71, 0.466576
3297.81, 0.466709
3299.91, 0.466843
3302.01, 0.466976
3304.11, 0.466976
3306.22, 0.467176
3308.33, 0.467376
3310.44, 0.467510
3312.56, 0.467577
3314.68, 0.467643
3316.8, 0.467844
3318.92, 0.467977
3321.05, 0.467977
3323.18, 0.468110
3325.31, 0.468177
3327.44, 0.468244
3329.58, 0.467977
3331.72, 0.467643
3333.86, 0.467243
3336.01, 0.466576
3338.16, 0.465575
3340.31, 0.464240
3342.46, 0.462705
3344.61, 0.461037
3346.77, 0.459769
3348.94, 0.458902
3351.1, 0.458501
3353.27, 0.458568
3355.44, 0.458835
3357.61, 0.459502
3359.79, 0.460036
3361.97, 0.460370
3364.15, 0.460904
3366.33, 0.461304
3368.52, 0.461437
3370.71, 0.461571
3372.9, 0.461771
3375.1, 0.461971
3377.3, 0.462238
3379.5, 0.462438
3381.71, 0.462639
3383.91, 0.462972
3386.12, 0.463306
3388.34, 0.463706
3390.55, 0.463973
3392.77, 0.464373
3394.99, 0.464574
3397.22, 0.464640
3399.45, 0.464707
3401.68, 0.464774
3403.91, 0.464907
3406.15, 0.464774
3408.39, 0.464841
3410.63, 0.464907
3412.87, 0.465041
3415.12, 0.465374
3417.37, 0.465708
3419.63, 0.466175
3421.88, 0.466709
3424.14, 0.467243
3426.41, 0.467977
3428.67, 0.468711
3430.94, 0.469111
3433.21, 0.469312
3435.49, 0.469578
3437.77, 0.469912
3440.05, 0.470246
3442.33, 0.470379
3444.62, 0.470446
3446.91, 0.470513
3449.2, 0.470646
3451.5, 0.470780
3453.8, 0.470713
3456.1, 0.470446
3458.41, 0.470246
3460.72, 0.469578
3463.03, 0.468711
3465.34, 0.467577
3467.66, 0.466175
3469.98, 0.464640
3472.31, 0.463106
3474.63, 0.462038
3476.96, 0.461504
3479.3, 0.461437
3481.64, 0.461838
3483.97, 0.462505
3486.32, 0.463239
3488.66, 0.464173
3491.01, 0.464774
3493.36, 0.465241
3495.72, 0.466042
3498.08, 0.467109
3500.44, 0.468044
3502.81, 0.468978
3505.18, 0.469912
3507.55, 0.471047
3509.92, 0.472515
3512.3, 0.473716
3514.68, 0.474717
3517.06, 0.475918
3519.45, 0.477519
3521.84, 0.479054
3524.24, 0.480455
3526.64, 0.481657
3529.04, 0.482858
3531.44, 0.483925
3533.85, 0.484726
3536.26, 0.485327
3538.67, 0.486194
3541.09, 0.486995
3543.51, 0.487462
3545.93, 0.487796
3548.36, 0.488129
3550.79, 0.488530
3553.22, 0.488863
3555.66, 0.489331
3558.1, 0.489731
3560.54, 0.489998
3562.99, 0.490198
3565.44, 0.490465
3567.9, 0.490598
3570.35, 0.490865
3572.81, 0.491065
3575.28, 0.491533
3577.75, 0.491866
3580.22, 0.492133
3582.69, 0.492534
3585.17, 0.492867
3587.65, 0.493134
3590.14, 0.493134
3592.62, 0.493334
3595.11, 0.493735
3597.61, 0.493935
3600.11, 0.494135
3602.61, 0.494202
3605.11, 0.494402
3607.62, 0.494535
3610.14, 0.494669
3612.65, 0.494869
3615.17, 0.495269
3617.69, 0.495403
3620.22, 0.495470
3622.75, 0.495536
3625.28, 0.495536
3627.82, 0.495670
3630.36, 0.495803
3632.9, 0.496003
3635.45, 0.496070
3638.0, 0.496270
3640.56, 0.496471
3643.12, 0.496471
3645.68, 0.496604
3648.24, 0.496871
3650.81, 0.497004
3653.39, 0.497004
3655.96, 0.497004
3658.54, 0.497071
3661.13, 0.497205
3663.71, 0.497405
3666.3, 0.497605
3668.9, 0.497672
3671.5, 0.497605
3674.1, 0.497605
3676.7, 0.497805
3679.31, 0.498072
3681.93, 0.498072
3684.54, 0.497939
3687.17, 0.497872
3689.79, 0.498005
3692.42, 0.498206
3695.05, 0.498139
3697.69, 0.498206
3700.32, 0.498339
3702.97, 0.498606
3705.61, 0.498673
3708.27, 0.498673
3710.92, 0.498673
3713.58, 0.498606
3716.24, 0.498539
3718.91, 0.498673
3721.58, 0.498873
3724.25, 0.498806
3726.93, 0.498673
3729.61, 0.498606
3732.29, 0.498739
3734.98, 0.498940
3737.67, 0.499073
3740.37, 0.498873
3743.07, 0.498673
3745.78, 0.498873
3748.49, 0.498806
3751.2, 0.498673
3753.91, 0.498606
3756.63, 0.498606
3759.36, 0.498539
3762.09, 0.498606
3764.82, 0.498472
3767.55, 0.498472
3770.29, 0.498406
3773.04, 0.498339
3775.78, 0.498005
3778.54, 0.497738
3781.29, 0.497672
3784.05, 0.497672
3786.82, 0.497538
3789.59, 0.497205
3792.36, 0.496738
3795.13, 0.496204
3797.92, 0.495670
3800.7, 0.495003
3803.49, 0.494202
3806.28, 0.493601
3809.08, 0.492934
3811.88, 0.492333
3814.68, 0.491666
3817.49, 0.490865
3820.31, 0.489998
3823.12, 0.489331
3825.94, 0.488663
3828.77, 0.487862
3831.6, 0.486995
3834.43, 0.486261
3837.27, 0.485393
3840.11, 0.484659
3842.96, 0.484126
3845.81, 0.483725
3848.67, 0.483458
3851.53, 0.483191
3854.39, 0.482924
3857.26, 0.482591
3860.13, 0.482457
3863.01, 0.482257
3865.89, 0.481857
3868.77, 0.481857
3871.66, 0.481857
3874.55, 0.481723
3877.45, 0.481590
3880.35, 0.481390
3883.26, 0.481189
3886.17, 0.481189
3889.09, 0.480923
3892.01, 0.480789
3894.93, 0.480656
3897.86, 0.480522
3900.79, 0.480255
3903.73, 0.480055
3906.67, 0.479788
3909.62, 0.479655
3912.57, 0.479388
3915.52, 0.479054
3918.48, 0.478654
3921.45, 0.478187
3924.42, 0.477586
3927.39, 0.477052
3930.37, 0.476518
3933.35, 0.475851
3936.34, 0.474783
3939.33, 0.473048
3942.32, 0.470713
3945.32, 0.467910
3948.33, 0.464974
3951.34, 0.461971
3954.35, 0.459035
3957.37, 0.456433
3960.39, 0.454030
3963.42, 0.451895
3966.45, 0.450160
3969.49, 0.448959
3972.53, 0.447958
3975.58, 0.447157
3978.63, 0.446824
3981.68, 0.447090
3984.75, 0.448025
3987.81, 0.449693
3990.88, 0.452028
3993.95, 0.454898
3997.03, 0.458034
4000.12, 0.461237
4003.21, 0.464173
4006.3, 0.466976
4009.4, 0.469645
4012.5, 0.471847
4015.61, 0.473449
4018.72, 0.474850
4021.84, 0.476185
4024.96, 0.477453
4028.09, 0.478787
4031.22, 0.480122
4034.36, 0.481456
4037.5, 0.482724
4040.65, 0.483792
4043.8, 0.484793
4046.96, 0.485727
4050.12, 0.486394
4053.29, 0.486795
4056.46, 0.487195
4059.64, 0.487596
4062.82, 0.487862
4066.0, 0.487996
4069.19, 0.488129
4072.39, 0.488129
4075.59, 0.488196
4078.8, 0.488263
4082.01, 0.488463
4085.23, 0.488530
4088.45, 0.488463
4091.68, 0.488530
4094.91, 0.488596
4098.15, 0.488596
4101.39, 0.488663
4104.63, 0.488330
4107.89, 0.488196
4111.14, 0.488330
4114.41, 0.488396
4117.67, 0.488129
4120.95, 0.487996
4124.23, 0.487796
4127.51, 0.487662
4130.8, 0.487462
4134.09, 0.487596
4137.39, 0.487395
4140.7, 0.487262
4144.01, 0.487128
4147.32, 0.486995
4150.64, 0.486995
4153.97, 0.486728
4157.3, 0.486461
4160.64, 0.486394
4163.98, 0.486194
4167.33, 0.485994
4170.68, 0.485861
4174.04, 0.485527
4177.4, 0.485327
4180.77, 0.485193
4184.14, 0.484793
4187.52, 0.484392
4190.91, 0.484126
4194.3, 0.483792
4197.69, 0.483392
4201.1, 0.482591
4204.5, 0.481390
4207.92, 0.479988
4211.34, 0.478387
4214.76, 0.476785
4218.19, 0.475117
4221.62, 0.473582
4225.06, 0.472448
4228.51, 0.471580
4231.96, 0.470913
4235.42, 0.470513
4238.88, 0.470513
4242.35, 0.471113
4245.83, 0.472114
4249.31, 0.473582
4252.79, 0.475384
4256.28, 0.476385
4259.78, 0.475117
4263.29, 0.473048
4266.79, 0.471580
4270.31, 0.470780
4273.83, 0.470179
4277.35, 0.469779
4280.89, 0.469512
4284.42, 0.469378
4287.97, 0.469378
4291.52, 0.469378
4295.07, 0.469512
4298.63, 0.469845
4302.2, 0.470046
4305.78, 0.470246
4309.35, 0.470579
4312.94, 0.470846
4316.53, 0.471047
4320.13, 0.471380
4323.73, 0.471514
4327.34, 0.471580
4330.96, 0.471647
4334.58, 0.471714
4338.21, 0.471514
4341.84, 0.471380
4345.48, 0.471180
4349.12, 0.470913
4352.77, 0.470646
4356.43, 0.470379
4360.1, 0.469979
4363.76, 0.469712
4367.44, 0.469378
4371.12, 0.469045
4374.81, 0.468644
4378.51, 0.468244
4382.21, 0.467777
4385.92, 0.467443
4389.63, 0.466976
4393.35, 0.466509
4397.08, 0.465975
4400.81, 0.465575
4404.55, 0.465108
4408.29, 0.464574
4412.04, 0.464040
4415.8, 0.463706
4419.57, 0.463239
4423.34, 0.462839
4427.12, 0.462305
4430.9, 0.461771
4434.69, 0.461237
4438.49, 0.460770
4442.29, 0.460436
4446.1, 0.459903
4449.92, 0.459302
4453.74, 0.458835
4457.57, 0.458234
4461.41, 0.457567
4465.25, 0.457100
4469.1, 0.456566
4472.95, 0.455899
4476.82, 0.455298
4480.69, 0.454631
4484.56, 0.454097
4488.44, 0.453430
4492.33, 0.452763
4496.23, 0.452028
4500.13, 0.451361
4504.04, 0.450560
4507.96, 0.449760
4511.88, 0.448692
4515.81, 0.447624
4519.75, 0.446623
4523.69, 0.445556
4527.65, 0.444154
4531.6, 0.442686
4535.57, 0.441018
4539.54, 0.439150
4543.52, 0.437281
4547.5, 0.435346
4551.5, 0.433411
4555.5, 0.431409
4559.5, 0.429407
4563.52, 0.427405
4567.54, 0.425403
4571.56, 0.423602
4575.6, 0.421800
4579.64, 0.419998
4583.69, 0.418263
4587.75, 0.416528
4591.81, 0.414526
4595.88, 0.412591
4599.96, 0.410456
4604.04, 0.408387
4608.14, 0.406252
4612.24, 0.404183
4616.34, 0.401981
4620.46, 0.399779
4624.58, 0.397577
4628.71, 0.395308
4632.84, 0.393039
4636.99, 0.390704
4641.14, 0.388301
4645.3, 0.386099
4649.47, 0.383697
4653.64, 0.381228
4657.82, 0.378959
4662.01, 0.376624
4666.21, 0.374555
4670.41, 0.372753
4674.62, 0.371085
4678.84, 0.369484
4683.07, 0.368015
4687.3, 0.366748
4691.54, 0.365346
4695.79, 0.363878
4700.05, 0.362410
4704.31, 0.360675
4708.59, 0.358940
4712.87, 0.357072
4717.15, 0.355003
4721.45, 0.352868
4725.76, 0.350799
4730.07, 0.348664
4734.39, 0.346395
4738.72, 0.344393
4743.05, 0.342325
4747.39, 0.340323
4751.75, 0.338254
4756.1, 0.336185
4760.47, 0.334183
4764.85, 0.332382
4769.23, 0.330647
4773.62, 0.328912
4778.02, 0.327310
4782.43, 0.325709
4786.85, 0.324241
4791.27, 0.322773
4795.7, 0.321371
4800.14, 0.319903
4804.59, 0.318168
4809.05, 0.316633
4813.51, 0.315099
4817.99, 0.313430
4822.47, 0.311629
4826.96, 0.309894
4831.46, 0.308025
4835.96, 0.306224
4840.48, 0.304489
4845.0, 0.302820
4849.54, 0.301152
4854.08, 0.299551
4858.63, 0.297949
4863.18, 0.296281
4867.75, 0.294746
4872.33, 0.293278
4876.91, 0.291810
4881.5, 0.290409
4886.1, 0.289007
4890.71, 0.287673
4895.33, 0.286405
4899.96, 0.285337
4904.59, 0.284203
4909.24, 0.283202
4913.89, 0.282468
4918.55, 0.281734
4923.22, 0.280933
4927.9, 0.280132
4932.59, 0.279465
4937.29, 0.278731
4942.0, 0.277930
4946.71, 0.277330
4951.44, 0.276462
4956.17, 0.275595
4960.91, 0.274794
4965.67, 0.274193
4970.43, 0.273459
4975.2, 0.272592
4979.98, 0.271724
4984.76, 0.270857
4989.56, 0.269923
4994.37, 0.268988
4999.18, 0.267987
5004.01, 0.266853
5008.84, 0.265585
5013.69, 0.264184
5018.54, 0.262649
5023.4, 0.261381
5028.28, 0.259846
5033.16, 0.258178
5038.05, 0.256510
5042.95, 0.254708
5047.86, 0.252706
5052.78, 0.250638
5057.71, 0.248769
5062.65, 0.247034
5067.6, 0.245566
5072.56, 0.244298
5077.53, 0.243164
5082.5, 0.242296
5087.49, 0.241963
5092.49, 0.241763
5097.5, 0.241963
5102.51, 0.242363
5107.54, 0.242830
5112.58, 0.243497
5117.62, 0.244432
5122.68, 0.245366
5127.75, 0.246167
5132.82, 0.247101
5137.91, 0.248169
5143.01, 0.248969
5148.12, 0.249770
5153.23, 0.251105
5158.36, 0.252239
5163.5, 0.253307
5168.65, 0.254241
5173.81, 0.255242
5178.98, 0.256109
5184.15, 0.257110
5189.34, 0.258111
5194.54, 0.258912
5199.75, 0.259780
5204.98, 0.260847
5210.21, 0.261181
5215.45, 0.261915
5220.7, 0.263049
5225.96, 0.263650
5231.23, 0.263783
5236.52, 0.263650
5241.81, 0.263650
5247.12, 0.263516
5252.44, 0.263116
5257.76, 0.262716
5263.1, 0.262249
5268.45, 0.261581
5273.81, 0.260914
5279.18, 0.260580
5284.56, 0.260046
5289.95, 0.259246
5295.36, 0.259179
5300.77, 0.259446
5306.2, 0.259646
5311.63, 0.259913
5317.08, 0.260180
5322.54, 0.260647
5328.01, 0.261181
5333.49, 0.261781
5338.98, 0.262382
5344.49, 0.262382
5350.0, 0.262516
5355.53, 0.264184
5361.07, 0.266186
5366.62, 0.267720
5372.18, 0.269122
5377.75, 0.270590
5383.34, 0.272191
5388.93, 0.273993
5394.54, 0.275661
5400.16, 0.277396
5405.79, 0.278731
5411.44, 0.279999
5417.09, 0.280399
5422.76, 0.281333
5428.43, 0.284403
5434.12, 0.286738
5439.83, 0.288273
5445.54, 0.289808
5451.26, 0.291410
5457.0, 0.292344
5462.75, 0.292544
5468.52, 0.294346
5474.29, 0.295947
5480.08, 0.297082
5485.88, 0.298883
5491.69, 0.300018
5497.51, 0.300819
5503.35, 0.301419
5509.2, 0.301953
5515.06, 0.301886
5520.93, 0.301419
5526.82, 0.301019
5532.71, 0.300218
5538.63, 0.298149
5544.55, 0.294412
5550.49, 0.289408
5556.44, 0.285337
5562.4, 0.283802
5568.37, 0.283202
5574.36, 0.282134
5580.36, 0.284003
5586.37, 0.289875
5592.4, 0.294813
5598.44, 0.297482
5604.49, 0.299684
5610.56, 0.301419
5616.63, 0.302553
5622.73, 0.303955
5628.83, 0.304689
5634.95, 0.303955
5641.08, 0.302687
5647.23, 0.304355
5653.39, 0.305757
5659.56, 0.306757
5665.74, 0.307358
5671.94, 0.306290
5678.15, 0.306090
5684.38, 0.306691
5690.62, 0.306090
5696.87, 0.306157
5703.14, 0.305089
5709.42, 0.303021
5715.72, 0.302620
5722.03, 0.302687
5728.35, 0.302353
5734.69, 0.301286
5741.03, 0.299617
5747.4, 0.297682
5753.78, 0.297148
5760.17, 0.294012
5766.58, 0.290342
5773.0, 0.291076
5779.44, 0.290609
5785.88, 0.289141
5792.35, 0.287272
5798.83, 0.284803
5805.32, 0.282268
5811.83, 0.278931
5818.35, 0.273793
5824.89, 0.271057
5831.45, 0.270657
5838.01, 0.269989
5844.59, 0.268521
5851.19, 0.266519
5857.8, 0.264050
5864.43, 0.262048
5871.07, 0.260447
5877.73, 0.255843
5884.4, 0.254508
5891.09, 0.254174
5897.79, 0.252172
5904.5, 0.252506
5911.23, 0.250638
5917.98, 0.247568
5924.75, 0.244031
5931.53, 0.238359
5938.32, 0.233488
5945.13, 0.232554
5951.96, 0.229885
5958.8, 0.226014
5965.65, 0.220609
5972.53, 0.216872
5979.42, 0.213736
5986.32, 0.209332
5993.24, 0.206262
6000.18, 0.204527
6007.13, 0.201458
6014.1, 0.198522
6021.08, 0.197187
6028.09, 0.196119
6035.1, 0.194051
6042.14, 0.190114
6049.19, 0.187044
6056.25, 0.189513
6063.34, 0.189713
6070.44, 0.187378
6077.55, 0.186844
6084.69, 0.187177
6091.84, 0.186043
6099.0, 0.184508
6106.19, 0.181972
6113.39, 0.179971
6120.61, 0.181038
6127.84, 0.182039
6135.09, 0.181639
6142.36, 0.181439
6149.65, 0.181639
6156.95, 0.181238
6164.27, 0.181572
6171.61, 0.182239
6178.97, 0.181172
6186.34, 0.180371
6193.73, 0.181505
6201.14, 0.181706
6208.57, 0.181105
6216.01, 0.180638
6223.47, 0.180104
6230.95, 0.179437
6238.45, 0.178703
6245.97, 0.178035
6253.5, 0.177235
6261.06, 0.176300
6268.63, 0.175366
6276.21, 0.174632
6283.82, 0.173898
6291.45, 0.173231
6299.1, 0.172830
6306.76, 0.172430
6314.44, 0.172030
6322.14, 0.171629
6329.86, 0.171029
6337.6, 0.169294
6345.35, 0.168093
6353.13, 0.168960
6360.92, 0.168293
6368.74, 0.166224
6376.57, 0.165490
6384.43, 0.164756
6392.3, 0.163221
6400.19, 0.161153
6408.1, 0.156949
6416.03, 0.154546
6423.98, 0.155214
6431.95, 0.154480
6439.94, 0.153345
6447.95, 0.151811
6455.98, 0.150142
6464.03, 0.148407
6472.1, 0.145938
6480.19, 0.143469
6488.31, 0.140600
6496.44, 0.139732
6504.59, 0.140667
6512.76, 0.139866
6520.95, 0.138131
6529.16, 0.137931
6537.4, 0.137530
6545.65, 0.136529
6553.92, 0.135395
6562.22, 0.134394
6570.54, 0.132926
6578.88, 0.132926
6587.23, 0.132859
6595.61, 0.132392
6604.02, 0.132059
6612.44, 0.131058
6620.89, 0.129656
6629.35, 0.127254
6637.84, 0.125252
6646.35, 0.125586
6654.88, 0.125652
6663.44, 0.124518
6672.01, 0.122917
6680.61, 0.121916
6689.23, 0.121916
6697.88, 0.121715
6706.54, 0.120848
6715.23, 0.120714
6723.94, 0.121248
6732.67, 0.121916
6741.42, 0.122316
6750.2, 0.122449
6759.0, 0.122583
6767.82, 0.122449
6776.67, 0.121916
6785.54, 0.121382
6794.44, 0.121582
6803.35, 0.122516
6812.29, 0.122449
6821.26, 0.121715
6830.24, 0.121382
6839.25, 0.121582
6848.29, 0.120781
6857.35, 0.119113
6866.43, 0.118913
6875.54, 0.120247
6884.67, 0.120514
6893.82, 0.120448
6903.0, 0.120114
6912.2, 0.120247
6921.43, 0.120448
6930.69, 0.120381
6939.96, 0.120114
6949.27, 0.119447
6958.59, 0.118512
6967.95, 0.118913
6977.33, 0.119246
6986.73, 0.119180
6996.16, 0.119246
7005.61, 0.119647
7015.09, 0.119447
7024.6, 0.119447
7034.13, 0.119313
7043.69, 0.118846
7053.27, 0.119647
7062.88, 0.120714
7072.52, 0.121248
7082.18, 0.121782
7091.87, 0.122249
7101.58, 0.122650
7111.32, 0.122783
7121.09, 0.122850
7130.88, 0.122917
7140.71, 0.122850
7150.56, 0.123183
7160.43, 0.123784
7170.33, 0.124585
7180.27, 0.126253
7190.23, 0.127521
7200.21, 0.128188
7210.23, 0.129122
7220.27, 0.130457
7230.34, 0.131258
7240.44, 0.131925
7250.56, 0.132526
7260.72, 0.133059
7270.9, 0.133193
7281.12, 0.133793
7291.36, 0.134528
7301.63, 0.135195
7311.93, 0.135862
7322.25, 0.136396
7332.61, 0.136663
7343.0, 0.137130
7353.41, 0.137864
7363.86, 0.138131
7374.33, 0.138064
7384.83, 0.137997
7395.37, 0.137597
7405.93, 0.136997
7416.53, 0.136396
7427.15, 0.135729
7437.81, 0.134928
7448.5, 0.133860
7459.22, 0.132459
7469.96, 0.131391
7480.74, 0.130590
7491.55, 0.129656
7502.39, 0.128455
7513.27, 0.127254
7524.17, 0.125986
7535.11, 0.124651
7546.08, 0.123250
7557.08, 0.121982
7568.11, 0.120581
7579.17, 0.119246
7590.27, 0.118112
7601.4, 0.116978
7612.56, 0.115843
7623.76, 0.114642
7634.98, 0.113641
7646.24, 0.112707
7657.54, 0.111639
7668.87, 0.110438
7680.23, 0.109103
7691.62, 0.107702
7703.05, 0.106234
7714.51, 0.104833
7726.01, 0.103498
7737.54, 0.102097
7749.11, 0.100562
7760.71, 0.0989600
7772.35, 0.0972250
7784.02, 0.0957570
7795.72, 0.0941560
7807.46, 0.0924880
7819.23, 0.0910200
7831.04, 0.0896850
7842.89, 0.0884170
7854.77, 0.0871490
7866.69, 0.0856810
7878.65, 0.0842130
7890.64, 0.0828790
7902.67, 0.0816770
7914.74, 0.0804100
7926.84, 0.0792080
7938.98, 0.0777400
7951.16, 0.0764060
7963.37, 0.0750040
7975.62, 0.0736700
7987.91, 0.0720680
8000.24, 0.0705340
8012.6, 0.0689990
8025.01, 0.0674640
8037.45, 0.0657960
8049.93, 0.0643940
8062.45, 0.0632600
8075.01, 0.0621260
8087.61, 0.0608580
8100.24, 0.0597230
8112.91, 0.0585220
8125.63, 0.0575210
8138.39, 0.0564540
8151.18, 0.0551860
8164.02, 0.0537840
8176.9, 0.0524500
8189.81, 0.0513150
8202.77, 0.0501140
8215.77, 0.0486460
8228.82, 0.0473120
8241.9, 0.0460440
8255.02, 0.0447090
8268.19, 0.0431740
8281.39, 0.0421070
8294.65, 0.0411060
8307.94, 0.0401710
8321.28, 0.0390370
8334.66, 0.0382360
8348.08, 0.0375020
8361.54, 0.0369020
8375.05, 0.0361680
8388.6, 0.0355000
8402.2, 0.0349660
8415.84, 0.0345660
8429.52, 0.0340320
8443.25, 0.0337650
8457.02, 0.0336320
8470.84, 0.0336320
8484.7, 0.0336990
8498.61, 0.0339660
8512.57, 0.0343660
8526.57, 0.0351000
8540.62, 0.0359010
8554.71, 0.0371690
8568.85, 0.0385030
8583.04, 0.0400380
8597.27, 0.0416390
8611.55, 0.0440420
8625.88, 0.0473780
8640.26, 0.0519160
8654.68, 0.0574540
8669.16, 0.0635270
8683.68, 0.0699330
8698.25, 0.0766060
8712.87, 0.0832790
8727.53, 0.0900850
8742.25, 0.0972250
8757.02, 0.104699
8771.83, 0.112106
8786.7, 0.119380
8801.62, 0.126320
8816.59, 0.132659
8831.61, 0.137864
8846.68, 0.142068
8861.8, 0.145471
8876.97, 0.148341
8892.2, 0.150810
8907.48, 0.152812
8922.81, 0.154213
8938.2, 0.154747
8953.63, 0.154613
8969.13, 0.153612
8984.67, 0.151811
9000.27, 0.149942
9015.92, 0.147740
9031.63, 0.145471
9047.39, 0.143336
9063.21, 0.141467
9079.08, 0.139799
9095.01, 0.138331
9111.0, 0.137263
9127.04, 0.136329
9143.13, 0.135195
9159.28, 0.134060
9175.49, 0.132993
9191.76, 0.132059
9208.09, 0.130991
9224.47, 0.129656
9240.92, 0.128522
9257.42, 0.127721
9273.98, 0.126854
9290.6, 0.125853
9307.28, 0.124518
9324.02, 0.122917
9340.82, 0.120848
9357.68, 0.118713
9374.6, 0.116444
9391.58, 0.113775
9408.62, 0.110371
9425.73, 0.106167
9442.9, 0.101830
9460.13, 0.0976260
9477.42, 0.0930880
9494.78, 0.0886170
9512.2, 0.0844800
9529.69, 0.0809430
9547.24, 0.0778070
9564.86, 0.0748710
9582.54, 0.0724020
9600.28, 0.0706670
9618.1, 0.0691320
9635.97, 0.0680650
9653.92, 0.0673300
9671.93, 0.0667970
9690.01, 0.0662630
9708.16, 0.0655960
9726.37, 0.0653950
9744.65, 0.0656620
9763.0, 0.0658620
9781.43, 0.0658620
9799.92, 0.0659290
9818.48, 0.0662630
9837.1, 0.0666630
9855.8, 0.0665960
9874.58, 0.0664630
9893.42, 0.0666630
9912.34, 0.0665300
9931.33, 0.0662630
9950.39, 0.0659290
9969.52, 0.0657960
9988.74, 0.0655960
10008.0, 0.0651280
10027.4, 0.0645280
10046.8, 0.0641270
10066.3, 0.0635270
10085.9, 0.0628600
10105.6, 0.0624590
10125.3, 0.0627260
10145.1, 0.0638610
10165.0, 0.0662630
10185.0, 0.0706670
10205.0, 0.0762060
10225.2, 0.0818780
10245.4, 0.0884840
10265.7, 0.0956240
10286.0, 0.102497
10306.5, 0.108903
10327.0, 0.115109
10347.6, 0.120915
10368.3, 0.125586
10389.1, 0.129189
10409.9, 0.131658
10430.9, 0.132793
10451.9, 0.133460
10473.0, 0.134261
10494.2, 0.135528
10515.5, 0.137197
10536.9, 0.139132
10558.4, 0.141067
10579.9, 0.142402
10601.5, 0.142935
10623.3, 0.142735
10645.1, 0.141935
10667.0, 0.140667
10689.0, 0.138998
10711.1, 0.137731
10733.2, 0.137330
10755.5, 0.137931
10777.9, 0.139065
10800.3, 0.140733
10822.9, 0.142669
10845.5, 0.144737
10868.2, 0.145805
10891.1, 0.146139
10914.0, 0.146139
10937.0, 0.145405
10960.2, 0.144404
10983.4, 0.143469
11006.7, 0.142335
11030.1, 0.141201
11053.6, 0.140266
11077.3, 0.139466
11101.0, 0.138732
11124.8, 0.138198
11148.7, 0.137464
11172.7, 0.136997
11196.9, 0.137063
11221.1, 0.137130
11245.4, 0.137063
11269.9, 0.137130
11294.4, 0.137397
11319.1, 0.137864
11343.9, 0.138131
11368.8, 0.137997
11393.7, 0.137330
11418.8, 0.136863
11444.0, 0.136596
11469.4, 0.136396
11494.8, 0.136263
11520.3, 0.135862
11546.0, 0.134928
11571.8, 0.133527
11597.7, 0.132192
11623.7, 0.130791
11649.8, 0.128455
11676.0, 0.125986
11702.4, 0.123584
11728.9, 0.120781
11755.5, 0.117445
11782.2, 0.114108
11809.0, 0.110905
11836.0, 0.108636
11863.0, 0.107035
11890.3, 0.105633
11917.6, 0.103965
11945.0, 0.103031
11972.6, 0.102564
12000.4, 0.101830
12028.2, 0.101096
12056.2, 0.100562
12084.3, 0.0997610
12112.5, 0.0994280
12140.9, 0.0994280
12169.4, 0.0996950
12198.0, 0.0999610
12226.8, 0.100429
12255.7, 0.100695
12284.7, 0.100962
12313.9, 0.101229
12343.2, 0.101696
12372.7, 0.101763
12402.3, 0.101429
12432.0, 0.100896
12461.9, 0.100562
12491.9, 0.0998280
12522.1, 0.0994940
12552.4, 0.0991610
12582.9, 0.0985600
12613.5, 0.0974920
12644.3, 0.0965580
12675.2, 0.0962250
12706.3, 0.0958910
12737.5, 0.0951570
12768.9, 0.0943560
12800.4, 0.0934220
12832.1, 0.0931550
12863.9, 0.0934890
12895.9, 0.0940890
12928.1, 0.0946900
12960.4, 0.0950230
12992.9, 0.0950900
13025.5, 0.0950900
13058.3, 0.0950900
13091.3, 0.0950230
13124.4, 0.0949570
13157.8, 0.0950900
13191.2, 0.0949570
13224.9, 0.0947560
13258.7, 0.0945560
13292.7, 0.0944230
13326.9, 0.0943560
13361.2, 0.0946900
13395.7, 0.0952900
13430.4, 0.0956910
13465.3, 0.0958240
13500.4, 0.0958240
13535.7, 0.0952240
13571.1, 0.0948230
13606.7, 0.0945560
13642.5, 0.0940890
13678.5, 0.0930880
13714.7, 0.0917540
13751.1, 0.0900190
13787.6, 0.0878170
13824.4, 0.0850810
13861.4, 0.0824110
13898.5, 0.0793420
13935.9, 0.0764060
13973.5, 0.0732690
14011.2, 0.0702670
14049.2, 0.0687990
14087.4, 0.0680650
14125.8, 0.0665300
14164.3, 0.0648610
14203.2, 0.0621260
14242.2, 0.0587220
14281.4, 0.0559200
14320.9, 0.0539850
14360.5, 0.0523160
14400.4, 0.0502480
14440.5, 0.0485790
14480.9, 0.0472450
14521.4, 0.0455770
14562.2, 0.0439750
14603.3, 0.0422400
14644.5, 0.0406390
14686.0, 0.0387700
14727.7, 0.0373690
14769.7, 0.0365680
14811.9, 0.0368350
14854.3, 0.0369020
14897.0, 0.0371690
14939.9, 0.0369680
14983.1, 0.0363680
15026.5, 0.0358340
15070.2, 0.0355670
15114.2, 0.0353000
15158.3, 0.0345660
15202.8, 0.0328980
15247.5, 0.0310960
15292.5, 0.0296280
15337.7, 0.0288940
15383.2, 0.0281600
15429.0, 0.0274930
15475.1, 0.0278930
15521.4, 0.0298280
15568.0, 0.0320970
15614.9, 0.0350330
15662.1, 0.0377020
15709.6, 0.0395040
15757.3, 0.0399040
15805.4, 0.0394370
15853.7, 0.0389700
15902.3, 0.0387030
15951.2, 0.0384360
16000.5, 0.0375690
16050.0, 0.0361680
16099.8, 0.0353000
16150.0, 0.0347000
16200.5, 0.0347660
16251.3, 0.0342320
16302.4, 0.0333650
16353.8, 0.0328310
16405.5, 0.0329650
16457.6, 0.0330980
16510.0, 0.0332980
16562.8, 0.0336320
16615.9, 0.0344330
16669.3, 0.0353000
16723.1, 0.0371020
16777.2, 0.0393040
16831.7, 0.0429070
16886.5, 0.0470450
16941.7, 0.0519830
16997.2, 0.0577880
17053.1, 0.0647950
17109.4, 0.0726020
17166.1, 0.0806100
17223.1, 0.0898850
17280.5, 0.0989600
17338.3, 0.107435
17396.5, 0.117044
17455.1, 0.125853
17514.0, 0.133527
17573.4, 0.141067
17633.2, 0.149075
17693.4, 0.156281
17754.0, 0.162087
17815.0, 0.166758
17876.4, 0.171229
17938.3, 0.174766
18000.5, 0.177235
18063.3, 0.178236
18126.4, 0.179303
18190.0, 0.180571
18254.1, 0.181517
18318.6, 0.180674
18383.5, 0.180034
18449.0, 0.179528
18514.9, 0.177709
18581.2, 0.176293
18648.0, 0.175316
18715.4, 0.175147
18783.2, 0.175653
18851.5, 0.173968
18920.3, 0.171339
18989.6, 0.168811
19059.4, 0.168542
19129.7, 0.167868
19200.6, 0.166048
19272.0, 0.164295
19343.9, 0.163149
19416.3, 0.160689
19489.3, 0.158735
19562.8, 0.156072
19637.0, 0.152702
19711.6, 0.150714
19786.8, 0.149332
19862.6, 0.146669
19939.0, 0.144041
20016.0, 0.141614
20093.6, 0.138547
20171.8, 0.135986
20250.6, 0.133896
20330.0, 0.133526
20410.0, 0.133863
20490.7, 0.133256
20572.0, 0.133896
20654.0, 0.138177
20736.6, 0.142019
20819.9, 0.145355
20903.8, 0.148489
20988.5, 0.149871
21073.8, 0.149972
21159.8, 0.149028
21246.5, 0.148759
21334.0, 0.146130
21422.1, 0.143198
21511.0, 0.142693
21600.7, 0.142120
21691.0, 0.140637
21782.1, 0.138311
21874.0, 0.134840
21966.7, 0.131638
22060.2, 0.129953
22154.5, 0.129515
22249.6, 0.127122
22345.5, 0.122842
22442.2, 0.119203
22539.8, 0.117079
22638.2, 0.114552
22737.5, 0.111316
22837.7, 0.107542
22938.7, 0.104340
23040.7, 0.100667
23143.5, 0.0969260
23247.3, 0.0949370
23352.1, 0.0938590
23457.7, 0.0911630
23564.4, 0.0878260
23672.0, 0.0852650
23780.5, 0.0827370
23890.1, 0.0795020
24000.7, 0.0770080
24112.3, 0.0758290
24225.0, 0.0769070
24338.7, 0.0790640
24453.5, 0.0813890
24569.4, 0.0853320
24686.4, 0.0894100
24804.5, 0.0919720
24923.8, 0.0939940
25044.2, 0.0951730
25165.8, 0.0960830
25288.6, 0.0960160
25412.5, 0.0954090
25537.7, 0.0939940
25664.1, 0.0918710
25791.8, 0.0898150
25920.8, 0.0881630
26051.1, 0.0863100
26182.6, 0.0860740
26315.5, 0.0857030
26449.8, 0.0814570
26585.4, 0.0778840
26722.5, 0.0755930
26860.9, 0.0751880
27000.8, 0.0739750
27142.1, 0.0734360
27285.0, 0.0736380
27429.4, 0.0747160
27575.3, 0.0758620
27722.7, 0.0765030
27871.8, 0.0760650
28022.4, 0.0744810
28174.7, 0.0733350
28328.7, 0.0720540
28484.4, 0.0708070
28641.7, 0.0706050
28800.9, 0.0711100
28961.8, 0.0723910
29124.5, 0.0760980
29289.0, 0.0800410
29455.4, 0.0817940
29623.8, 0.0824340
29794.0, 0.0824000
29966.3, 0.0823330
30140.5, 0.0816250
30316.7, 0.0807490
30495.1, 0.0806480
30675.5, 0.0794680
30858.1, 0.0769410
31042.8, 0.0757280
31229.8, 0.0747840
31419.1, 0.0730650
31610.7, 0.0714810
31804.6, 0.0694930
32000.9, 0.0669990
32199.7, 0.0646060
32400.9, 0.0650440
32604.8, 0.0652130
32811.1, 0.0657860
33020.1, 0.0690880
33231.8, 0.0743790
33446.2, 0.0792320
33663.4, 0.0844560
33883.4, 0.0893430
34106.3, 0.0922750
34332.1, 0.0929490
34561.0, 0.0947020
34792.9, 0.0967570
35028.0, 0.0970270
35266.3, 0.0954430
35507.8, 0.0934880
35752.7, 0.0915000
36001.0, 0.0898480
36252.8, 0.0902530
36508.1, 0.0889050
36767.0, 0.0874890
37029.7, 0.0873210
37296.1, 0.0858380
37566.3, 0.0840180
37840.5, 0.0828720
38118.8, 0.0809850
38401.2, 0.0801760
38687.8, 0.0805470
38978.6, 0.0808160
39273.9, 0.0813890
39573.7, 0.0841530
39878.1, 0.0870510
40187.3, 0.0891740
40501.2, 0.0940270
40820.0, 0.101914
41144.0, 0.108688
41473.2, 0.113372
41807.6, 0.116271
42147.5, 0.119776
42493.0, 0.122269
42844.2, 0.122101
43201.2, 0.121528
43564.3, 0.120517
43933.5, 0.116641
44309.0, 0.113911
44691.0, 0.114114
45079.6, 0.113069
45475.0, 0.111080
45877.5, 0.109159
46287.1, 0.107036
46704.2, 0.106025
47128.7, 0.105318
47561.1, 0.102689
48001.5, 0.100802
48450.1, 0.100599
48907.2, 0.0979030
49373.0, 0.0948700
49847.7, 0.0963190
50331.5, 0.0965890
50825.0, 0.0957800
51328.2, 0.0946000
51841.5, 0.0944320
52365.1, 0.0942970
52899.4, 0.0940270
53444.8, 0.0939600
54001.5, 0.0951060
54570.1, 0.0948700
55150.6, 0.0922750
55743.6, 0.0894440
56349.5, 0.0894100
56968.7, 0.0880620
57601.7, 0.0863770
58248.9, 0.0840860
58910.9, 0.0811200
59588.1, 0.0820630
60281.0, 0.0835460
60990.2, 0.0847260
61716.3, 0.0873550
62459.8, 0.0893770
63221.6, 0.0874890
64002.1, 0.0874220
64802.1, 0.0874560
65622.1, 0.0865120
66463.4, 0.0840180
67326.6, 0.0847930
68212.4, 0.0877250
69121.9, 0.0905230
70056.0, 0.0940270
71015.7, 0.0948700
72002.0, 0.0991500
73016.3, 0.102958
74059.4, 0.102992
75132.7, 0.102251
76237.6, 0.103397
77375.5, 0.104475
78547.9, 0.102655
79756.3, 0.101813
81002.5, 0.102352
82288.5, 0.102958
83615.7, 0.106093
84986.5, 0.106969
86402.9, 0.105722
87867.4, 0.106227
89382.4, 0.109530
90950.5, 0.111013
92574.6, 0.107474
94257.2, 0.105587
96002.7, 0.106800
97814.1, 0.107710
99695.1, 0.107879
101650.0, 0.110811
103683.0, 0.113069
105799.0, 0.113743
108003.0, 0.113440
110301.0, 0.112597
112699.0, 0.112766
115204.0, 0.113305
117822.0, 0.107104
120562.0, 0.115361
123433.0, 0.122404
126443.0, 0.118562
129604.0, 0.118731
132926.0, 0.121899
136424.0, 0.127459
140111.0, 0.132784
144003.0, 0.141142
148118.0, 0.134267
152474.0, 0.127898
157095.0, 0.130290
162004.0, 0.136424
167231.0, 0.133829
172805.0, 0.130729
178764.0, 0.142153
185148.0, 0.0963870
192005.0, 0.0502150
199390.0, 0.0485640
207366.0, 0.100195
216006.0, 0.133795
