Database of Origin, USGS Spectral Database
Sample Description, See USGS database for additional info
Date Added,2016-08-10 05:24:12.568296

Data ID,USGS_phl03          
Sample ID, phlogopite_hs23.17673
Mineral Name, phlogopite
Material Class,Phyllosilicate

Wavelength
221.1, 0.102556
229.1, 0.0939690
236.1, 0.0921040
242.1, 0.0868370
248.1, 0.0886540
253.6, 0.0903670
258.6, 0.0912610
263.6, 0.0953130
268.6, 0.0958490
273.1, 0.0968820
277.1, 0.0988150
281.1, 0.101019
285.1, 0.104477
289.1, 0.105378
293.1, 0.109718
297.1, 0.112662
301.1, 0.111606
305.1, 0.114183
309.1, 0.117049
313.1, 0.118511
317.1, 0.120246
321.1, 0.120425
325.1, 0.125142
329.1, 0.126287
333.1, 0.131125
337.1, 0.133745
341.1, 0.138302
345.1, 0.142787
349.1, 0.147306
353.1, 0.151800
357.1, 0.155365
360.6, 0.159484
363.6, 0.163257
366.6, 0.166703
369.6, 0.170135
372.6, 0.174320
375.6, 0.178023
378.6, 0.182445
381.1, 0.184964
383.1, 0.187487
385.1, 0.189702
387.1, 0.191442
389.1, 0.193836
391.1, 0.195668
393.1, 0.198066
395.1, 0.199327
397.1, 0.200827
399.1, 0.203066
401.1, 0.202930
403.1, 0.204589
405.1, 0.206573
407.1, 0.207087
409.1, 0.207666
411.1, 0.209834
412.8, 0.210331
415.8, 0.211238
418.8, 0.212210
421.8, 0.214344
424.8, 0.215072
427.8, 0.216124
430.8, 0.218253
433.8, 0.219793
436.8, 0.222252
439.8, 0.223629
442.8, 0.225744
445.8, 0.226305
448.8, 0.228999
451.3, 0.229486
453.3, 0.230631
455.3, 0.231560
457.3, 0.232764
459.3, 0.233424
461.3, 0.234658
463.3, 0.236304
465.3, 0.237082
467.3, 0.238158
469.3, 0.239596
471.3, 0.241297
473.3, 0.241755
475.3, 0.242635
477.3, 0.243461
479.3, 0.244751
481.3, 0.245790
483.3, 0.247326
485.3, 0.248737
487.3, 0.250229
489.3, 0.252176
491.3, 0.253460
493.3, 0.255492
495.3, 0.256689
497.3, 0.258886
499.3, 0.261147
501.3, 0.262442
503.3, 0.264615
505.3, 0.265773
507.3, 0.267339
509.3, 0.269374
511.3, 0.271949
513.3, 0.272527
515.3, 0.275632
517.3, 0.277113
519.3, 0.279678
521.3, 0.281457
523.3, 0.283773
525.3, 0.285827
527.3, 0.287798
529.3, 0.290015
531.3, 0.291991
533.3, 0.294206
535.3, 0.296420
537.3, 0.298388
539.3, 0.300356
541.3, 0.302320
543.3, 0.304614
545.3, 0.306909
547.3, 0.309121
549.3, 0.310821
551.3, 0.313358
553.3, 0.315240
555.3, 0.317516
557.3, 0.319479
559.3, 0.321626
561.3, 0.323591
563.3, 0.325721
565.3, 0.327745
567.3, 0.330227
569.3, 0.331702
571.3, 0.334160
573.3, 0.336814
575.3, 0.338537
577.3, 0.340389
579.3, 0.342275
581.3, 0.344898
583.3, 0.347194
585.3, 0.348628
587.3, 0.350551
589.3, 0.353289
591.3, 0.355053
593.3, 0.357378
595.3, 0.359781
597.3, 0.360823
599.3, 0.362944
601.1, 0.365988
602.7, 0.367048
604.3, 0.368376
605.9, 0.370227
607.5, 0.371471
609.1, 0.372712
610.7, 0.374277
612.3, 0.376211
613.9, 0.377187
615.5, 0.379058
617.1, 0.380360
618.7, 0.381661
620.3, 0.383462
621.9, 0.385566
623.5, 0.386307
625.1, 0.387355
626.7, 0.389551
628.3, 0.390771
629.9, 0.391508
631.7, 0.393377
633.7, 0.395490
635.7, 0.397359
637.7, 0.398821
639.7, 0.400769
641.7, 0.401909
643.7, 0.403940
645.7, 0.404503
647.7, 0.406947
649.7, 0.407832
651.7, 0.409375
653.7, 0.409781
655.7, 0.411231
657.7, 0.413041
659.7, 0.415059
661.7, 0.415708
663.7, 0.416277
665.7, 0.417414
667.7, 0.418551
670.2, 0.420031
673.2, 0.421412
676.2, 0.422408
679.2, 0.424545
682.2, 0.425952
685.2, 0.426360
688.2, 0.426628
691.2, 0.427876
694.2, 0.427902
697.2, 0.428442
700.2, 0.429805
702.0, 0.429641
704.0, 0.431035
706.0, 0.430542
708.0, 0.431802
710.0, 0.431859
712.0, 0.432464
714.0, 0.432770
716.0, 0.433678
718.0, 0.433738
720.0, 0.433738
722.0, 0.433384
724.0, 0.434741
726.0, 0.434637
728.0, 0.435582
730.0, 0.435997
732.0, 0.437227
734.0, 0.437510
736.0, 0.437778
738.0, 0.439651
740.0, 0.437444
742.0, 0.437594
744.0, 0.439422
746.0, 0.439876
748.0, 0.439793
750.5, 0.441030
753.5, 0.440861
756.5, 0.441403
759.5, 0.443119
762.5, 0.443711
765.5, 0.445098
768.5, 0.444969
771.5, 0.448276
774.5, 0.448958
777.5, 0.448365
781.0, 0.449732
785.0, 0.452261
789.0, 0.452441
793.0, 0.454032
797.0, 0.453443
801.5, 0.455483
806.5, 0.456411
811.5, 0.458556
816.5, 0.460018
822.0, 0.460672
828.0, 0.462730
835.0, 0.464248
843.0, 0.467021
851.0, 0.467700
859.0, 0.470400
871.0, 0.471625
883.0, 0.477487
894.0, 0.477487
904.0, 0.480477
914.0, 0.477575
924.0, 0.480594
933.0, 0.487988
941.0, 0.487908
949.0, 0.491920
957.0, 0.492362
964.0, 0.491929
970.0, 0.496737
976.0, 0.497174
982.0, 0.499010
988.0, 0.499011
994.0, 0.503556
1000.0, 0.501987
1006.0, 0.502693
1012.0, 0.504264
1018.0, 0.504003
1023.5, 0.504717
1028.5, 0.506813
1033.5, 0.505762
1038.5, 0.506024
1043.5, 0.506986
1048.5, 0.506906
1053.5, 0.504975
1058.5, 0.504101
1063.5, 0.506458
1068.5, 0.507429
1073.5, 0.505138
1078.5, 0.505765
1083.5, 0.505487
1088.5, 0.506015
1093.5, 0.505245
1098.5, 0.503759
1103.5, 0.503938
1108.5, 0.505521
1113.5, 0.505278
1118.5, 0.503979
1123.5, 0.504691
1128.5, 0.506365
1133.5, 0.505128
1138.5, 0.504946
1143.5, 0.505648
1148.5, 0.504568
1153.5, 0.506641
1158.5, 0.509472
1163.5, 0.507156
1168.5, 0.506930
1173.5, 0.508168
1178.5, 0.511744
1183.5, 0.510441
1188.5, 0.512057
1193.5, 0.515262
1198.5, 0.516193
1203.5, 0.515466
1208.5, 0.520396
1213.5, 0.520373
1218.5, 0.521168
1223.5, 0.522847
1228.5, 0.524464
1233.5, 0.527464
1238.5, 0.526591
1243.5, 0.530638
1248.5, 0.529311
1253.5, 0.534130
1258.5, 0.536158
1263.5, 0.537402
1268.5, 0.540959
1273.5, 0.542351
1278.5, 0.543346
1283.5, 0.546447
1288.5, 0.547346
1293.5, 0.552552
1298.5, 0.553499
1303.5, 0.556421
1308.5, 0.559665
1313.5, 0.560950
1318.5, 0.563437
1323.5, 0.564608
1328.5, 0.565517
1333.5, 0.570544
1338.5, 0.572626
1343.5, 0.576225
1348.5, 0.579284
1353.5, 0.581814
1358.5, 0.579999
1363.5, 0.582808
1368.5, 0.571478
1373.5, 0.518158
1378.5, 0.494622
1383.5, 0.536325
1388.5, 0.563316
1393.5, 0.569402
1398.5, 0.579599
1403.5, 0.594281
1408.5, 0.603156
1413.5, 0.610010
1418.5, 0.613480
1423.5, 0.615531
1428.5, 0.622091
1433.5, 0.625343
1438.5, 0.628797
1443.5, 0.626792
1448.5, 0.630762
1453.5, 0.632568
1458.5, 0.637548
1463.5, 0.637209
1468.5, 0.641863
1473.5, 0.649079
1478.5, 0.644948
1483.5, 0.649985
1488.5, 0.652451
1493.5, 0.656244
1498.5, 0.656305
1503.5, 0.658246
1508.5, 0.660398
1513.5, 0.660125
1518.5, 0.666371
1523.5, 0.665747
1528.5, 0.668372
1534.0, 0.672082
1540.0, 0.677492
1546.0, 0.678658
1552.0, 0.683027
1558.0, 0.684545
1564.0, 0.686785
1570.5, 0.689201
1577.5, 0.691346
1584.5, 0.695703
1591.5, 0.698450
1598.5, 0.698595
1605.5, 0.700327
1612.5, 0.703898
1619.5, 0.705499
1626.5, 0.708777
1633.5, 0.712135
1640.5, 0.714454
1647.5, 0.716113
1654.5, 0.717861
1661.5, 0.720058
1668.5, 0.722080
1676.0, 0.724664
1684.0, 0.727491
1692.0, 0.731401
1700.0, 0.732832
1708.0, 0.735579
1716.0, 0.734771
1724.0, 0.737206
1732.0, 0.742508
1740.0, 0.745395
1748.0, 0.743637
1756.0, 0.747126
1764.0, 0.746970
1772.0, 0.750236
1780.0, 0.753279
1788.0, 0.753864
1796.0, 0.755765
1805.0, 0.756847
1815.0, 0.760231
1825.0, 0.759898
1835.0, 0.761002
1845.0, 0.764361
1855.0, 0.764438
1865.0, 0.766288
1875.0, 0.763321
1885.0, 0.761807
1895.0, 0.759101
1905.0, 0.755578
1915.0, 0.753803
1925.0, 0.752061
1935.0, 0.758363
1945.0, 0.756569
1955.0, 0.766854
1965.0, 0.762226
1975.0, 0.767560
1985.0, 0.773419
1995.0, 0.770764
2005.0, 0.768706
2015.0, 0.775722
2025.0, 0.766906
2035.0, 0.768555
2045.0, 0.771099
2055.0, 0.772100
2065.0, 0.767006
2075.0, 0.755278
2085.0, 0.741993
2095.0, 0.738806
2105.0, 0.747286
2115.0, 0.744962
2125.0, 0.746405
2135.0, 0.755264
2145.0, 0.752362
2155.0, 0.759351
2165.0, 0.760923
2175.0, 0.763785
2185.0, 0.764964
2195.0, 0.760413
2205.0, 0.754565
2215.0, 0.749035
2225.0, 0.736516
2235.0, 0.686788
2245.0, 0.623314
2255.0, 0.640901
2265.0, 0.664875
2275.0, 0.652636
2285.0, 0.597523
2295.0, 0.554679
2305.0, 0.494978
2315.0, 0.441791
2325.0, 0.431431
2335.0, 0.473897
2345.0, 0.519612
2355.0, 0.531902
2365.0, 0.511250
2375.0, 0.473667
2386.0, 0.477265
2400.0, 0.525299
2418.0, 0.551663
2440.0, 0.546084
2466.0, 0.567379
2496.0, 0.582450
2528.0, 0.593046
2560.0, 0.573428
2592.0, 0.578041
2624.0, 0.570899
2656.0, 0.556097
2688.0, 0.274289
2720.0, 0.196453
2752.0, 0.244844
2784.0, 0.277938
2816.0, 0.295128
2848.0, 0.309176
2880.0, 0.300957
2912.0, 0.295394
2944.0, 0.303871
2976.0, 0.344441
