Database of Origin, USGS Spectral Database
Sample Description, See USGS database for additional info
Date Added,2016-08-03 21:00:05.758605

Data ID,USGS_and16          
Sample ID, andradite_ws488.2399
Mineral Name, andradite
Material Class,Nesosilicate

Wavelength
1562.9, 0.501980
1563.38, 0.502659
1563.85, 0.502282
1564.32, 0.501679
1564.79, 0.502357
1565.26, 0.503565
1565.74, 0.504168
1566.21, 0.503414
1566.68, 0.502735
1567.16, 0.503263
1567.63, 0.504394
1568.1, 0.505752
1568.58, 0.505451
1569.05, 0.505451
1569.53, 0.505677
1570.0, 0.505903
1570.48, 0.506205
1570.96, 0.506507
1571.43, 0.506356
1571.91, 0.506733
1572.39, 0.507186
1572.86, 0.507563
1573.34, 0.507337
1573.82, 0.507865
1574.3, 0.508619
1574.77, 0.508996
1575.25, 0.508845
1575.73, 0.509147
1576.21, 0.509373
1576.69, 0.509902
1577.17, 0.510128
1577.65, 0.510203
1578.13, 0.510430
1578.61, 0.510656
1579.09, 0.510882
1579.57, 0.511259
1580.05, 0.511033
1580.54, 0.511184
1581.02, 0.511637
1581.5, 0.512391
1581.98, 0.512693
1582.47, 0.512316
1582.95, 0.512391
1583.43, 0.512919
1583.92, 0.513221
1584.4, 0.513447
1584.88, 0.514277
1585.37, 0.515107
1585.85, 0.515333
1586.34, 0.515710
1586.82, 0.516012
1587.31, 0.516314
1587.8, 0.515786
1588.28, 0.515710
1588.77, 0.516389
1589.26, 0.516616
1589.74, 0.517068
1590.23, 0.517974
1590.72, 0.518200
1591.21, 0.518502
1591.7, 0.518125
1592.19, 0.518351
1592.67, 0.519105
1593.16, 0.519633
1593.65, 0.519482
1594.14, 0.519860
1594.63, 0.520011
1595.12, 0.520237
1595.61, 0.520539
1596.11, 0.520840
1596.6, 0.521067
1597.09, 0.521821
1597.58, 0.522425
1598.08, 0.522349
1598.57, 0.522349
1599.06, 0.523254
1599.55, 0.523632
1600.05, 0.523556
1600.54, 0.523556
1601.04, 0.524160
1601.53, 0.523858
1602.03, 0.524235
1602.52, 0.524990
1603.02, 0.525744
1603.51, 0.526046
1604.01, 0.526423
1604.5, 0.526423
1605.0, 0.525819
1605.5, 0.525216
1606.0, 0.526423
1606.49, 0.527932
1606.99, 0.528007
1607.49, 0.527630
1607.99, 0.527932
1608.49, 0.528384
1608.99, 0.529139
1609.49, 0.529365
1609.99, 0.529290
1610.49, 0.529667
1610.99, 0.529893
1611.49, 0.529742
1611.99, 0.530195
1612.49, 0.530270
1612.99, 0.530497
1613.49, 0.530949
1614.0, 0.531176
1614.5, 0.531402
1615.0, 0.532156
1615.51, 0.532609
1616.01, 0.533137
1616.51, 0.533288
1617.02, 0.533967
1617.52, 0.534269
1618.03, 0.534646
1618.53, 0.534344
1619.04, 0.534948
1619.54, 0.535250
1620.05, 0.535250
1620.55, 0.534797
1621.06, 0.535551
1621.57, 0.536155
1622.08, 0.536381
1622.58, 0.536457
1623.09, 0.536608
1623.6, 0.536532
1624.11, 0.537136
1624.62, 0.537739
1625.13, 0.538041
1625.64, 0.537664
1626.15, 0.537814
1626.66, 0.538569
1627.17, 0.539022
1627.68, 0.539097
1628.19, 0.539927
1628.7, 0.539625
1629.21, 0.539550
1629.72, 0.539323
1630.24, 0.540229
1630.75, 0.540908
1631.26, 0.541134
1631.78, 0.541058
1632.29, 0.541285
1632.8, 0.541662
1633.32, 0.541813
1633.83, 0.542265
1634.35, 0.542341
1634.86, 0.542341
1635.38, 0.543020
1635.9, 0.543095
1636.41, 0.543095
1636.93, 0.543473
1637.45, 0.544001
1637.96, 0.543774
1638.48, 0.543774
1639.0, 0.544302
1639.52, 0.544755
1640.04, 0.545283
1640.56, 0.545509
1641.08, 0.545057
1641.59, 0.545811
1642.11, 0.546037
1642.63, 0.546339
1643.16, 0.546641
1643.68, 0.547546
1644.2, 0.548376
1644.72, 0.548452
1645.24, 0.547773
1645.76, 0.548150
1646.29, 0.548301
1646.81, 0.548602
1647.33, 0.548376
1647.86, 0.548753
1648.38, 0.549281
1648.9, 0.549885
1649.43, 0.550111
1649.95, 0.550111
1650.48, 0.550639
1651.0, 0.551469
1651.53, 0.551394
1652.06, 0.551545
1652.58, 0.551469
1653.11, 0.552073
1653.64, 0.552525
1654.17, 0.552224
1654.69, 0.551846
1655.22, 0.552676
1655.75, 0.553506
1656.28, 0.553732
1656.81, 0.553808
1657.34, 0.554110
1657.87, 0.554411
1658.4, 0.554713
1658.93, 0.554562
1659.46, 0.554713
1659.99, 0.554864
1660.52, 0.555166
1661.05, 0.555694
1661.59, 0.555845
1662.12, 0.556071
1662.65, 0.557278
1663.19, 0.557504
1663.72, 0.558033
1664.26, 0.558033
1664.79, 0.558183
1665.32, 0.558259
1665.86, 0.558636
1666.39, 0.559164
1666.93, 0.559164
1667.47, 0.558787
1668.0, 0.558938
1668.54, 0.559240
1669.08, 0.559617
1669.61, 0.559919
1670.15, 0.560522
1670.69, 0.560597
1671.23, 0.561050
1671.77, 0.561654
1672.31, 0.562182
1672.85, 0.561805
1673.39, 0.561729
1673.93, 0.562257
1674.47, 0.562408
1675.01, 0.562634
1675.55, 0.563464
1676.09, 0.563766
1676.64, 0.563841
1677.18, 0.563766
1677.72, 0.564671
1678.26, 0.564822
1678.81, 0.565049
1679.35, 0.565049
1679.89, 0.565350
1680.44, 0.565501
1680.98, 0.565652
1681.53, 0.565275
1682.07, 0.565954
1682.62, 0.566708
1683.17, 0.567010
1683.71, 0.567010
1684.26, 0.567085
1684.81, 0.567010
1685.36, 0.567613
1685.9, 0.567764
1686.45, 0.568066
1687.0, 0.568670
1687.55, 0.568896
1688.1, 0.568745
1688.65, 0.569349
1689.2, 0.569726
1689.75, 0.569952
1690.3, 0.570028
1690.85, 0.570103
1691.41, 0.570254
1691.96, 0.570631
1692.51, 0.571008
1693.06, 0.571612
1693.61, 0.571612
1694.17, 0.571386
1694.72, 0.571687
1695.28, 0.572517
1695.83, 0.572743
1696.39, 0.572970
1696.94, 0.572894
1697.5, 0.573347
1698.05, 0.573196
1698.61, 0.573271
1699.17, 0.573950
1699.72, 0.574554
1700.28, 0.574252
1700.84, 0.574328
1701.4, 0.574629
1701.95, 0.574931
1702.51, 0.575082
1703.07, 0.575157
1703.63, 0.575233
1704.19, 0.575987
1704.75, 0.575761
1705.31, 0.575912
1705.88, 0.576440
1706.44, 0.576817
1707.0, 0.576893
1707.56, 0.577270
1708.12, 0.577270
1708.69, 0.577496
1709.25, 0.577798
1709.81, 0.578024
1710.38, 0.577949
1710.94, 0.578024
1711.51, 0.578779
1712.07, 0.579231
1712.64, 0.578929
1713.2, 0.579156
1713.77, 0.579382
1714.34, 0.579533
1714.9, 0.579684
1715.47, 0.580438
1716.04, 0.580589
1716.61, 0.580514
1717.18, 0.580589
1717.74, 0.580891
1718.31, 0.581344
1718.88, 0.582022
1719.45, 0.581796
1720.02, 0.582249
1720.59, 0.582324
1721.17, 0.582702
1721.74, 0.582928
1722.31, 0.583381
1722.88, 0.583531
1723.45, 0.583531
1724.03, 0.583381
1724.6, 0.583758
1725.18, 0.584059
1725.75, 0.584135
1726.33, 0.584210
1726.9, 0.584663
1727.48, 0.584965
1728.05, 0.585116
1728.63, 0.585568
1729.2, 0.586247
1729.78, 0.586398
1730.36, 0.586624
1730.94, 0.586398
1731.51, 0.586775
1732.09, 0.587228
1732.67, 0.587756
1733.25, 0.587681
1733.83, 0.587982
1734.41, 0.588209
1734.99, 0.588510
1735.57, 0.588888
1736.15, 0.588737
1736.73, 0.588888
1737.32, 0.589114
1737.9, 0.589265
1738.48, 0.589868
1739.07, 0.590019
1739.65, 0.590396
1740.23, 0.590246
1740.82, 0.590472
1741.4, 0.590849
1741.99, 0.591151
1742.57, 0.591000
1743.16, 0.591754
1743.74, 0.591981
1744.33, 0.592282
1744.92, 0.592358
1745.51, 0.592433
1746.09, 0.592584
1746.68, 0.593339
1747.27, 0.593716
1747.86, 0.593716
1748.45, 0.594018
1749.04, 0.594697
1749.63, 0.594395
1750.22, 0.594319
1750.81, 0.594319
1751.4, 0.594697
1751.99, 0.595074
1752.59, 0.595376
1753.18, 0.595602
1753.77, 0.595828
1754.37, 0.595979
1754.96, 0.596356
1755.56, 0.596809
1756.15, 0.597111
1756.74, 0.597337
1757.34, 0.597563
1757.94, 0.597639
1758.53, 0.598016
1759.13, 0.597714
1759.73, 0.597790
1760.32, 0.598242
1760.92, 0.598997
1761.52, 0.599223
1762.12, 0.599449
1762.72, 0.599449
1763.32, 0.599751
1763.92, 0.599826
1764.52, 0.600430
1765.12, 0.600883
1765.72, 0.601335
1766.32, 0.600958
1766.92, 0.600656
1767.53, 0.600581
1768.13, 0.601109
1768.73, 0.601713
1769.34, 0.602391
1769.94, 0.602241
1770.55, 0.602165
1771.15, 0.602618
1771.76, 0.602920
1772.36, 0.602693
1772.97, 0.602995
1773.57, 0.603070
1774.18, 0.603372
1774.79, 0.603297
1775.4, 0.603900
1776.0, 0.604051
1776.61, 0.604051
1777.22, 0.604051
1777.83, 0.604428
1778.44, 0.604655
1779.05, 0.604881
1779.66, 0.604881
1780.27, 0.605409
1780.88, 0.605485
1781.5, 0.605862
1782.11, 0.606088
1782.72, 0.606465
1783.33, 0.606465
1783.95, 0.606239
1784.56, 0.606390
1785.18, 0.606842
1785.79, 0.607069
1786.41, 0.607446
1787.02, 0.607597
1787.64, 0.607748
1788.26, 0.608050
1788.87, 0.608125
1789.49, 0.608200
1790.11, 0.608502
1790.73, 0.608804
1791.35, 0.608879
1791.96, 0.608728
1792.58, 0.609106
1793.21, 0.609257
1793.83, 0.609483
1794.45, 0.609709
1795.07, 0.610237
1795.69, 0.610237
1796.31, 0.610313
1796.93, 0.610615
1797.56, 0.611218
1798.18, 0.611444
1798.8, 0.611444
1799.43, 0.611369
1800.05, 0.611595
1800.68, 0.611821
1801.3, 0.612425
1801.93, 0.613029
1802.56, 0.613104
1803.18, 0.612802
1803.81, 0.612953
1804.44, 0.613029
1805.07, 0.613179
1805.7, 0.613783
1806.33, 0.614311
1806.95, 0.614160
1807.58, 0.614462
1808.22, 0.614386
1808.85, 0.614839
1809.48, 0.615065
1810.11, 0.615292
1810.74, 0.615443
1811.38, 0.615669
1812.01, 0.615669
1812.64, 0.616046
1813.28, 0.616423
1813.91, 0.616952
1814.55, 0.617178
1815.18, 0.617404
1815.82, 0.617404
1816.45, 0.617706
1817.09, 0.617781
1817.73, 0.618158
1818.36, 0.618309
1819.0, 0.618460
1819.64, 0.618611
1820.28, 0.619064
1820.92, 0.618988
1821.56, 0.619592
1822.2, 0.619818
1822.84, 0.619894
1823.48, 0.619667
1824.12, 0.619894
1824.76, 0.620346
1825.41, 0.621025
1826.05, 0.621327
1826.69, 0.621327
1827.34, 0.621478
1827.98, 0.622157
1828.63, 0.621780
1829.27, 0.621930
1829.92, 0.622232
1830.56, 0.622685
1831.21, 0.622609
1831.86, 0.623138
1832.5, 0.623439
1833.15, 0.623590
1833.8, 0.623892
1834.45, 0.624345
1835.1, 0.624345
1835.75, 0.624722
1836.4, 0.625174
1837.05, 0.625552
1837.7, 0.625929
1838.35, 0.625627
1839.01, 0.625703
1839.66, 0.626382
1840.31, 0.626080
1840.96, 0.626231
1841.62, 0.626910
1842.27, 0.626910
1842.93, 0.626532
1843.58, 0.626683
1844.24, 0.626985
1844.9, 0.627060
1845.55, 0.627438
1846.21, 0.628267
1846.87, 0.628569
1847.53, 0.628645
1848.18, 0.628645
1848.84, 0.628192
1849.5, 0.628494
1850.16, 0.628720
1850.82, 0.628946
1851.48, 0.629022
1852.14, 0.628871
1852.81, 0.629475
1853.47, 0.630229
1854.13, 0.630304
1854.8, 0.629852
1855.46, 0.630229
1856.12, 0.630455
1856.79, 0.630455
1857.45, 0.630304
1858.12, 0.630531
1858.79, 0.630606
1859.45, 0.631587
1860.12, 0.631587
1860.79, 0.631134
1861.46, 0.631134
1862.12, 0.631361
1862.79, 0.631210
1863.46, 0.631662
1864.13, 0.632040
1864.8, 0.632040
1865.48, 0.631964
1866.15, 0.632266
1866.82, 0.632417
1867.49, 0.633850
1868.16, 0.633850
1868.84, 0.633473
1869.51, 0.633850
1870.19, 0.634605
1870.86, 0.634982
1871.54, 0.634303
1872.21, 0.634454
1872.89, 0.635284
1873.56, 0.634982
1874.24, 0.634755
1874.92, 0.634831
1875.6, 0.634831
1876.28, 0.634906
1876.96, 0.635284
1877.64, 0.634982
1878.32, 0.635434
1879.0, 0.635133
1879.68, 0.635284
1880.36, 0.635661
1881.04, 0.635962
1881.73, 0.636113
1882.41, 0.636038
1883.09, 0.636264
1883.78, 0.636792
1884.46, 0.636641
1885.15, 0.636566
1885.83, 0.636264
1886.52, 0.636415
1887.21, 0.636490
1887.89, 0.636641
1888.58, 0.636792
1889.27, 0.637471
1889.96, 0.637924
1890.65, 0.637698
1891.34, 0.637622
1892.03, 0.638150
1892.72, 0.638301
1893.41, 0.638226
1894.1, 0.638301
1894.79, 0.638226
1895.49, 0.638075
1896.18, 0.638301
1896.87, 0.638603
1897.57, 0.638905
1898.26, 0.638678
1898.96, 0.639206
1899.65, 0.639961
1900.35, 0.639810
1901.05, 0.639584
1901.74, 0.639584
1902.44, 0.639885
1903.14, 0.639734
1903.84, 0.639734
1904.54, 0.640489
1905.24, 0.640942
1905.94, 0.641243
1906.64, 0.641168
1907.34, 0.641168
1908.04, 0.641394
1908.75, 0.641394
1909.45, 0.641168
1910.15, 0.641620
1910.86, 0.641620
1911.56, 0.641620
1912.27, 0.641922
1912.97, 0.642827
1913.68, 0.642978
1914.39, 0.642827
1915.09, 0.642526
1915.8, 0.642752
1916.51, 0.642526
1917.22, 0.642827
1917.93, 0.642903
1918.64, 0.643280
1919.35, 0.644261
1920.06, 0.644864
1920.77, 0.644412
1921.48, 0.643884
1922.19, 0.643657
1922.91, 0.644185
1923.62, 0.644789
1924.33, 0.645166
1925.05, 0.644638
1925.76, 0.644940
1926.48, 0.645242
1927.19, 0.645317
1927.91, 0.645468
1928.63, 0.646222
1929.35, 0.646071
1930.07, 0.646071
1930.78, 0.646222
1931.5, 0.646600
1932.22, 0.646600
1932.94, 0.646977
1933.66, 0.646826
1934.39, 0.647203
1935.11, 0.647354
1935.83, 0.647807
1936.55, 0.647731
1937.28, 0.647656
1938.0, 0.647656
1938.73, 0.648033
1939.45, 0.648108
1940.18, 0.648184
1940.9, 0.648486
1941.63, 0.648561
1942.36, 0.648486
1943.09, 0.648787
1943.81, 0.649014
1944.54, 0.649315
1945.27, 0.649542
1946.0, 0.649617
1946.73, 0.649466
1947.47, 0.649768
1948.2, 0.649843
1948.93, 0.649919
1949.66, 0.650221
1950.4, 0.650749
1951.13, 0.650673
1951.86, 0.650749
1952.6, 0.650598
1953.34, 0.650522
1954.07, 0.650824
1954.81, 0.651428
1955.55, 0.651503
1956.29, 0.651579
1957.02, 0.651729
1957.76, 0.652258
1958.5, 0.652258
1959.24, 0.652107
1959.98, 0.652484
1960.72, 0.652861
1961.47, 0.652786
1962.21, 0.652786
1962.95, 0.652786
1963.7, 0.652937
1964.44, 0.653238
1965.18, 0.653540
1965.93, 0.653540
1966.67, 0.653540
1967.42, 0.653465
1968.17, 0.653993
1968.92, 0.654370
1969.66, 0.654596
1970.41, 0.654672
1971.16, 0.654973
1971.91, 0.654672
1972.66, 0.654822
1973.41, 0.655124
1974.16, 0.655577
1974.92, 0.655728
1975.67, 0.655879
1976.42, 0.655728
1977.18, 0.655803
1977.93, 0.655803
1978.69, 0.656407
1979.44, 0.656784
1980.2, 0.657086
1980.95, 0.657010
1981.71, 0.657161
1982.47, 0.657538
1983.23, 0.657991
1983.99, 0.658066
1984.74, 0.658217
1985.51, 0.658142
1986.27, 0.658217
1987.03, 0.658293
1987.79, 0.658444
1988.55, 0.658670
1989.32, 0.659198
1990.08, 0.659500
1990.84, 0.659953
1991.61, 0.660179
1992.37, 0.660631
1993.14, 0.660707
1993.9, 0.661009
1994.67, 0.661310
1995.44, 0.661386
1996.21, 0.661310
1996.98, 0.661612
1997.75, 0.661989
1998.52, 0.662367
1999.29, 0.662517
2000.06, 0.662895
2000.83, 0.662819
2001.6, 0.663196
2002.38, 0.663498
2003.15, 0.664102
2003.93, 0.664102
2004.7, 0.664177
2005.48, 0.664403
2006.25, 0.664932
2007.03, 0.665233
2007.81, 0.665460
2008.58, 0.665611
2009.36, 0.666214
2010.14, 0.666289
2010.92, 0.666365
2011.7, 0.666591
2012.48, 0.667270
2013.26, 0.667421
2014.05, 0.667647
2014.83, 0.667572
2015.61, 0.667874
2016.4, 0.668100
2017.18, 0.668326
2017.97, 0.668402
2018.75, 0.668628
2019.54, 0.668779
2020.32, 0.669081
2021.11, 0.669383
2021.9, 0.669684
2022.69, 0.669609
2023.48, 0.669760
2024.27, 0.669986
2025.06, 0.670288
2025.85, 0.670590
2026.64, 0.671118
2027.44, 0.671193
2028.23, 0.671344
2029.02, 0.671344
2029.82, 0.671721
2030.61, 0.672023
2031.41, 0.672325
2032.2, 0.672476
2033.0, 0.672853
2033.8, 0.673079
2034.6, 0.672853
2035.4, 0.672928
2036.2, 0.673305
2037.0, 0.673230
2037.8, 0.673758
2038.6, 0.673909
2039.4, 0.674512
2040.2, 0.674739
2041.01, 0.674739
2041.81, 0.674739
2042.61, 0.675342
2043.42, 0.675267
2044.22, 0.675116
2045.03, 0.674890
2045.84, 0.675418
2046.65, 0.675418
2047.46, 0.675644
2048.26, 0.675870
2049.07, 0.676172
2049.88, 0.676172
2050.69, 0.676323
2051.51, 0.676549
2052.32, 0.676776
2053.13, 0.677077
2053.94, 0.677455
2054.76, 0.677379
2055.57, 0.677455
2056.39, 0.677606
2057.2, 0.677832
2058.02, 0.677983
2058.84, 0.678285
2059.66, 0.678360
2060.48, 0.678662
2061.29, 0.678888
2062.11, 0.679039
2062.94, 0.679039
2063.76, 0.679265
2064.58, 0.679341
2065.4, 0.679492
2066.22, 0.679642
2067.05, 0.679793
2067.87, 0.679718
2068.7, 0.680020
2069.52, 0.679869
2070.35, 0.680020
2071.18, 0.679793
2072.0, 0.680472
2072.83, 0.680849
2073.66, 0.681000
2074.49, 0.680925
2075.32, 0.681076
2076.15, 0.681151
2076.98, 0.681528
2077.82, 0.681453
2078.65, 0.681830
2079.48, 0.682283
2080.32, 0.682660
2081.15, 0.682358
2081.99, 0.682434
2082.83, 0.682509
2083.66, 0.682886
2084.5, 0.682962
2085.34, 0.683188
2086.18, 0.683339
2087.02, 0.683641
2087.86, 0.683867
2088.7, 0.684018
2089.54, 0.684018
2090.39, 0.684244
2091.23, 0.684471
2092.07, 0.684923
2092.92, 0.684923
2093.76, 0.685300
2094.61, 0.685602
2095.45, 0.685904
2096.3, 0.685904
2097.15, 0.686206
2098.0, 0.686357
2098.85, 0.686508
2099.7, 0.686508
2100.55, 0.687036
2101.4, 0.687186
2102.25, 0.687413
2103.1, 0.687639
2103.96, 0.688016
2104.81, 0.687865
2105.67, 0.687865
2106.52, 0.688318
2107.38, 0.688469
2108.24, 0.688695
2109.09, 0.688846
2109.95, 0.688997
2110.81, 0.689374
2111.67, 0.689450
2112.53, 0.689751
2113.39, 0.690129
2114.25, 0.690129
2115.12, 0.690204
2115.98, 0.690657
2116.84, 0.690808
2117.71, 0.690732
2118.58, 0.691034
2119.44, 0.691562
2120.31, 0.691637
2121.18, 0.691713
2122.04, 0.691939
2122.91, 0.692392
2123.78, 0.692467
2124.65, 0.692694
2125.52, 0.692920
2126.4, 0.693297
2127.27, 0.693297
2128.14, 0.693448
2129.02, 0.693599
2129.89, 0.693674
2130.77, 0.693976
2131.64, 0.694353
2132.52, 0.694353
2133.4, 0.694504
2134.27, 0.694655
2135.15, 0.694806
2136.03, 0.694881
2136.91, 0.695183
2137.79, 0.695334
2138.68, 0.695409
2139.56, 0.695409
2140.44, 0.695485
2141.33, 0.695485
2142.21, 0.695787
2143.1, 0.695862
2143.99, 0.696164
2144.87, 0.696315
2145.76, 0.696692
2146.65, 0.696466
2147.54, 0.696617
2148.43, 0.696541
2149.32, 0.696617
2150.21, 0.696692
2151.1, 0.697069
2151.99, 0.697220
2152.89, 0.697371
2153.78, 0.697295
2154.68, 0.697295
2155.57, 0.697220
2156.47, 0.697371
2157.37, 0.697597
2158.27, 0.697824
2159.16, 0.697824
2160.06, 0.697899
2160.96, 0.697748
2161.86, 0.698125
2162.77, 0.698276
2163.67, 0.698427
2164.57, 0.698201
2165.48, 0.698125
2166.38, 0.697974
2167.29, 0.698276
2168.2, 0.698125
2169.1, 0.698125
2170.01, 0.698352
2170.92, 0.698503
2171.83, 0.698503
2172.74, 0.698503
2173.65, 0.698125
2174.56, 0.698276
2175.47, 0.698427
2176.39, 0.698503
2177.3, 0.698503
2178.22, 0.698653
2179.13, 0.698729
2180.05, 0.698653
2180.96, 0.698352
2181.88, 0.698578
2182.8, 0.698729
2183.72, 0.698880
2184.64, 0.698729
2185.56, 0.698729
2186.48, 0.698653
2187.41, 0.699106
2188.33, 0.699181
2189.25, 0.698729
2190.18, 0.698653
2191.1, 0.698653
2192.03, 0.698729
2192.96, 0.699106
2193.89, 0.699106
2194.82, 0.699181
2195.74, 0.699181
2196.68, 0.699181
2197.61, 0.699031
2198.54, 0.699332
2199.47, 0.699408
2200.4, 0.699332
2201.34, 0.699408
2202.28, 0.699710
2203.21, 0.699408
2204.15, 0.699483
2205.08, 0.699785
2206.02, 0.700011
2206.96, 0.700011
2207.9, 0.700087
2208.84, 0.700011
2209.78, 0.700389
2210.73, 0.700539
2211.67, 0.700690
2212.61, 0.700766
2213.56, 0.700992
2214.5, 0.701067
2215.45, 0.701445
2216.4, 0.701520
2217.35, 0.701746
2218.3, 0.701897
2219.24, 0.702124
2220.2, 0.702199
2221.15, 0.702199
2222.1, 0.702048
2223.05, 0.702275
2224.0, 0.702501
2224.96, 0.702576
2225.91, 0.702727
2226.87, 0.703029
2227.83, 0.703029
2228.79, 0.703180
2229.74, 0.703180
2230.7, 0.703255
2231.66, 0.703331
2232.63, 0.703482
2233.59, 0.703557
2234.55, 0.703708
2235.51, 0.703632
2236.48, 0.703632
2237.44, 0.703406
2238.41, 0.703406
2239.38, 0.703557
2240.34, 0.703708
2241.31, 0.703482
2242.28, 0.703406
2243.25, 0.703180
2244.22, 0.703104
2245.19, 0.702954
2246.17, 0.703255
2247.14, 0.702954
2248.12, 0.702954
2249.09, 0.703104
2250.07, 0.703180
2251.04, 0.703029
2252.02, 0.703255
2253.0, 0.703331
2253.98, 0.703482
2254.96, 0.703557
2255.94, 0.703934
2256.92, 0.704085
2257.91, 0.704236
2258.89, 0.704161
2259.88, 0.704538
2260.86, 0.704689
2261.85, 0.704840
2262.83, 0.704764
2263.82, 0.704990
2264.81, 0.705066
2265.8, 0.704990
2266.79, 0.704990
2267.78, 0.705443
2268.78, 0.705443
2269.77, 0.705745
2270.76, 0.705745
2271.76, 0.706047
2272.75, 0.706197
2273.75, 0.706424
2274.75, 0.706650
2275.75, 0.706994
2276.75, 0.706650
2277.75, 0.706513
2278.75, 0.706581
2279.75, 0.706650
2280.75, 0.706581
2281.76, 0.706444
2282.76, 0.706375
2283.77, 0.706650
2284.77, 0.706856
2285.78, 0.706513
2286.79, 0.705963
2287.8, 0.705963
2288.81, 0.705963
2289.82, 0.705894
2290.83, 0.706238
2291.84, 0.706375
2292.86, 0.706169
2293.87, 0.705688
2294.89, 0.705139
2295.91, 0.705207
2296.92, 0.705413
2297.94, 0.705207
2298.96, 0.705276
2299.98, 0.704932
2301.0, 0.704658
2302.02, 0.704383
2303.04, 0.704108
2304.07, 0.704039
2305.09, 0.703902
2306.12, 0.703902
2307.15, 0.704108
2308.17, 0.704658
2309.2, 0.704451
2310.23, 0.704177
2311.26, 0.703833
2312.29, 0.703902
2313.32, 0.703421
2314.35, 0.703696
2315.39, 0.703696
2316.42, 0.703352
2317.46, 0.702871
2318.5, 0.702734
2319.53, 0.702596
2320.57, 0.702528
2321.61, 0.702802
2322.65, 0.702665
2323.69, 0.702184
2324.73, 0.702184
2325.78, 0.702047
2326.82, 0.702184
2327.86, 0.701909
2328.91, 0.701909
2329.96, 0.701566
2331.01, 0.701634
2332.05, 0.701497
2333.1, 0.701085
2334.15, 0.701016
2335.21, 0.701154
2336.26, 0.700879
2337.31, 0.701085
2338.36, 0.700947
2339.42, 0.700604
2340.48, 0.700398
2341.53, 0.700604
2342.59, 0.700535
2343.65, 0.700466
2344.71, 0.700466
2345.77, 0.700192
2346.83, 0.700054
2347.9, 0.700192
2348.96, 0.700741
2350.02, 0.701016
2351.09, 0.701016
2352.16, 0.700947
2353.23, 0.700947
2354.29, 0.701154
2355.36, 0.701154
2356.43, 0.701497
2357.51, 0.701841
2358.58, 0.701841
2359.65, 0.701978
2360.73, 0.702253
2361.8, 0.702390
2362.88, 0.702596
2363.96, 0.702871
2365.03, 0.703009
2366.11, 0.703077
2367.19, 0.703558
2368.27, 0.703833
2369.36, 0.704108
2370.44, 0.704108
2371.53, 0.704520
2372.61, 0.704864
2373.7, 0.705207
2374.78, 0.705619
2375.87, 0.705482
2376.96, 0.705551
2378.05, 0.706100
2379.14, 0.706032
2380.24, 0.706169
2381.33, 0.706100
2382.42, 0.706238
2383.52, 0.706787
2384.61, 0.706925
2385.71, 0.707200
2386.81, 0.707681
2387.91, 0.707681
2389.01, 0.707612
2390.11, 0.707406
2391.22, 0.707475
2392.32, 0.707543
2393.42, 0.707887
2394.53, 0.707818
2395.64, 0.708093
2396.74, 0.708368
2397.85, 0.708849
2398.96, 0.708849
2400.07, 0.709192
2401.18, 0.709398
2402.3, 0.709605
2403.41, 0.709879
2404.52, 0.709879
2405.64, 0.709536
2406.76, 0.709673
2407.88, 0.709811
2408.99, 0.709948
2410.11, 0.710292
2411.23, 0.710498
2412.36, 0.710635
2413.48, 0.710910
2414.6, 0.710704
2415.73, 0.710360
2416.85, 0.710292
2417.98, 0.710566
2419.11, 0.710635
2420.24, 0.710566
2421.37, 0.710566
2422.5, 0.710704
2423.64, 0.710841
2424.77, 0.710841
2425.9, 0.710498
2427.04, 0.710292
2428.18, 0.710085
2429.31, 0.710017
2430.45, 0.709536
2431.59, 0.709605
2432.73, 0.709948
2433.88, 0.709398
2435.02, 0.709261
2436.16, 0.709673
2437.31, 0.709261
2438.45, 0.708780
2439.6, 0.708505
2440.75, 0.708230
2441.9, 0.708436
2443.05, 0.708368
2444.2, 0.707955
2445.35, 0.708162
2446.51, 0.707681
2447.67, 0.707475
2448.82, 0.707337
2449.98, 0.707612
2451.14, 0.707337
2452.3, 0.706787
2453.46, 0.706581
2454.62, 0.706719
2455.78, 0.706444
2456.94, 0.706169
2458.11, 0.706032
2459.28, 0.706032
2460.44, 0.705551
2461.61, 0.705207
2462.78, 0.705070
2463.95, 0.705276
2465.12, 0.704932
2466.3, 0.704726
2467.47, 0.704451
2468.65, 0.704314
2469.82, 0.704245
2471.0, 0.704245
2472.18, 0.704039
2473.36, 0.703490
2474.54, 0.703215
2475.72, 0.703077
2476.9, 0.702940
2478.08, 0.702734
2479.27, 0.702528
2480.46, 0.702665
2481.64, 0.702734
2482.83, 0.702459
2484.02, 0.702390
2485.21, 0.702115
2486.4, 0.701841
2487.6, 0.702047
2488.79, 0.702253
2489.99, 0.702459
2491.18, 0.702047
2492.38, 0.701841
2493.58, 0.701841
2494.78, 0.701772
2495.98, 0.701772
2497.18, 0.701566
2498.39, 0.701428
2499.59, 0.701497
2500.8, 0.701703
2502.01, 0.701703
2503.21, 0.701291
2504.42, 0.701154
2505.63, 0.701291
2506.84, 0.701634
2508.06, 0.701222
2509.27, 0.701291
2510.49, 0.701497
2511.7, 0.701772
2512.92, 0.701841
2514.14, 0.701841
2515.36, 0.702047
2516.58, 0.702322
2517.8, 0.701841
2519.03, 0.701841
2520.25, 0.702047
2521.48, 0.702253
2522.7, 0.702734
2523.93, 0.702940
2525.16, 0.702802
2526.39, 0.702734
2527.62, 0.702734
2528.86, 0.702940
2530.09, 0.702940
2531.33, 0.703627
2532.56, 0.703970
2533.8, 0.703833
2535.04, 0.703902
2536.28, 0.704383
2537.52, 0.704039
2538.76, 0.703902
2540.01, 0.703970
2541.25, 0.704658
2542.5, 0.705345
2543.75, 0.705551
2544.99, 0.705276
2546.24, 0.705482
2547.49, 0.706100
2548.75, 0.706032
2550.0, 0.706444
2551.26, 0.707131
2552.51, 0.707612
2553.77, 0.706581
2555.03, 0.705688
2556.29, 0.705894
2557.55, 0.706032
2558.81, 0.706925
2560.08, 0.709261
2561.34, 0.710979
2562.61, 0.710704
2563.88, 0.710360
2565.14, 0.708368
2566.41, 0.706719
2567.68, 0.707475
2568.96, 0.709605
2570.23, 0.708711
2571.51, 0.707337
2572.78, 0.710085
2574.06, 0.709536
2575.34, 0.708299
2576.62, 0.709467
2577.9, 0.707612
2579.18, 0.706787
2580.47, 0.708299
2581.75, 0.708643
2583.04, 0.711047
2584.32, 0.710979
2585.61, 0.708368
2586.9, 0.709811
2588.2, 0.708917
2589.49, 0.707543
2590.78, 0.706307
2592.08, 0.707406
2593.37, 0.714002
2594.67, 0.719979
2595.97, 0.712834
2597.27, 0.706787
2598.57, 0.704864
2599.88, 0.705826
2601.18, 0.707337
2602.49, 0.707887
2603.79, 0.709123
2605.1, 0.711597
2606.41, 0.709673
2607.72, 0.707200
2609.03, 0.706650
2610.35, 0.705826
2611.66, 0.704932
2612.98, 0.705413
2614.3, 0.704795
2615.62, 0.708230
2616.94, 0.710085
2618.26, 0.706444
2619.58, 0.707818
2620.91, 0.707062
2622.23, 0.702528
2623.56, 0.702253
2624.89, 0.703696
2626.22, 0.706925
2627.55, 0.704451
2628.88, 0.704864
2630.21, 0.708024
2631.55, 0.704520
2632.89, 0.702390
2634.22, 0.702115
2635.56, 0.700123
2636.9, 0.699779
2638.25, 0.699573
2639.59, 0.699779
2640.93, 0.699573
2642.28, 0.699573
2643.63, 0.698886
2644.98, 0.700123
2646.33, 0.699298
2647.68, 0.697787
2649.03, 0.697306
2650.39, 0.697718
2651.74, 0.699367
2653.1, 0.699161
2654.46, 0.697993
2655.82, 0.697649
2657.18, 0.695657
2658.54, 0.696825
2659.9, 0.697237
2661.27, 0.696275
2662.64, 0.695451
2664.01, 0.699298
2665.38, 0.701978
2666.74, 0.700260
2668.12, 0.695588
2669.49, 0.699161
2670.87, 0.697443
2672.24, 0.689061
2673.62, 0.687481
2675.0, 0.689130
2676.38, 0.690641
2677.76, 0.688855
2679.15, 0.686725
2680.54, 0.682397
2681.92, 0.681091
2683.31, 0.681091
2684.7, 0.678892
2686.09, 0.677175
2687.48, 0.675320
2688.88, 0.673396
2690.27, 0.671266
2691.67, 0.670373
2693.07, 0.671541
2694.47, 0.669480
2695.87, 0.664327
2697.27, 0.659242
2698.67, 0.655395
2700.08, 0.653265
2701.49, 0.649692
2702.9, 0.644127
2704.31, 0.638768
2705.72, 0.632721
2707.13, 0.625782
2708.54, 0.619255
2709.96, 0.611835
2711.38, 0.601048
2712.8, 0.587856
2714.22, 0.578649
2715.64, 0.570610
2717.06, 0.563946
2718.49, 0.558655
2719.91, 0.556182
2721.34, 0.548212
2722.77, 0.540586
2724.2, 0.535982
2725.63, 0.526638
2727.07, 0.516813
2728.5, 0.508156
2729.94, 0.499636
2731.38, 0.492010
2732.82, 0.485689
2734.26, 0.481017
2735.7, 0.474421
2737.15, 0.468993
2738.59, 0.466245
2740.04, 0.461847
2741.49, 0.453534
2742.94, 0.445014
2744.39, 0.438625
2745.84, 0.434090
2747.3, 0.430311
2748.76, 0.426876
2750.21, 0.424127
2751.67, 0.421448
2753.14, 0.418974
2754.6, 0.418837
2756.06, 0.415883
2757.53, 0.410661
2759.0, 0.407432
2760.46, 0.405302
2761.94, 0.404065
2763.41, 0.402210
2764.88, 0.399324
2766.36, 0.397744
2767.83, 0.396920
2769.31, 0.395958
2770.79, 0.395064
2772.27, 0.393072
2773.76, 0.391079
2775.24, 0.389774
2776.73, 0.388743
2778.22, 0.387369
2779.71, 0.385789
2781.2, 0.384415
2782.69, 0.382835
2784.18, 0.381117
2785.68, 0.380361
2787.18, 0.379812
2788.68, 0.377888
2790.18, 0.376239
2791.68, 0.375277
2793.19, 0.374727
2794.69, 0.374315
2796.2, 0.374178
2797.71, 0.373834
2799.22, 0.373491
2800.73, 0.373491
2802.24, 0.374246
2803.76, 0.374040
2805.28, 0.373010
2806.8, 0.372116
2808.32, 0.371842
2809.84, 0.371704
2811.36, 0.371842
2812.89, 0.372185
2814.42, 0.372803
2815.94, 0.373147
2817.48, 0.373765
2819.01, 0.374521
2820.54, 0.374933
2822.08, 0.375277
2823.61, 0.375758
2825.15, 0.376307
2826.69, 0.377132
2828.23, 0.377819
2829.78, 0.378437
2831.32, 0.379056
2832.87, 0.379812
2834.42, 0.380705
2835.97, 0.381529
2837.52, 0.382079
2839.08, 0.382422
2840.63, 0.383041
2842.19, 0.384003
2843.75, 0.384415
2845.31, 0.384758
2846.87, 0.385446
2848.44, 0.386133
2850.0, 0.386270
2851.57, 0.386476
2853.14, 0.387094
2854.71, 0.387575
2856.28, 0.387988
2857.86, 0.387919
2859.43, 0.387850
2861.01, 0.388125
2862.59, 0.388469
2864.17, 0.388469
2865.76, 0.388400
2867.34, 0.388537
2868.93, 0.388537
2870.52, 0.388743
2872.11, 0.388675
2873.7, 0.388400
2875.29, 0.388400
2876.89, 0.388675
2878.49, 0.388537
2880.08, 0.388469
2881.69, 0.388331
2883.29, 0.388056
2884.89, 0.387919
2886.5, 0.387850
2888.11, 0.387713
2889.72, 0.387713
2891.33, 0.387575
2892.94, 0.387369
2894.56, 0.387163
2896.17, 0.386820
2897.79, 0.386545
2899.42, 0.386614
2901.04, 0.386614
2902.66, 0.386339
2904.29, 0.385926
2905.92, 0.385789
2907.55, 0.385652
2909.18, 0.385308
2910.81, 0.384827
2912.45, 0.384552
2914.08, 0.384346
2915.72, 0.384209
2917.36, 0.384003
2919.01, 0.383865
2920.65, 0.383865
2922.3, 0.383728
2923.94, 0.383453
2925.59, 0.383590
2927.25, 0.383384
2928.9, 0.383109
2930.56, 0.383247
2932.21, 0.383247
2933.87, 0.382972
2935.53, 0.382903
2937.2, 0.383178
2938.86, 0.383316
2940.53, 0.383178
2942.2, 0.383316
2943.87, 0.383797
2945.54, 0.384003
2947.22, 0.384003
2948.89, 0.384071
2950.57, 0.384346
2952.25, 0.384690
2953.93, 0.384827
2955.62, 0.385308
2957.3, 0.385514
2958.99, 0.385652
2960.68, 0.385858
2962.37, 0.386476
2964.07, 0.386888
2965.76, 0.387438
2967.46, 0.387988
2969.16, 0.388400
2970.86, 0.388881
2972.56, 0.389293
2974.27, 0.389568
2975.98, 0.390186
2977.69, 0.390942
2979.4, 0.391560
2981.11, 0.391835
2982.83, 0.392522
2984.54, 0.393141
2986.26, 0.393759
2987.98, 0.394377
2989.71, 0.394927
2991.43, 0.395408
2993.16, 0.395889
2994.89, 0.396507
2996.62, 0.397332
2998.35, 0.397950
3000.09, 0.398706
3001.83, 0.399462
3003.57, 0.399874
3005.31, 0.400286
3007.05, 0.401179
3008.79, 0.401798
3010.54, 0.402622
3012.29, 0.403309
3014.04, 0.404065
3015.8, 0.404546
3017.55, 0.405164
3019.31, 0.405920
3021.07, 0.406745
3022.83, 0.407226
3024.59, 0.407844
3026.36, 0.408600
3028.13, 0.409355
3029.9, 0.409905
3031.67, 0.410661
3033.44, 0.411279
3035.22, 0.412035
3037.0, 0.412653
3038.78, 0.413203
3040.56, 0.413890
3042.34, 0.414577
3044.13, 0.415127
3045.92, 0.415883
3047.71, 0.416501
3049.5, 0.417188
3051.3, 0.417806
3053.09, 0.418562
3054.89, 0.419455
3056.69, 0.420211
3058.5, 0.420898
3060.3, 0.421585
3062.11, 0.422341
3063.92, 0.423028
3065.73, 0.423578
3067.55, 0.424402
3069.36, 0.425158
3071.18, 0.425983
3073.0, 0.426670
3074.82, 0.427425
3076.65, 0.428112
3078.48, 0.428800
3080.31, 0.429624
3082.14, 0.430311
3083.97, 0.430792
3085.8, 0.431548
3087.64, 0.432372
3089.48, 0.433265
3091.33, 0.434090
3093.17, 0.434983
3095.02, 0.435670
3096.87, 0.436289
3098.72, 0.437044
3100.57, 0.438075
3102.43, 0.438899
3104.28, 0.439724
3106.14, 0.440480
3108.01, 0.441167
3109.87, 0.442129
3111.74, 0.443228
3113.61, 0.443984
3115.48, 0.444739
3117.35, 0.445495
3119.23, 0.446595
3121.1, 0.447557
3122.98, 0.448312
3124.87, 0.449137
3126.75, 0.450099
3128.64, 0.450923
3130.53, 0.451748
3132.42, 0.452641
3134.31, 0.453397
3136.21, 0.454221
3138.11, 0.455183
3140.01, 0.456007
3141.91, 0.456832
3143.82, 0.457725
3145.73, 0.458756
3147.64, 0.459649
3149.55, 0.460473
3151.46, 0.461298
3153.38, 0.462260
3155.3, 0.463222
3157.22, 0.464046
3159.14, 0.464871
3161.07, 0.465764
3163.0, 0.466657
3164.93, 0.467688
3166.86, 0.468581
3168.8, 0.469543
3170.74, 0.470505
3172.68, 0.471192
3174.62, 0.472016
3176.56, 0.473115
3178.51, 0.474077
3180.46, 0.474971
3182.42, 0.475726
3184.37, 0.476826
3186.33, 0.477788
3188.29, 0.478543
3190.25, 0.479299
3192.21, 0.480261
3194.18, 0.481085
3196.15, 0.481979
3198.12, 0.483009
3200.09, 0.483902
3202.07, 0.484658
3204.05, 0.485689
3206.03, 0.486582
3208.02, 0.487269
3210.0, 0.487956
3211.99, 0.488781
3213.98, 0.489468
3215.98, 0.490430
3217.97, 0.491392
3219.97, 0.492079
3221.97, 0.492766
3223.98, 0.493659
3225.98, 0.494552
3227.99, 0.495170
3230.0, 0.495926
3232.02, 0.496682
3234.03, 0.497369
3236.05, 0.498193
3238.07, 0.498881
3240.1, 0.499705
3242.12, 0.500529
3244.15, 0.501423
3246.18, 0.502247
3248.22, 0.502865
3250.25, 0.503484
3252.29, 0.504240
3254.33, 0.504927
3256.38, 0.505683
3258.43, 0.506301
3260.47, 0.507263
3262.53, 0.508019
3264.58, 0.508774
3266.64, 0.509393
3268.7, 0.510080
3270.76, 0.510767
3272.82, 0.511660
3274.89, 0.512347
3276.96, 0.513034
3279.04, 0.513790
3281.11, 0.514477
3283.19, 0.515164
3285.27, 0.515989
3287.35, 0.516607
3289.44, 0.517225
3291.53, 0.517981
3293.62, 0.518805
3295.71, 0.519493
3297.81, 0.520248
3299.91, 0.521004
3302.01, 0.521623
3304.11, 0.522103
3306.22, 0.522859
3308.33, 0.523546
3310.44, 0.524302
3312.56, 0.525058
3314.68, 0.525814
3316.8, 0.526363
3318.92, 0.527050
3321.05, 0.527600
3323.18, 0.528218
3325.31, 0.528905
3327.44, 0.529455
3329.58, 0.530005
3331.72, 0.530486
3333.86, 0.530967
3336.01, 0.531448
3338.16, 0.531722
3340.31, 0.531997
3342.46, 0.531860
3344.61, 0.531654
3346.77, 0.531379
3348.94, 0.531448
3351.1, 0.531722
3353.27, 0.532066
3355.44, 0.532341
3357.61, 0.532822
3359.79, 0.533303
3361.97, 0.533784
3364.15, 0.533990
3366.33, 0.534127
3368.52, 0.534471
3370.71, 0.534883
3372.9, 0.535158
3375.1, 0.535570
3377.3, 0.536188
3379.5, 0.536807
3381.71, 0.537356
3383.91, 0.537975
3386.12, 0.538868
3388.34, 0.539761
3390.55, 0.540517
3392.77, 0.541204
3394.99, 0.541616
3397.22, 0.542028
3399.45, 0.542166
3401.68, 0.542372
3403.91, 0.542441
3406.15, 0.542578
3408.39, 0.542578
3410.63, 0.542922
3412.87, 0.543334
3415.12, 0.543884
3417.37, 0.544571
3419.63, 0.545739
3421.88, 0.547044
3424.14, 0.548418
3426.41, 0.549792
3428.67, 0.551373
3430.94, 0.552747
3433.21, 0.553983
3435.49, 0.555151
3437.77, 0.556113
3440.05, 0.557213
3442.33, 0.558312
3444.62, 0.559274
3446.91, 0.560167
3449.2, 0.561129
3451.5, 0.562022
3453.8, 0.562847
3456.1, 0.563671
3458.41, 0.564152
3460.72, 0.564770
3463.03, 0.565045
3465.34, 0.565114
3467.66, 0.564702
3469.98, 0.564289
3472.31, 0.563877
3474.63, 0.563740
3476.96, 0.563809
3479.3, 0.564083
3481.64, 0.564770
3483.97, 0.565457
3486.32, 0.566145
3488.66, 0.566969
3491.01, 0.567862
3493.36, 0.568687
3495.72, 0.569236
3498.08, 0.569580
3500.44, 0.570198
3502.81, 0.571091
3505.18, 0.572259
3507.55, 0.573840
3509.92, 0.575489
3512.3, 0.577138
3514.68, 0.578718
3517.06, 0.580573
3519.45, 0.582153
3521.84, 0.583665
3524.24, 0.585176
3526.64, 0.586619
3529.04, 0.587856
3531.44, 0.589093
3533.85, 0.590123
3536.26, 0.591016
3538.67, 0.591978
3541.09, 0.592734
3543.51, 0.593215
3545.93, 0.593971
3548.36, 0.594795
3550.79, 0.595482
3553.22, 0.596169
3555.66, 0.596788
3558.1, 0.597406
3560.54, 0.598025
3562.99, 0.598643
3565.44, 0.599330
3567.9, 0.599880
3570.35, 0.600429
3572.81, 0.600979
3575.28, 0.601529
3577.75, 0.602078
3580.22, 0.602765
3582.69, 0.603384
3585.17, 0.604071
3587.65, 0.604620
3590.14, 0.605170
3592.62, 0.605651
3595.11, 0.606132
3597.61, 0.606750
3600.11, 0.607300
3602.61, 0.607850
3605.11, 0.608468
3607.62, 0.608880
3610.14, 0.609430
3612.65, 0.609911
3615.17, 0.610460
3617.69, 0.610873
3620.22, 0.611422
3622.75, 0.611903
3625.28, 0.612384
3627.82, 0.612728
3630.36, 0.613346
3632.9, 0.613758
3635.45, 0.614171
3638.0, 0.614652
3640.56, 0.615201
3643.12, 0.615682
3645.68, 0.616094
3648.24, 0.616438
3650.81, 0.616919
3653.39, 0.617331
3655.96, 0.617743
3658.54, 0.618087
3661.13, 0.618499
3663.71, 0.618980
3666.3, 0.619461
3668.9, 0.619805
3671.5, 0.620354
3674.1, 0.620835
3676.7, 0.621316
3679.31, 0.621797
3681.93, 0.622415
3684.54, 0.622622
3687.17, 0.622965
3689.79, 0.623309
3692.42, 0.623858
3695.05, 0.624408
3697.69, 0.624889
3700.32, 0.625301
3702.97, 0.625645
3705.61, 0.625988
3708.27, 0.626607
3710.92, 0.626881
3713.58, 0.627156
3716.24, 0.627500
3718.91, 0.627912
3721.58, 0.628324
3724.25, 0.628668
3726.93, 0.628943
3729.61, 0.629286
3732.29, 0.629561
3734.98, 0.629973
3737.67, 0.630317
3740.37, 0.630798
3743.07, 0.631073
3745.78, 0.631416
3748.49, 0.631828
3751.2, 0.632172
3753.91, 0.632515
3756.63, 0.632859
3759.36, 0.633065
3762.09, 0.633409
3764.82, 0.633821
3767.55, 0.634164
3770.29, 0.634508
3773.04, 0.634783
3775.78, 0.634989
3778.54, 0.635195
3781.29, 0.635332
3784.05, 0.635607
3786.82, 0.635813
3789.59, 0.636088
3792.36, 0.636157
3795.13, 0.636088
3797.92, 0.636019
3800.7, 0.636019
3803.49, 0.635951
3806.28, 0.635813
3809.08, 0.635539
3811.88, 0.635539
3814.68, 0.635401
3817.49, 0.635401
3820.31, 0.635058
3823.12, 0.634714
3825.94, 0.634302
3828.77, 0.633958
3831.6, 0.633615
3834.43, 0.633340
3837.27, 0.632928
3840.11, 0.632515
3842.96, 0.632103
3845.81, 0.631897
3848.67, 0.631760
3851.53, 0.631553
3854.39, 0.631347
3857.26, 0.631210
3860.13, 0.631073
3863.01, 0.631073
3865.89, 0.630935
3868.77, 0.630729
3871.66, 0.630523
3874.55, 0.630317
3877.45, 0.630042
3880.35, 0.629836
3883.26, 0.629561
3886.17, 0.629492
3889.09, 0.629080
3892.01, 0.628599
3894.93, 0.628393
3897.86, 0.628324
3900.79, 0.627912
3903.73, 0.627500
3906.67, 0.627088
3909.62, 0.626881
3912.57, 0.626469
3915.52, 0.625920
3918.48, 0.625439
3921.45, 0.625026
3924.42, 0.624408
3927.39, 0.623858
3930.37, 0.623377
3933.35, 0.622828
3936.34, 0.622141
3939.33, 0.621110
3942.32, 0.619392
3945.32, 0.617469
3948.33, 0.615407
3951.34, 0.613277
3954.35, 0.610941
3957.37, 0.608880
3960.39, 0.607094
3963.42, 0.605445
3966.45, 0.603933
3969.49, 0.602903
3972.53, 0.602147
3975.58, 0.601529
3978.63, 0.601048
3981.68, 0.600842
3984.75, 0.601185
3987.81, 0.602216
3990.88, 0.603727
3993.95, 0.605788
3997.03, 0.607850
4000.12, 0.610048
4003.21, 0.612247
4006.3, 0.614445
4009.4, 0.616438
4012.5, 0.618156
4015.61, 0.619530
4018.72, 0.620766
4021.84, 0.621660
4024.96, 0.622896
4028.09, 0.624271
4031.22, 0.625713
4034.36, 0.626950
4037.5, 0.628462
4040.65, 0.629973
4043.8, 0.631210
4046.96, 0.632447
4050.12, 0.633683
4053.29, 0.634645
4056.46, 0.635745
4059.64, 0.636775
4062.82, 0.637806
4066.0, 0.638630
4069.19, 0.639730
4072.39, 0.640760
4075.59, 0.641722
4078.8, 0.642684
4082.01, 0.643646
4085.23, 0.644608
4088.45, 0.645776
4091.68, 0.646875
4094.91, 0.647906
4098.15, 0.648868
4101.39, 0.649829
4104.63, 0.650654
4107.89, 0.651753
4111.14, 0.652715
4114.41, 0.653540
4117.67, 0.654433
4120.95, 0.655532
4124.23, 0.656288
4127.51, 0.657181
4130.8, 0.657937
4134.09, 0.658761
4137.39, 0.659517
4140.7, 0.660204
4144.01, 0.660823
4147.32, 0.661578
4150.64, 0.662128
4153.97, 0.662746
4157.3, 0.663296
4160.64, 0.663846
4163.98, 0.664258
4167.33, 0.664670
4170.68, 0.664945
4174.04, 0.665220
4177.4, 0.665495
4180.77, 0.665838
4184.14, 0.666044
4187.52, 0.666113
4190.91, 0.666250
4194.3, 0.666594
4197.69, 0.666938
4201.1, 0.667350
4204.5, 0.667899
4207.92, 0.668724
4211.34, 0.669617
4214.76, 0.670785
4218.19, 0.671953
4221.62, 0.673259
4225.06, 0.674358
4228.51, 0.675114
4231.96, 0.675320
4235.42, 0.675251
4238.88, 0.674770
4242.35, 0.673877
4245.83, 0.672434
4249.31, 0.670785
4252.79, 0.668999
4256.28, 0.667968
4259.78, 0.668586
4263.29, 0.669823
4266.79, 0.670579
4270.31, 0.671060
4273.83, 0.671266
4277.35, 0.671266
4280.89, 0.671129
4284.42, 0.670854
4287.97, 0.670442
4291.52, 0.670029
4295.07, 0.669342
4298.63, 0.668724
4302.2, 0.667968
4305.78, 0.667212
4309.35, 0.666457
4312.94, 0.665770
4316.53, 0.665082
4320.13, 0.664533
4323.73, 0.663983
4327.34, 0.663433
4330.96, 0.662884
4334.58, 0.662609
4338.21, 0.662128
4341.84, 0.661716
4345.48, 0.661304
4349.12, 0.661097
4352.77, 0.660685
4356.43, 0.660410
4360.1, 0.660067
4363.76, 0.659792
4367.44, 0.659380
4371.12, 0.659036
4374.81, 0.658761
4378.51, 0.658418
4382.21, 0.658074
4385.92, 0.657868
4389.63, 0.657456
4393.35, 0.657181
4397.08, 0.656769
4400.81, 0.656563
4404.55, 0.656219
4408.29, 0.656082
4412.04, 0.655738
4415.8, 0.655326
4419.57, 0.654983
4423.34, 0.654708
4427.12, 0.654295
4430.9, 0.654089
4434.69, 0.653746
4438.49, 0.653471
4442.29, 0.653059
4446.1, 0.652715
4449.92, 0.652372
4453.74, 0.652028
4457.57, 0.651685
4461.41, 0.651341
4465.25, 0.650997
4469.1, 0.650723
4472.95, 0.650379
4476.82, 0.650104
4480.69, 0.649761
4484.56, 0.649555
4488.44, 0.649349
4492.33, 0.649005
4496.23, 0.648593
4500.13, 0.648249
4504.04, 0.647974
4507.96, 0.647768
4511.88, 0.647287
4515.81, 0.647012
4519.75, 0.646806
4523.69, 0.646532
4527.65, 0.646257
4531.6, 0.646051
4535.57, 0.645638
4539.54, 0.645364
4543.52, 0.645020
4547.5, 0.644814
4551.5, 0.644470
4555.5, 0.644127
4559.5, 0.643783
4563.52, 0.643508
4567.54, 0.643096
4571.56, 0.642753
4575.6, 0.642409
4579.64, 0.642066
4583.69, 0.641722
4587.75, 0.641379
4591.81, 0.640898
4595.88, 0.640554
4599.96, 0.640211
4604.04, 0.639798
4608.14, 0.639249
4612.24, 0.638836
4616.34, 0.638424
4620.46, 0.637875
4624.58, 0.637462
4628.71, 0.637050
4632.84, 0.636569
4636.99, 0.636088
4641.14, 0.635470
4645.3, 0.634783
4649.47, 0.634302
4653.64, 0.633821
4657.82, 0.633134
4662.01, 0.632515
4666.21, 0.631897
4670.41, 0.631622
4674.62, 0.631347
4678.84, 0.631141
4683.07, 0.630729
4687.3, 0.630454
4691.54, 0.630248
4695.79, 0.630111
4700.05, 0.629836
4704.31, 0.629492
4708.59, 0.629286
4712.87, 0.628736
4717.15, 0.628599
4721.45, 0.628049
4725.76, 0.627775
4730.07, 0.627225
4734.39, 0.626881
4738.72, 0.626194
4743.05, 0.625782
4747.39, 0.625370
4751.75, 0.624820
4756.1, 0.624339
4760.47, 0.623583
4764.85, 0.623171
4769.23, 0.622415
4773.62, 0.622141
4778.02, 0.621385
4782.43, 0.621110
4786.85, 0.620354
4791.27, 0.619942
4795.7, 0.619186
4800.14, 0.618774
4804.59, 0.618156
4809.05, 0.617537
4813.51, 0.616988
4817.99, 0.616438
4822.47, 0.615820
4826.96, 0.615133
4831.46, 0.614583
4835.96, 0.614102
4840.48, 0.613346
4845.0, 0.612659
4849.54, 0.611835
4854.08, 0.611148
4858.63, 0.610254
4863.18, 0.609636
4867.75, 0.608812
4872.33, 0.607987
4876.91, 0.607162
4881.5, 0.606269
4886.1, 0.605307
4890.71, 0.604414
4895.33, 0.603521
4899.96, 0.602765
4904.59, 0.601803
4909.24, 0.600773
4913.89, 0.599467
4918.55, 0.598505
4923.22, 0.597475
4927.9, 0.596513
4932.59, 0.595345
4937.29, 0.594452
4942.0, 0.593284
4946.71, 0.592116
4951.44, 0.590810
4956.17, 0.589711
4960.91, 0.588337
4965.67, 0.586963
4970.43, 0.585589
4975.2, 0.584352
4979.98, 0.582909
4984.76, 0.581397
4989.56, 0.579749
4994.37, 0.578031
4999.18, 0.576244
5004.01, 0.574527
5008.84, 0.572466
5013.69, 0.570610
5018.54, 0.568687
5023.4, 0.566351
5028.28, 0.563877
5033.16, 0.561541
5038.05, 0.559068
5042.95, 0.556938
5047.86, 0.554739
5052.78, 0.553022
5057.71, 0.551441
5062.65, 0.550136
5067.6, 0.548693
5072.56, 0.547594
5077.53, 0.546700
5082.5, 0.546013
5087.49, 0.544983
5092.49, 0.544227
5097.5, 0.543609
5102.51, 0.543196
5107.54, 0.542578
5112.58, 0.542166
5117.62, 0.541479
5122.68, 0.540792
5127.75, 0.539761
5132.82, 0.538456
5137.91, 0.536807
5143.01, 0.535433
5148.12, 0.533715
5153.23, 0.531379
5158.36, 0.529180
5163.5, 0.527463
5168.65, 0.525814
5173.81, 0.524233
5178.98, 0.522516
5184.15, 0.521004
5189.34, 0.519424
5194.54, 0.517981
5199.75, 0.516332
5204.98, 0.514202
5210.21, 0.512484
5215.45, 0.510217
5220.7, 0.506919
5225.96, 0.504034
5231.23, 0.501217
5236.52, 0.498400
5241.81, 0.495102
5247.12, 0.491666
5252.44, 0.488025
5257.76, 0.484177
5263.1, 0.479849
5268.45, 0.475451
5273.81, 0.470573
5279.18, 0.465214
5284.56, 0.459443
5289.95, 0.453740
5295.36, 0.446663
5300.77, 0.439106
5306.2, 0.431548
5311.63, 0.423784
5317.08, 0.415677
5322.54, 0.407638
5328.01, 0.399668
5333.49, 0.392179
5338.98, 0.385033
5344.49, 0.378918
5350.0, 0.373216
5355.53, 0.366826
5361.07, 0.360917
5366.62, 0.355970
5372.18, 0.351573
5377.75, 0.347725
5383.34, 0.344290
5388.93, 0.340992
5394.54, 0.338038
5400.16, 0.335221
5405.79, 0.332472
5411.44, 0.329930
5417.09, 0.327938
5422.76, 0.325464
5428.43, 0.321067
5434.12, 0.317288
5439.83, 0.313509
5445.54, 0.309318
5451.26, 0.304440
5457.0, 0.299699
5462.75, 0.295165
5468.52, 0.289599
5474.29, 0.284240
5480.08, 0.279912
5485.88, 0.275583
5491.69, 0.272560
5497.51, 0.270430
5503.35, 0.269194
5509.2, 0.268575
5515.06, 0.268987
5520.93, 0.269812
5526.82, 0.270842
5532.71, 0.271942
5538.63, 0.273041
5544.55, 0.273797
5550.49, 0.274415
5556.44, 0.274209
5562.4, 0.273934
5568.37, 0.274003
5574.36, 0.274896
5580.36, 0.275446
5586.37, 0.274896
5592.4, 0.274690
5598.44, 0.274896
5604.49, 0.274690
5610.56, 0.274209
5616.63, 0.273728
5622.73, 0.272972
5628.83, 0.272491
5634.95, 0.272766
5641.08, 0.272972
5647.23, 0.270911
5653.39, 0.268919
5659.56, 0.266926
5665.74, 0.264796
5671.94, 0.263491
5678.15, 0.261223
5684.38, 0.258681
5690.62, 0.256483
5696.87, 0.253872
5703.14, 0.251742
5709.42, 0.250093
5715.72, 0.247139
5722.03, 0.244047
5728.35, 0.241230
5734.69, 0.238688
5741.03, 0.236420
5747.4, 0.234428
5753.78, 0.231473
5760.17, 0.230305
5766.58, 0.229275
5773.0, 0.225359
5779.44, 0.222198
5785.88, 0.219587
5792.35, 0.217182
5798.83, 0.215190
5805.32, 0.212923
5811.83, 0.211411
5818.35, 0.210724
5824.89, 0.208731
5831.45, 0.205640
5838.01, 0.202960
5844.59, 0.200761
5851.19, 0.199250
5857.8, 0.197876
5864.43, 0.196295
5871.07, 0.194509
5877.73, 0.194784
5884.4, 0.192517
5891.09, 0.189906
5897.79, 0.187913
5904.5, 0.184478
5911.23, 0.182279
5917.98, 0.180562
5924.75, 0.179256
5931.53, 0.179462
5938.32, 0.178981
5945.13, 0.176645
5951.96, 0.175890
5958.8, 0.175958
5965.65, 0.177195
5972.53, 0.177882
5979.42, 0.178707
5986.32, 0.180699
5993.24, 0.182142
6000.18, 0.183241
6007.13, 0.185577
6014.1, 0.188325
6021.08, 0.190455
6028.09, 0.192654
6035.1, 0.195540
6042.14, 0.200212
6049.19, 0.205090
6056.25, 0.205021
6063.34, 0.206533
6070.44, 0.210449
6077.55, 0.213197
6084.69, 0.214915
6091.84, 0.218076
6099.0, 0.221717
6106.19, 0.226458
6113.39, 0.231405
6120.61, 0.233672
6127.84, 0.236489
6135.09, 0.241092
6142.36, 0.245971
6149.65, 0.250849
6156.95, 0.256620
6164.27, 0.261979
6171.61, 0.266995
6178.97, 0.274484
6186.34, 0.281904
6193.73, 0.286714
6201.14, 0.292348
6208.57, 0.298944
6216.01, 0.305333
6223.47, 0.311586
6230.95, 0.317494
6238.45, 0.323128
6245.97, 0.328419
6253.5, 0.333434
6261.06, 0.338175
6268.63, 0.342779
6276.21, 0.346695
6283.82, 0.350130
6291.45, 0.353359
6299.1, 0.356314
6306.76, 0.358993
6314.44, 0.361467
6322.14, 0.363597
6329.86, 0.365521
6337.6, 0.369231
6345.35, 0.371842
6353.13, 0.370124
6360.92, 0.370742
6368.74, 0.373078
6376.57, 0.372735
6384.43, 0.372460
6392.3, 0.373010
6400.19, 0.374384
6408.1, 0.379949
6416.03, 0.382079
6423.98, 0.377956
6431.95, 0.376445
6439.94, 0.375483
6447.95, 0.374727
6455.98, 0.374109
6464.03, 0.373697
6472.1, 0.374384
6480.19, 0.375346
6488.31, 0.377132
6496.44, 0.375620
6504.59, 0.370261
6512.76, 0.368200
6520.95, 0.367513
6529.16, 0.364352
6537.4, 0.362223
6545.65, 0.360917
6553.92, 0.358925
6562.22, 0.356863
6570.54, 0.355695
6578.88, 0.351229
6587.23, 0.347107
6595.61, 0.343191
6604.02, 0.338725
6612.44, 0.335358
6620.89, 0.332198
6629.35, 0.331442
6637.84, 0.329312
6646.35, 0.322304
6654.88, 0.316670
6663.44, 0.313716
6672.01, 0.311380
6680.61, 0.308563
6689.23, 0.303959
6697.88, 0.300318
6706.54, 0.298119
6715.23, 0.295165
6723.94, 0.291523
6732.67, 0.287882
6741.42, 0.284927
6750.2, 0.282523
6759.0, 0.279774
6767.82, 0.277782
6776.67, 0.276202
6785.54, 0.275034
6794.44, 0.272217
6803.35, 0.268232
6812.29, 0.265689
6821.26, 0.264315
6830.24, 0.261979
6839.25, 0.259094
6848.29, 0.257857
6857.35, 0.258063
6866.43, 0.255864
6875.54, 0.251467
6884.67, 0.248856
6893.82, 0.246864
6903.0, 0.245215
6912.2, 0.243016
6921.43, 0.240680
6930.69, 0.238619
6939.96, 0.236489
6949.27, 0.234977
6958.59, 0.233878
6967.95, 0.230786
6977.33, 0.227832
6986.73, 0.225977
6996.16, 0.223916
7005.61, 0.221648
7015.09, 0.219793
7024.6, 0.217801
7034.13, 0.216427
7043.69, 0.215877
7053.27, 0.214159
7062.88, 0.212510
7072.52, 0.211961
7082.18, 0.211755
7091.87, 0.211961
7101.58, 0.212304
7111.32, 0.212716
7121.09, 0.213129
7130.88, 0.213266
7140.71, 0.213953
7150.56, 0.214640
7160.43, 0.215327
7170.33, 0.216014
7180.27, 0.216083
7190.23, 0.216495
7200.21, 0.217389
7210.23, 0.217869
7220.27, 0.217595
7230.34, 0.217663
7240.44, 0.217663
7250.56, 0.217732
7260.72, 0.217732
7270.9, 0.218007
7281.12, 0.218007
7291.36, 0.217801
7301.63, 0.217938
7311.93, 0.218076
7322.25, 0.218282
7332.61, 0.218557
7343.0, 0.218419
7353.41, 0.217801
7363.86, 0.217389
7374.33, 0.216908
7384.83, 0.216152
7395.37, 0.215190
7405.93, 0.214297
7416.53, 0.213335
7427.15, 0.212373
7437.81, 0.211411
7448.5, 0.210587
7459.22, 0.209831
7469.96, 0.209075
7480.74, 0.208113
7491.55, 0.207151
7502.39, 0.206327
7513.27, 0.205571
7524.17, 0.204540
7535.11, 0.203578
7546.08, 0.202410
7557.08, 0.201174
7568.11, 0.200074
7579.17, 0.199044
7590.27, 0.197876
7601.4, 0.196570
7612.56, 0.195265
7623.76, 0.194234
7634.98, 0.193272
7646.24, 0.192585
7657.54, 0.191830
7668.87, 0.191005
7680.23, 0.190318
7691.62, 0.189700
7703.05, 0.189081
7714.51, 0.188532
7726.01, 0.187913
7737.54, 0.187364
7749.11, 0.186608
7760.71, 0.185921
7772.35, 0.185165
7784.02, 0.184341
7795.72, 0.183310
7807.46, 0.182211
7819.23, 0.181180
7831.04, 0.180356
7842.89, 0.179394
7854.77, 0.178363
7866.69, 0.177332
7878.65, 0.176439
7890.64, 0.175340
7902.67, 0.174241
7914.74, 0.173141
7926.84, 0.171698
7938.98, 0.170256
7951.16, 0.168813
7963.37, 0.167026
7975.62, 0.165103
7987.91, 0.163179
8000.24, 0.161186
8012.6, 0.159125
8025.01, 0.157064
8037.45, 0.154865
8049.93, 0.152598
8062.45, 0.150262
8075.01, 0.148063
8087.61, 0.145933
8100.24, 0.143872
8112.91, 0.141880
8125.63, 0.139818
8138.39, 0.137689
8151.18, 0.135696
8164.02, 0.133704
8176.9, 0.131848
8189.81, 0.129856
8202.77, 0.127932
8215.77, 0.125940
8228.82, 0.123878
8241.9, 0.121749
8255.02, 0.119687
8268.19, 0.117695
8281.39, 0.115634
8294.65, 0.113504
8307.94, 0.111580
8321.28, 0.109450
8334.66, 0.107595
8348.08, 0.105671
8361.54, 0.103747
8375.05, 0.101824
8388.6, 0.100106
8402.2, 0.0983200
8415.84, 0.0963960
8429.52, 0.0945410
8443.25, 0.0926860
8457.02, 0.0908990
8470.84, 0.0892500
8484.7, 0.0876700
8498.61, 0.0860210
8512.57, 0.0843720
8526.57, 0.0829290
8540.62, 0.0814860
8554.71, 0.0800430
8568.85, 0.0786010
8583.04, 0.0772270
8597.27, 0.0759900
8611.55, 0.0746840
8625.88, 0.0734480
8640.26, 0.0723480
8654.68, 0.0711120
8669.16, 0.0699440
8683.68, 0.0687070
8698.25, 0.0678820
8712.87, 0.0668520
8727.53, 0.0656150
8742.25, 0.0644470
8757.02, 0.0633480
8771.83, 0.0620420
8786.7, 0.0608060
8801.62, 0.0595000
8816.59, 0.0583320
8831.61, 0.0569580
8846.68, 0.0555840
8861.8, 0.0540720
8876.97, 0.0526980
8892.2, 0.0511180
8907.48, 0.0494690
8922.81, 0.0480950
8938.2, 0.0467210
8953.63, 0.0451400
8969.13, 0.0437660
8984.67, 0.0423920
9000.27, 0.0410180
9015.92, 0.0399190
9031.63, 0.0388880
9047.39, 0.0376510
9063.21, 0.0365520
9079.08, 0.0355210
9095.01, 0.0346280
9111.0, 0.0335980
9127.04, 0.0325670
9143.13, 0.0318110
9159.28, 0.0310560
9175.49, 0.0301620
9191.76, 0.0295440
9208.09, 0.0287880
9224.47, 0.0281700
9240.92, 0.0276890
9257.42, 0.0272080
9273.98, 0.0265900
9290.6, 0.0261090
9307.28, 0.0255590
9324.02, 0.0252840
9340.82, 0.0250090
9357.68, 0.0248030
9374.6, 0.0243910
9391.58, 0.0239790
9408.62, 0.0236350
9425.73, 0.0232920
9442.9, 0.0228790
9460.13, 0.0227420
9477.42, 0.0226050
9494.78, 0.0224670
9512.2, 0.0226050
9529.69, 0.0232920
9547.24, 0.0239100
9564.86, 0.0245970
9582.54, 0.0254900
9600.28, 0.0267960
9618.1, 0.0282390
9635.97, 0.0302310
9653.92, 0.0327040
9671.93, 0.0355900
9690.01, 0.0388880
9708.16, 0.0429420
9726.37, 0.0474760
9744.65, 0.0529730
9763.0, 0.0592940
9781.43, 0.0667830
9799.92, 0.0751650
9818.48, 0.0847160
9837.1, 0.0958460
9855.8, 0.107732
9874.58, 0.120581
9893.42, 0.134322
9912.34, 0.148338
9931.33, 0.162079
9950.39, 0.174859
9969.52, 0.186951
9988.74, 0.199662
10008.0, 0.213541
10027.4, 0.228588
10046.8, 0.244528
10066.3, 0.260468
10085.9, 0.275789
10105.6, 0.289806
10125.3, 0.301967
10145.1, 0.312067
10165.0, 0.320311
10185.0, 0.326907
10205.0, 0.331373
10225.2, 0.334328
10245.4, 0.336251
10265.7, 0.336870
10286.0, 0.336183
10306.5, 0.335015
10327.0, 0.333778
10347.6, 0.332541
10368.3, 0.331511
10389.1, 0.331098
10409.9, 0.331304
10430.9, 0.332060
10451.9, 0.333160
10473.0, 0.334534
10494.2, 0.335564
10515.5, 0.335977
10536.9, 0.335770
10558.4, 0.335221
10579.9, 0.334396
10601.5, 0.333709
10623.3, 0.333297
10645.1, 0.333366
10667.0, 0.333503
10689.0, 0.333709
10711.1, 0.333434
10733.2, 0.333091
10755.5, 0.332335
10777.9, 0.330824
10800.3, 0.328762
10822.9, 0.326289
10845.5, 0.322922
10868.2, 0.319556
10891.1, 0.315914
10914.0, 0.311998
10937.0, 0.307669
10960.2, 0.302791
10983.4, 0.297776
11006.7, 0.291867
11030.1, 0.284996
11053.6, 0.277370
11077.3, 0.268713
11101.0, 0.258750
11124.8, 0.247413
11148.7, 0.234771
11172.7, 0.220686
11196.9, 0.205021
11221.1, 0.187432
11245.4, 0.168881
11269.9, 0.150605
11294.4, 0.133497
11319.1, 0.118519
11343.9, 0.106427
11368.8, 0.0980450
11393.7, 0.0937850
11418.8, 0.0937850
11444.0, 0.0982510
11469.4, 0.106427
11494.8, 0.117351
11520.3, 0.130337
11546.0, 0.144628
11571.8, 0.159400
11597.7, 0.174241
11623.7, 0.188532
11649.8, 0.201861
11676.0, 0.214022
11702.4, 0.224946
11728.9, 0.233741
11755.5, 0.240199
11782.2, 0.244184
11809.0, 0.246314
11836.0, 0.246932
11863.0, 0.245764
11890.3, 0.242810
11917.6, 0.237794
11945.0, 0.231130
11972.6, 0.223916
12000.4, 0.218144
12028.2, 0.215946
12056.2, 0.217251
12084.3, 0.221030
12112.5, 0.225702
12140.9, 0.230099
12169.4, 0.233260
12198.0, 0.234634
12226.8, 0.233741
12255.7, 0.230237
12284.7, 0.224534
12313.9, 0.217251
12343.2, 0.209625
12372.7, 0.202273
12402.3, 0.195471
12432.0, 0.189425
12461.9, 0.183791
12491.9, 0.178638
12522.1, 0.173622
12552.4, 0.169088
12582.9, 0.165171
12613.5, 0.161805
12644.3, 0.158713
12675.2, 0.155965
12706.3, 0.153697
12737.5, 0.151636
12768.9, 0.150124
12800.4, 0.148956
12832.1, 0.148063
12863.9, 0.147376
12895.9, 0.146483
12928.1, 0.145590
12960.4, 0.144834
12992.9, 0.144284
13025.5, 0.143872
13058.3, 0.143735
13091.3, 0.143872
13124.4, 0.143872
13157.8, 0.143735
13191.2, 0.143391
13224.9, 0.143116
13258.7, 0.143391
13292.7, 0.143803
13326.9, 0.143941
13361.2, 0.144284
13395.7, 0.145178
13430.4, 0.146071
13465.3, 0.146689
13500.4, 0.147376
13535.7, 0.147926
13571.1, 0.148338
13606.7, 0.148819
13642.5, 0.149300
13678.5, 0.149644
13714.7, 0.149918
13751.1, 0.150262
13787.6, 0.150399
13824.4, 0.150468
13861.4, 0.150193
13898.5, 0.149437
13935.9, 0.148750
13973.5, 0.148132
14011.2, 0.147033
14049.2, 0.146071
14087.4, 0.146208
14125.8, 0.146277
14164.3, 0.145727
14203.2, 0.145040
14242.2, 0.144078
14281.4, 0.142910
14320.9, 0.142086
14360.5, 0.141536
14400.4, 0.140918
14440.5, 0.140162
14480.9, 0.139200
14521.4, 0.138169
14562.2, 0.137276
14603.3, 0.136246
14644.5, 0.135146
14686.0, 0.133772
14727.7, 0.132467
14769.7, 0.130612
14811.9, 0.128413
14854.3, 0.126421
14897.0, 0.124497
14939.9, 0.122848
14983.1, 0.121405
15026.5, 0.118932
15070.2, 0.116183
15114.2, 0.113985
15158.3, 0.112267
15202.8, 0.110549
15247.5, 0.108763
15292.5, 0.106839
15337.7, 0.105053
15383.2, 0.103060
15429.0, 0.100862
15475.1, 0.0983880
15521.4, 0.0958460
15568.0, 0.0930980
15614.9, 0.0910370
15662.1, 0.0885630
15709.6, 0.0859520
15757.3, 0.0834790
15805.4, 0.0807310
15853.7, 0.0779140
15902.3, 0.0747530
15951.2, 0.0716610
16000.5, 0.0691190
16050.0, 0.0658210
16099.8, 0.0621800
16150.0, 0.0586070
16200.5, 0.0550340
16251.3, 0.0513240
16302.4, 0.0483700
16353.8, 0.0458270
16405.5, 0.0432170
16457.6, 0.0410870
16510.0, 0.0395060
16562.8, 0.0386130
16615.9, 0.0387510
16669.3, 0.0399870
16723.1, 0.0418420
16777.2, 0.0434910
16831.7, 0.0446590
16886.5, 0.0445910
16941.7, 0.0441790
16997.2, 0.0436980
17053.1, 0.0429420
17109.4, 0.0413620
17166.1, 0.0397130
17223.1, 0.0368960
17280.5, 0.0344910
17338.3, 0.0324300
17396.5, 0.0305060
17455.1, 0.0287190
17514.0, 0.0267960
17573.4, 0.0250780
17633.2, 0.0243910
17693.4, 0.0235660
17754.0, 0.0226050
17815.0, 0.0222610
17876.4, 0.0221240
17938.3, 0.0228110
18000.5, 0.0238410
18063.3, 0.0259020
18126.4, 0.0292000
18190.0, 0.0335290
18254.1, 0.0409490
18318.6, 0.0509800
18383.5, 0.0643780
18449.0, 0.0826540
18514.9, 0.104641
18581.2, 0.126077
18648.0, 0.146414
18715.4, 0.163660
18783.2, 0.175202
18851.5, 0.182898
18920.3, 0.188944
18989.6, 0.192585
19059.4, 0.190387
19129.7, 0.185440
19200.6, 0.178844
19272.0, 0.168744
19343.9, 0.156514
19416.3, 0.143529
19489.3, 0.130818
19562.8, 0.118519
19637.0, 0.106908
19711.6, 0.0957090
19786.8, 0.0861580
19862.6, 0.0777760
19939.0, 0.0710430
20016.0, 0.0658900
20093.6, 0.0629350
20171.8, 0.0606680
20250.6, 0.0627980
20330.0, 0.0705620
20410.0, 0.0819670
20490.7, 0.0946780
20572.0, 0.104434
20654.0, 0.106290
20736.6, 0.101892
20819.9, 0.0961900
20903.8, 0.0887690
20988.5, 0.0832040
21073.8, 0.0849900
21159.8, 0.0941280
21246.5, 0.109038
21334.0, 0.129306
21422.1, 0.151636
21511.0, 0.170187
21600.7, 0.185989
21691.0, 0.199868
21782.1, 0.209144
21874.0, 0.214091
21966.7, 0.220755
22060.2, 0.228931
22154.5, 0.233054
22249.6, 0.234634
22345.5, 0.234977
22442.2, 0.232298
22539.8, 0.224603
22638.2, 0.210724
22737.5, 0.192173
22837.7, 0.173073
22938.7, 0.159194
23040.7, 0.151086
23143.5, 0.147995
23247.3, 0.150812
23352.1, 0.158232
23457.7, 0.164828
23564.4, 0.171561
23672.0, 0.180218
23780.5, 0.189219
23890.1, 0.196089
24000.7, 0.202273
24112.3, 0.210243
24225.0, 0.217389
24338.7, 0.221580
24453.5, 0.226458
24569.4, 0.230580
24686.4, 0.228794
24804.5, 0.226252
