Database of Origin, USGS Spectral Database
Sample Description, See USGS database for additional info
Date Added,2016-08-10 05:00:29.291541

Data ID,USGS_kao11          
Sample ID, kaolinite_gds11.12072
Mineral Name, kaolinite
Material Class,Phyllosilicate

Wavelength
1607.49, 0.592028
1607.99, 0.592813
1608.49, 0.593206
1608.99, 0.593795
1609.49, 0.593730
1609.99, 0.594254
1610.49, 0.594778
1610.99, 0.595367
1611.49, 0.595367
1611.99, 0.595367
1612.49, 0.595563
1612.99, 0.596283
1613.49, 0.596742
1614.0, 0.597462
1614.5, 0.598182
1615.0, 0.598706
1615.51, 0.598313
1616.01, 0.599361
1616.51, 0.600016
1617.02, 0.600343
1617.52, 0.600081
1618.03, 0.600147
1618.53, 0.600474
1619.04, 0.601325
1619.54, 0.600867
1620.05, 0.600736
1620.55, 0.600998
1621.06, 0.602045
1621.57, 0.602700
1622.08, 0.603093
1622.58, 0.603289
1623.09, 0.603289
1623.6, 0.603289
1624.11, 0.603813
1624.62, 0.603813
1625.13, 0.604271
1625.64, 0.604992
1626.15, 0.605646
1626.66, 0.605385
1627.17, 0.605254
1627.68, 0.605712
1628.19, 0.606105
1628.7, 0.606432
1629.21, 0.607283
1629.72, 0.607283
1630.24, 0.607545
1630.75, 0.607807
1631.26, 0.608200
1631.78, 0.608069
1632.29, 0.608658
1632.8, 0.608920
1633.32, 0.609051
1633.83, 0.608855
1634.35, 0.609509
1634.86, 0.610361
1635.38, 0.610950
1635.9, 0.610819
1636.41, 0.611277
1636.93, 0.611474
1637.45, 0.611801
1637.96, 0.612456
1638.48, 0.612652
1639.0, 0.612456
1639.52, 0.613045
1640.04, 0.613503
1640.56, 0.613765
1641.08, 0.613962
1641.59, 0.614224
1642.11, 0.613896
1642.63, 0.613896
1643.16, 0.614551
1643.68, 0.614878
1644.2, 0.614944
1644.72, 0.615533
1645.24, 0.615599
1645.76, 0.615861
1646.29, 0.616122
1646.81, 0.616253
1647.33, 0.616319
1647.86, 0.616974
1648.38, 0.616712
1648.9, 0.616712
1649.43, 0.617039
1649.95, 0.617432
1650.48, 0.617890
1651.0, 0.618218
1651.53, 0.618283
1652.06, 0.618676
1652.58, 0.618676
1653.11, 0.618872
1653.64, 0.619200
1654.17, 0.619396
1654.69, 0.619134
1655.22, 0.619265
1655.75, 0.619658
1656.28, 0.620313
1656.81, 0.620509
1657.34, 0.620837
1657.87, 0.620968
1658.4, 0.620837
1658.93, 0.620706
1659.46, 0.621295
1659.99, 0.621557
1660.52, 0.622277
1661.05, 0.622146
1661.59, 0.622277
1662.12, 0.622801
1662.65, 0.622736
1663.19, 0.622539
1663.72, 0.622539
1664.26, 0.622212
1664.79, 0.622605
1665.32, 0.623259
1665.86, 0.623718
1666.39, 0.623849
1666.93, 0.623718
1667.47, 0.623914
1668.0, 0.624634
1668.54, 0.624896
1669.08, 0.624896
1669.61, 0.625093
1670.15, 0.625158
1670.69, 0.624962
1671.23, 0.625355
1671.77, 0.625878
1672.31, 0.625813
1672.85, 0.625878
1673.39, 0.626140
1673.93, 0.626533
1674.47, 0.626729
1675.01, 0.626533
1675.55, 0.626664
1676.09, 0.627122
1676.64, 0.627515
1677.18, 0.627122
1677.72, 0.627188
1678.26, 0.627450
1678.81, 0.628366
1679.35, 0.628628
1679.89, 0.628825
1680.44, 0.628890
1680.98, 0.629152
1681.53, 0.628956
1682.07, 0.629479
1682.62, 0.629414
1683.17, 0.629218
1683.71, 0.629283
1684.26, 0.629872
1684.81, 0.629807
1685.36, 0.629938
1685.9, 0.630462
1686.45, 0.630658
1687.0, 0.630200
1687.55, 0.630527
1688.1, 0.630985
1688.65, 0.631247
1689.2, 0.631378
1689.75, 0.631247
1690.3, 0.630854
1690.85, 0.631247
1691.41, 0.631706
1691.96, 0.632229
1692.51, 0.632164
1693.06, 0.632426
1693.61, 0.632688
1694.17, 0.633081
1694.72, 0.633146
1695.28, 0.633277
1695.83, 0.633670
1696.39, 0.634063
1696.94, 0.634128
1697.5, 0.634063
1698.05, 0.633735
1698.61, 0.633932
1699.17, 0.634128
1699.72, 0.634456
1700.28, 0.634390
1700.84, 0.634325
1701.4, 0.634717
1701.95, 0.634979
1702.51, 0.634914
1703.07, 0.635307
1703.63, 0.635176
1704.19, 0.635765
1704.75, 0.635831
1705.31, 0.635700
1705.88, 0.635634
1706.44, 0.635765
1707.0, 0.635962
1707.56, 0.636289
1708.12, 0.636027
1708.69, 0.636354
1709.25, 0.636551
1709.81, 0.636747
1710.38, 0.636616
1710.94, 0.636747
1711.51, 0.636747
1712.07, 0.636813
1712.64, 0.636747
1713.2, 0.636944
1713.77, 0.637206
1714.34, 0.637271
1714.9, 0.637075
1715.47, 0.637336
1716.04, 0.637664
1716.61, 0.637991
1717.18, 0.638122
1717.74, 0.637729
1718.31, 0.637402
1718.88, 0.638122
1719.45, 0.638384
1720.02, 0.638450
1720.59, 0.638515
1721.17, 0.638777
1721.74, 0.638711
1722.31, 0.638711
1722.88, 0.638908
1723.45, 0.639104
1724.03, 0.638777
1724.6, 0.638777
1725.18, 0.638973
1725.75, 0.639366
1726.33, 0.639563
1726.9, 0.639628
1727.48, 0.639432
1728.05, 0.639497
1728.63, 0.639563
1729.2, 0.639955
1729.78, 0.639759
1730.36, 0.639825
1730.94, 0.639563
1731.51, 0.639825
1732.09, 0.639759
1732.67, 0.640217
1733.25, 0.640348
1733.83, 0.640414
1734.41, 0.640414
1734.99, 0.640414
1735.57, 0.640676
1736.15, 0.640872
1736.73, 0.641134
1737.32, 0.641265
1737.9, 0.641069
1738.48, 0.641330
1739.07, 0.641592
1739.65, 0.641920
1740.23, 0.641920
1740.82, 0.641985
1741.4, 0.641723
1741.99, 0.641985
1742.57, 0.642313
1743.16, 0.642509
1743.74, 0.642574
1744.33, 0.642574
1744.92, 0.642378
1745.51, 0.642706
1746.09, 0.643098
1746.68, 0.642967
1747.27, 0.642902
1747.86, 0.642902
1748.45, 0.643229
1749.04, 0.643688
1749.63, 0.643295
1750.22, 0.643295
1750.81, 0.643491
1751.4, 0.643622
1751.99, 0.643295
1752.59, 0.643295
1753.18, 0.643819
1753.77, 0.644015
1754.37, 0.643884
1754.96, 0.644146
1755.56, 0.644277
1756.15, 0.644342
1756.74, 0.644342
1757.34, 0.644211
1757.94, 0.643950
1758.53, 0.644408
1759.13, 0.644670
1759.73, 0.644735
1760.32, 0.644801
1760.92, 0.644866
1761.52, 0.644539
1762.12, 0.644408
1762.72, 0.644604
1763.32, 0.644997
1763.92, 0.644866
1764.52, 0.644801
1765.12, 0.644473
1765.72, 0.644539
1766.32, 0.644539
1766.92, 0.645063
1767.53, 0.645194
1768.13, 0.644866
1768.73, 0.644670
1769.34, 0.644801
1769.94, 0.644604
1770.55, 0.644408
1771.15, 0.644604
1771.76, 0.644539
1772.36, 0.644473
1772.97, 0.644604
1773.57, 0.644473
1774.18, 0.644408
1774.79, 0.644080
1775.4, 0.644015
1776.0, 0.644015
1776.61, 0.643950
1777.22, 0.643950
1777.83, 0.644015
1778.44, 0.643884
1779.05, 0.643950
1779.66, 0.643753
1780.27, 0.643491
1780.88, 0.643426
1781.5, 0.643491
1782.11, 0.643164
1782.72, 0.642967
1783.33, 0.642902
1783.95, 0.642574
1784.56, 0.642247
1785.18, 0.642051
1785.79, 0.641723
1786.41, 0.641658
1787.02, 0.641330
1787.64, 0.641330
1788.26, 0.641396
1788.87, 0.641527
1789.49, 0.641396
1790.11, 0.641200
1790.73, 0.640872
1791.35, 0.640938
1791.96, 0.640938
1792.58, 0.640938
1793.21, 0.640545
1793.83, 0.640676
1794.45, 0.640610
1795.07, 0.640676
1795.69, 0.640610
1796.31, 0.640414
1796.93, 0.640479
1797.56, 0.640807
1798.18, 0.640676
1798.8, 0.640676
1799.43, 0.640676
1800.05, 0.640741
1800.68, 0.640741
1801.3, 0.641003
1801.93, 0.641396
1802.56, 0.641265
1803.18, 0.641134
1803.81, 0.641396
1804.44, 0.641396
1805.07, 0.641134
1805.7, 0.640872
1806.33, 0.641003
1806.95, 0.641069
1807.58, 0.641200
1808.22, 0.641265
1808.85, 0.641265
1809.48, 0.641265
1810.11, 0.641003
1810.74, 0.640348
1811.38, 0.640283
1812.01, 0.639955
1812.64, 0.639890
1813.28, 0.640217
1813.91, 0.640152
1814.55, 0.639694
1815.18, 0.639301
1815.82, 0.639235
1816.45, 0.639104
1817.09, 0.639039
1817.73, 0.639301
1818.36, 0.639235
1819.0, 0.639366
1819.64, 0.638711
1820.28, 0.638188
1820.92, 0.638711
1821.56, 0.639039
1822.2, 0.639890
1822.84, 0.640741
1823.48, 0.641134
1824.12, 0.641527
1824.76, 0.641658
1825.41, 0.640938
1826.05, 0.639759
1826.69, 0.641330
1827.34, 0.642640
1827.98, 0.642902
1828.63, 0.643098
1829.27, 0.643491
1829.92, 0.643622
1830.56, 0.643295
1831.21, 0.643688
1831.86, 0.644670
1832.5, 0.644670
1833.15, 0.645324
1833.8, 0.645586
1834.45, 0.644670
1835.1, 0.644277
1835.75, 0.643819
1836.4, 0.643753
1837.05, 0.643819
1837.7, 0.643622
1838.35, 0.644997
1839.01, 0.644080
1839.66, 0.642706
1840.31, 0.643360
1840.96, 0.642706
1841.62, 0.640807
1842.27, 0.641789
1842.93, 0.642771
1843.58, 0.643033
1844.24, 0.643164
1844.9, 0.643688
1845.55, 0.644211
1846.21, 0.643295
1846.87, 0.642444
1847.53, 0.644211
1848.18, 0.645717
1848.84, 0.647682
1849.5, 0.648664
1850.16, 0.649449
1850.82, 0.650432
1851.48, 0.651152
1852.14, 0.651021
1852.81, 0.650628
1853.47, 0.649711
1854.13, 0.650890
1854.8, 0.652789
1855.46, 0.653116
1856.12, 0.651806
1856.79, 0.651872
1857.45, 0.652985
1858.12, 0.653967
1858.79, 0.653313
1859.45, 0.651872
1860.12, 0.652592
1860.79, 0.653574
1861.46, 0.654098
1862.12, 0.654426
1862.79, 0.654491
1863.46, 0.654295
1864.13, 0.653902
1864.8, 0.654426
1865.48, 0.654557
1866.15, 0.654557
1866.82, 0.653640
1867.49, 0.652134
1868.16, 0.652789
1868.84, 0.653640
1869.51, 0.653509
1870.19, 0.652134
1870.86, 0.651021
1871.54, 0.652920
1872.21, 0.652265
1872.89, 0.650562
1873.56, 0.651741
1874.24, 0.653247
1874.92, 0.652985
1875.6, 0.653247
1876.28, 0.652265
1876.96, 0.651872
1877.64, 0.652920
1878.32, 0.653313
1879.0, 0.653574
1879.68, 0.653378
1880.36, 0.653051
1881.04, 0.652985
1881.73, 0.652985
1882.41, 0.653116
1883.09, 0.652461
1883.78, 0.651479
1884.46, 0.652003
1885.15, 0.652396
1885.83, 0.652068
1886.52, 0.651806
1887.21, 0.651872
1887.89, 0.652068
1888.58, 0.651806
1889.27, 0.650759
1889.96, 0.649646
1890.65, 0.650628
1891.34, 0.650824
1892.03, 0.650432
1892.72, 0.650170
1893.41, 0.650104
1894.1, 0.650104
1894.79, 0.650039
1895.49, 0.649711
1896.18, 0.649449
1896.87, 0.648795
1897.57, 0.648271
1898.26, 0.647813
1898.96, 0.646176
1899.65, 0.645521
1900.35, 0.646503
1901.05, 0.647223
1901.74, 0.646896
1902.44, 0.645259
1903.14, 0.645259
1903.84, 0.645783
1904.54, 0.644473
1905.24, 0.643360
1905.94, 0.643819
1906.64, 0.643819
1907.34, 0.644670
1908.04, 0.644670
1908.75, 0.644408
1909.45, 0.644211
1910.15, 0.643950
1910.86, 0.643360
1911.56, 0.643360
1912.27, 0.643622
1912.97, 0.642444
1913.68, 0.641985
1914.39, 0.643229
1915.09, 0.643295
1915.8, 0.642967
1916.51, 0.643098
1917.22, 0.643491
1917.93, 0.643491
1918.64, 0.643295
1919.35, 0.642247
1920.06, 0.641265
1920.77, 0.641723
1921.48, 0.643360
1922.19, 0.643557
1922.91, 0.643557
1923.62, 0.643098
1924.33, 0.643360
1925.05, 0.643688
1925.76, 0.643753
1926.48, 0.643295
1927.19, 0.642967
1927.91, 0.642378
1928.63, 0.642313
1929.35, 0.642706
1930.07, 0.642640
1930.78, 0.642509
1931.5, 0.642771
1932.22, 0.642771
1932.94, 0.642574
1933.66, 0.642116
1934.39, 0.642182
1935.11, 0.641985
1935.83, 0.641658
1936.55, 0.641592
1937.28, 0.641789
1938.0, 0.641658
1938.73, 0.641200
1939.45, 0.641069
1940.18, 0.641592
1940.9, 0.641330
1941.63, 0.641069
1942.36, 0.641265
1943.09, 0.641527
1943.81, 0.641134
1944.54, 0.641200
1945.27, 0.641461
1946.0, 0.641723
1946.73, 0.641789
1947.47, 0.641985
1948.2, 0.641920
1948.93, 0.641854
1949.66, 0.642051
1950.4, 0.642640
1951.13, 0.642706
1951.86, 0.642574
1952.6, 0.642706
1953.34, 0.642706
1954.07, 0.642509
1954.81, 0.642706
1955.55, 0.642836
1956.29, 0.642836
1957.02, 0.642706
1957.76, 0.642706
1958.5, 0.642836
1959.24, 0.643033
1959.98, 0.643164
1960.72, 0.643033
1961.47, 0.642902
1962.21, 0.643033
1962.95, 0.643033
1963.7, 0.642967
1964.44, 0.643164
1965.18, 0.643229
1965.93, 0.643295
1966.67, 0.643491
1967.42, 0.643557
1968.17, 0.643753
1968.92, 0.643622
1969.66, 0.643557
1970.41, 0.643491
1971.16, 0.643491
1971.91, 0.643557
1972.66, 0.643622
1973.41, 0.643819
1974.16, 0.643688
1974.92, 0.643360
1975.67, 0.643622
1976.42, 0.643688
1977.18, 0.643950
1977.93, 0.643557
1978.69, 0.643295
1979.44, 0.643098
1980.2, 0.643491
1980.95, 0.643688
1981.71, 0.643950
1982.47, 0.643884
1983.23, 0.643819
1983.99, 0.643819
1984.74, 0.644080
1985.51, 0.643753
1986.27, 0.643753
1987.03, 0.643950
1987.79, 0.643884
1988.55, 0.643688
1989.32, 0.643622
1990.08, 0.643491
1990.84, 0.643557
1991.61, 0.643622
1992.37, 0.643360
1993.14, 0.642902
1993.9, 0.642967
1994.67, 0.642902
1995.44, 0.642706
1996.21, 0.642247
1996.98, 0.642247
1997.75, 0.642182
1998.52, 0.642182
1999.29, 0.642182
2000.06, 0.642116
2000.83, 0.641723
2001.6, 0.641592
2002.38, 0.641461
2003.15, 0.641330
2003.93, 0.641069
2004.7, 0.641265
2005.48, 0.641265
2006.25, 0.641527
2007.03, 0.641461
2007.81, 0.641592
2008.58, 0.641527
2009.36, 0.641330
2010.14, 0.640938
2010.92, 0.640872
2011.7, 0.640872
2012.48, 0.640741
2013.26, 0.640348
2014.05, 0.640086
2014.83, 0.639890
2015.61, 0.640021
2016.4, 0.639694
2017.18, 0.639235
2017.97, 0.638973
2018.75, 0.639039
2019.54, 0.638908
2020.32, 0.638908
2021.11, 0.638711
2021.9, 0.638581
2022.69, 0.638188
2023.48, 0.637926
2024.27, 0.637598
2025.06, 0.637402
2025.85, 0.637206
2026.64, 0.636878
2027.44, 0.636747
2028.23, 0.636616
2029.02, 0.636354
2029.82, 0.636092
2030.61, 0.635831
2031.41, 0.635700
2032.2, 0.635307
2033.0, 0.635176
2033.8, 0.634979
2034.6, 0.634783
2035.4, 0.634652
2036.2, 0.634521
2037.0, 0.634194
2037.8, 0.633997
2038.6, 0.633735
2039.4, 0.633473
2040.2, 0.633277
2041.01, 0.633343
2041.81, 0.633015
2042.61, 0.632557
2043.42, 0.632229
2044.22, 0.632164
2045.03, 0.631837
2045.84, 0.631706
2046.65, 0.631182
2047.46, 0.630658
2048.26, 0.630396
2049.07, 0.630462
2049.88, 0.630134
2050.69, 0.629676
2051.51, 0.629479
2052.32, 0.629218
2053.13, 0.628759
2053.94, 0.628628
2054.76, 0.628366
2055.57, 0.628235
2056.39, 0.627908
2057.2, 0.627777
2058.02, 0.627384
2058.84, 0.626991
2059.66, 0.626664
2060.48, 0.626271
2061.29, 0.625813
2062.11, 0.625420
2062.94, 0.624896
2063.76, 0.624503
2064.58, 0.623980
2065.4, 0.623390
2066.22, 0.622736
2067.05, 0.622015
2067.87, 0.620968
2068.7, 0.620247
2069.52, 0.619593
2070.35, 0.618807
2071.18, 0.617694
2072.0, 0.616712
2072.83, 0.616057
2073.66, 0.615402
2074.49, 0.614748
2075.32, 0.614289
2076.15, 0.613831
2076.98, 0.613634
2077.82, 0.613438
2078.65, 0.612914
2079.48, 0.612325
2080.32, 0.612194
2081.15, 0.611539
2081.99, 0.610623
2082.83, 0.609575
2083.66, 0.608724
2084.5, 0.607545
2085.34, 0.606367
2086.18, 0.604992
2087.02, 0.603748
2087.86, 0.603093
2088.7, 0.602700
2089.54, 0.602307
2090.39, 0.602045
2091.23, 0.601718
2092.07, 0.601718
2092.92, 0.601456
2093.76, 0.601260
2094.61, 0.601194
2095.45, 0.601194
2096.3, 0.600801
2097.15, 0.600670
2098.0, 0.600605
2098.85, 0.600539
2099.7, 0.600277
2100.55, 0.600212
2101.4, 0.599819
2102.25, 0.599426
2103.1, 0.599033
2103.96, 0.598641
2104.81, 0.597986
2105.67, 0.597266
2106.52, 0.595891
2107.38, 0.593992
2108.24, 0.591438
2109.09, 0.588688
2109.95, 0.585938
2110.81, 0.583647
2111.67, 0.581879
2112.53, 0.580897
2113.39, 0.580111
2114.25, 0.580177
2115.12, 0.580504
2115.98, 0.580635
2116.84, 0.580569
2117.71, 0.580766
2118.58, 0.580766
2119.44, 0.580635
2120.31, 0.579980
2121.18, 0.579325
2122.04, 0.578540
2122.91, 0.577885
2123.78, 0.577165
2124.65, 0.576444
2125.52, 0.575397
2126.4, 0.574546
2127.27, 0.573825
2128.14, 0.573040
2129.02, 0.571927
2129.89, 0.570617
2130.77, 0.569439
2131.64, 0.568325
2132.52, 0.566754
2133.4, 0.565052
2134.27, 0.563218
2135.15, 0.561189
2136.03, 0.558832
2136.91, 0.556213
2137.79, 0.553070
2138.68, 0.550320
2139.56, 0.547177
2140.44, 0.543903
2141.33, 0.540302
2142.21, 0.536505
2143.1, 0.532445
2143.99, 0.527862
2144.87, 0.522886
2145.76, 0.517779
2146.65, 0.512017
2147.54, 0.506124
2148.43, 0.499838
2149.32, 0.493422
2150.21, 0.487005
2151.1, 0.481178
2151.99, 0.475613
2152.89, 0.470767
2153.78, 0.466381
2154.68, 0.462583
2155.57, 0.458851
2156.47, 0.455250
2157.37, 0.451910
2158.27, 0.448833
2159.16, 0.445756
2160.06, 0.443399
2160.96, 0.441500
2161.86, 0.440649
2162.77, 0.440452
2163.67, 0.440911
2164.57, 0.441500
2165.48, 0.442417
2166.38, 0.443333
2167.29, 0.444512
2168.2, 0.445821
2169.1, 0.446934
2170.01, 0.447851
2170.92, 0.448899
2171.83, 0.449881
2172.74, 0.451387
2173.65, 0.452893
2174.56, 0.454137
2175.47, 0.455446
2176.39, 0.456952
2177.3, 0.458000
2178.22, 0.459047
2179.13, 0.459767
2180.05, 0.460095
2180.96, 0.460226
2181.88, 0.460553
2182.8, 0.460357
2183.72, 0.459702
2184.64, 0.458916
2185.56, 0.457672
2186.48, 0.455774
2187.41, 0.453416
2188.33, 0.450601
2189.25, 0.447851
2190.18, 0.445036
2191.1, 0.442351
2192.03, 0.439536
2192.96, 0.436982
2193.89, 0.435149
2194.82, 0.434167
2195.74, 0.433315
2196.68, 0.432792
2197.61, 0.432006
2198.54, 0.430762
2199.47, 0.428601
2200.4, 0.425262
2201.34, 0.420155
2202.28, 0.413149
2203.21, 0.403852
2204.15, 0.392524
2205.08, 0.379036
2206.02, 0.364501
2206.96, 0.350162
2207.9, 0.340079
2208.84, 0.337852
2209.78, 0.345382
2210.73, 0.360965
2211.67, 0.381590
2212.61, 0.403262
2213.56, 0.423560
2214.5, 0.441369
2215.45, 0.456559
2216.4, 0.469327
2217.35, 0.480458
2218.3, 0.489886
2219.24, 0.497940
2220.2, 0.504749
2221.15, 0.510642
2222.1, 0.515487
2223.05, 0.520070
2224.0, 0.523933
2224.96, 0.527207
2225.91, 0.529761
2226.87, 0.531987
2227.83, 0.533624
2228.79, 0.535195
2229.74, 0.536308
2230.7, 0.537225
2231.66, 0.537814
2232.63, 0.538207
2233.59, 0.538272
2234.55, 0.538141
2235.51, 0.537316
2236.48, 0.537316
2237.44, 0.537252
2238.41, 0.536490
2239.38, 0.535601
2240.34, 0.535283
2241.31, 0.535283
2242.28, 0.535029
2243.25, 0.534521
2244.22, 0.533822
2245.19, 0.533695
2246.17, 0.533632
2247.14, 0.532996
2248.12, 0.532806
2249.09, 0.532679
2250.07, 0.532425
2251.04, 0.532425
2252.02, 0.532425
2253.0, 0.532234
2253.98, 0.532107
2254.96, 0.531599
2255.94, 0.530900
2256.92, 0.530328
2257.91, 0.529630
2258.89, 0.528677
2259.88, 0.527788
2260.86, 0.527534
2261.85, 0.526835
2262.83, 0.526136
2263.82, 0.525755
2264.81, 0.525183
2265.8, 0.524548
2266.79, 0.523532
2267.78, 0.522579
2268.78, 0.521690
2269.77, 0.520610
2270.76, 0.519149
2271.76, 0.517370
2272.75, 0.515782
2273.75, 0.514893
2274.75, 0.513432
2275.75, 0.511654
2276.75, 0.510256
2277.75, 0.509240
2278.75, 0.507779
2279.75, 0.505873
2280.75, 0.504031
2281.76, 0.502634
2282.76, 0.501490
2283.77, 0.500283
2284.77, 0.499267
2285.78, 0.498251
2286.79, 0.497107
2287.8, 0.496091
2288.81, 0.495075
2289.82, 0.493804
2290.83, 0.492534
2291.84, 0.491708
2292.86, 0.491010
2293.87, 0.490247
2294.89, 0.489422
2295.91, 0.488469
2296.92, 0.487516
2297.94, 0.487008
2298.96, 0.485991
2299.98, 0.484658
2301.0, 0.483768
2302.02, 0.482752
2303.04, 0.481418
2304.07, 0.479894
2305.09, 0.478496
2306.12, 0.476845
2307.15, 0.475130
2308.17, 0.473224
2309.2, 0.471572
2310.23, 0.469667
2311.26, 0.467698
2312.29, 0.466173
2313.32, 0.465348
2314.35, 0.464966
2315.39, 0.464331
2316.42, 0.463759
2317.46, 0.463251
2318.5, 0.463188
2319.53, 0.462934
2320.57, 0.462299
2321.61, 0.461536
2322.65, 0.461346
2323.69, 0.460901
2324.73, 0.460456
2325.78, 0.460202
2326.82, 0.460012
2327.86, 0.459948
2328.91, 0.460329
2329.96, 0.460965
2331.01, 0.461917
2332.05, 0.463061
2333.1, 0.464204
2334.15, 0.464903
2335.21, 0.465348
2336.26, 0.465919
2337.31, 0.466491
2338.36, 0.466427
2339.42, 0.465983
2340.48, 0.465348
2341.53, 0.464458
2342.59, 0.463378
2343.65, 0.462108
2344.71, 0.460456
2345.77, 0.459123
2346.83, 0.457217
2347.9, 0.455121
2348.96, 0.453469
2350.02, 0.452135
2351.09, 0.450420
2352.16, 0.448705
2353.23, 0.447371
2354.29, 0.446101
2355.36, 0.444640
2356.43, 0.443433
2357.51, 0.442861
2358.58, 0.442798
2359.65, 0.442988
2360.73, 0.443687
2361.8, 0.444513
2362.88, 0.445212
2363.96, 0.445910
2365.03, 0.446482
2366.11, 0.446546
2367.19, 0.446228
2368.27, 0.445593
2369.36, 0.444513
2370.44, 0.442925
2371.53, 0.441083
2372.61, 0.438669
2373.7, 0.436255
2374.78, 0.433524
2375.87, 0.430729
2376.96, 0.427998
2378.05, 0.425520
2379.14, 0.423424
2380.24, 0.421392
2381.33, 0.419740
2382.42, 0.418343
2383.52, 0.417136
2384.61, 0.416945
2385.71, 0.417136
2386.81, 0.418152
2387.91, 0.419677
2389.01, 0.420947
2390.11, 0.422535
2391.22, 0.423869
2392.32, 0.425203
2393.42, 0.426473
2394.53, 0.427807
2395.64, 0.429586
2396.74, 0.431618
2397.85, 0.433842
2398.96, 0.436001
2400.07, 0.437843
2401.18, 0.439177
2402.3, 0.440194
2403.41, 0.440829
2404.52, 0.440892
2405.64, 0.440765
2406.76, 0.440638
2407.88, 0.440321
2408.99, 0.440257
2410.11, 0.440130
2411.23, 0.439622
2412.36, 0.439368
2413.48, 0.438987
2414.6, 0.437970
2415.73, 0.437272
2416.85, 0.436382
2417.98, 0.435493
2419.11, 0.434350
2420.24, 0.433143
2421.37, 0.431872
2422.5, 0.430602
2423.64, 0.429459
2424.77, 0.428061
2425.9, 0.426664
2427.04, 0.425076
2428.18, 0.423424
2429.31, 0.421709
2430.45, 0.419550
2431.59, 0.417136
2432.73, 0.414341
2433.88, 0.411483
2435.02, 0.408751
2436.16, 0.406274
2437.31, 0.403543
2438.45, 0.400938
2439.6, 0.398779
2440.75, 0.397063
2441.9, 0.395666
2443.05, 0.394650
2444.2, 0.393125
2445.35, 0.391537
2446.51, 0.390394
2447.67, 0.389695
2448.82, 0.388806
2449.98, 0.387853
2451.14, 0.386646
2452.3, 0.385439
2453.46, 0.384296
2454.62, 0.383407
2455.78, 0.382263
2456.94, 0.381056
2458.11, 0.380231
2459.28, 0.379532
2460.44, 0.378262
2461.61, 0.377944
2462.78, 0.377753
2463.95, 0.377563
2465.12, 0.377309
2466.3, 0.377245
2467.47, 0.376864
2468.65, 0.376420
2469.82, 0.375594
2471.0, 0.374577
2472.18, 0.373879
2473.36, 0.373307
2474.54, 0.372608
2475.72, 0.371910
2476.9, 0.370893
2478.08, 0.369877
2479.27, 0.368479
2480.46, 0.366701
2481.64, 0.364795
2482.83, 0.363144
2484.02, 0.361048
2485.21, 0.358761
2486.4, 0.356538
2487.6, 0.355331
2488.79, 0.354632
2489.99, 0.354124
2491.18, 0.353743
2492.38, 0.353552
2493.58, 0.353362
2494.78, 0.353108
2495.98, 0.352790
2497.18, 0.352472
2498.39, 0.351901
2499.59, 0.351393
2500.8, 0.350884
2502.01, 0.350567
2503.21, 0.350059
2504.42, 0.349487
2505.63, 0.348598
2506.84, 0.347899
2508.06, 0.346883
2509.27, 0.345993
2510.49, 0.345231
2511.7, 0.344787
2512.92, 0.344024
2514.14, 0.343326
2515.36, 0.342944
2516.58, 0.342627
2517.8, 0.342119
2519.03, 0.341229
2520.25, 0.340594
2521.48, 0.340150
2522.7, 0.339451
2523.93, 0.338562
2525.16, 0.337990
2526.39, 0.337101
2527.62, 0.335957
2528.86, 0.335322
2530.09, 0.334179
2531.33, 0.333035
2532.56, 0.332527
2533.8, 0.332781
2535.04, 0.331956
2536.28, 0.331066
2537.52, 0.331257
2538.76, 0.330558
2540.01, 0.329034
2541.25, 0.326874
2542.5, 0.324397
2543.75, 0.323634
2544.99, 0.323571
2546.24, 0.322618
2547.49, 0.321094
2548.75, 0.321538
2550.0, 0.320967
2551.26, 0.319760
2552.51, 0.318743
2553.77, 0.320331
2555.03, 0.321983
2556.29, 0.321919
2557.55, 0.321348
2558.81, 0.319950
2560.08, 0.315250
2561.34, 0.311502
2562.61, 0.310676
2563.88, 0.310549
2565.14, 0.312645
2566.41, 0.314742
2567.68, 0.312963
2568.96, 0.308453
2570.23, 0.308199
2571.51, 0.308961
2572.78, 0.303499
2574.06, 0.304007
2575.34, 0.305087
2576.62, 0.303181
2577.9, 0.305214
2579.18, 0.306166
2580.47, 0.303244
2581.75, 0.302609
2583.04, 0.298099
2584.32, 0.298036
2585.61, 0.301529
2586.9, 0.299751
2588.2, 0.300704
2589.49, 0.302482
2590.78, 0.303371
2592.08, 0.300767
2593.37, 0.288698
2594.67, 0.279043
2595.97, 0.287936
2597.27, 0.297337
2598.57, 0.299941
2599.88, 0.298036
2601.18, 0.294860
2602.49, 0.292827
2603.79, 0.288762
2605.1, 0.283617
2606.41, 0.285459
2607.72, 0.288190
2609.03, 0.288000
2610.35, 0.288698
2611.66, 0.289016
2612.98, 0.287364
2614.3, 0.286539
2615.62, 0.280568
2616.94, 0.277011
2618.26, 0.279933
2619.58, 0.275232
2620.91, 0.275105
2622.23, 0.280314
2623.56, 0.280060
2624.89, 0.275867
2626.22, 0.269579
2627.55, 0.270023
2628.88, 0.266403
2630.21, 0.259289
2631.55, 0.261385
2632.89, 0.261766
2634.22, 0.259479
2635.56, 0.258526
2636.9, 0.256113
2638.25, 0.253381
2639.59, 0.250459
2640.93, 0.247029
2642.28, 0.243599
2643.63, 0.240360
2644.98, 0.235532
2646.33, 0.232737
2647.68, 0.231276
2649.03, 0.228672
2650.39, 0.224607
2651.74, 0.219335
2653.1, 0.216413
2654.46, 0.213935
2655.82, 0.210315
2657.18, 0.207647
2658.54, 0.201803
2659.9, 0.196404
2661.27, 0.192148
2662.64, 0.187066
2664.01, 0.177792
2665.38, 0.169281
2666.74, 0.164644
2668.12, 0.162167
2669.49, 0.153083
2670.87, 0.147303
2672.24, 0.147493
2673.62, 0.142793
2675.0, 0.134853
2676.38, 0.126976
2677.76, 0.121514
2679.15, 0.115988
2680.54, 0.111668
2681.92, 0.105443
2683.31, 0.0980750
2684.7, 0.0912150
2686.09, 0.0842910
2687.48, 0.0774310
2688.88, 0.0700630
2690.27, 0.0626940
2691.67, 0.0553260
2693.07, 0.0477040
2694.47, 0.0416690
2695.87, 0.0367150
2697.27, 0.0325220
2698.67, 0.0285840
2700.08, 0.0247730
2701.49, 0.0213430
2702.9, 0.0188650
2704.31, 0.0168330
2705.72, 0.0155620
2707.13, 0.0149270
2708.54, 0.0148640
2709.96, 0.0148000
2711.38, 0.0151810
2712.8, 0.0163880
2714.22, 0.0176590
2715.64, 0.0186750
2717.06, 0.0195640
2718.49, 0.0198180
2719.91, 0.0192470
2721.34, 0.0185480
2722.77, 0.0172770
2724.2, 0.0156890
2725.63, 0.0154350
2727.07, 0.0160710
2728.5, 0.0171500
2729.94, 0.0179760
2731.38, 0.0180400
2732.82, 0.0172770
2734.26, 0.0160070
2735.7, 0.0153080
2737.15, 0.0152450
2738.59, 0.0155620
2740.04, 0.0172140
2741.49, 0.0200090
2742.94, 0.0234390
2744.39, 0.0270600
2745.84, 0.0300450
2747.3, 0.0322050
2748.76, 0.0337930
2750.21, 0.0343010
2751.67, 0.0333480
2753.14, 0.0307440
2754.6, 0.0263610
2756.06, 0.0216600
2757.53, 0.0172770
2759.0, 0.0131490
2760.46, 0.0114970
2761.94, 0.0137200
2763.41, 0.0200720
2764.88, 0.0287110
2766.36, 0.0376040
2767.83, 0.0455440
2769.31, 0.0529760
2770.79, 0.0604080
2772.27, 0.0679030
2773.76, 0.0743820
2775.24, 0.0796540
2776.73, 0.0835920
2778.22, 0.0871490
2779.71, 0.0902620
2781.2, 0.0934380
2782.69, 0.0969950
2784.18, 0.0998530
2785.68, 0.100997
2787.18, 0.102331
2788.68, 0.104617
2790.18, 0.106650
2791.68, 0.108873
2793.19, 0.111351
2794.69, 0.113701
2796.2, 0.115860
2797.71, 0.117639
2799.22, 0.119481
2800.73, 0.120688
2802.24, 0.121006
2803.76, 0.122149
2805.28, 0.124563
2806.8, 0.126405
2808.32, 0.127675
2809.84, 0.128692
2811.36, 0.129771
2812.89, 0.130534
2814.42, 0.130978
2815.94, 0.131550
2817.48, 0.132122
2819.01, 0.132439
2820.54, 0.133456
2822.08, 0.134662
2823.61, 0.135742
2825.15, 0.136632
2826.69, 0.137330
2828.23, 0.138220
2829.78, 0.139426
2831.32, 0.140189
2832.87, 0.140697
2834.42, 0.141268
2835.97, 0.142221
2837.52, 0.143174
2839.08, 0.144254
2840.63, 0.145207
2842.19, 0.145715
2843.75, 0.146477
2845.31, 0.147239
2846.87, 0.148192
2848.44, 0.148954
2850.0, 0.149717
2851.57, 0.150733
2853.14, 0.151432
2854.71, 0.152448
2856.28, 0.153782
2857.86, 0.155052
2859.43, 0.156132
2861.01, 0.157085
2862.59, 0.158419
2864.17, 0.159816
2865.76, 0.160706
2867.34, 0.161404
2868.93, 0.162357
2870.52, 0.163373
2872.11, 0.164199
2873.7, 0.165279
2875.29, 0.166105
2876.89, 0.166994
2878.49, 0.167756
2880.08, 0.168582
2881.69, 0.169408
2883.29, 0.170107
2884.89, 0.170869
2886.5, 0.171631
2888.11, 0.172393
2889.72, 0.173219
2891.33, 0.174045
2892.94, 0.174998
2894.56, 0.175950
2896.17, 0.177538
2897.79, 0.178999
2899.42, 0.180016
2901.04, 0.180841
2902.66, 0.181731
2904.29, 0.181731
2905.92, 0.180651
2907.55, 0.178936
2909.18, 0.177094
2910.81, 0.175633
2912.45, 0.175887
2914.08, 0.178364
2915.72, 0.182620
2917.36, 0.187511
2919.01, 0.191767
2920.65, 0.195515
2922.3, 0.198691
2923.94, 0.201612
2925.59, 0.204407
2927.25, 0.206885
2928.9, 0.209298
2930.56, 0.211585
2932.21, 0.213554
2933.87, 0.215460
2935.53, 0.217365
2937.2, 0.219017
2938.86, 0.220732
2940.53, 0.222066
2942.2, 0.223400
2943.87, 0.224924
2945.54, 0.226385
2947.22, 0.227846
2948.89, 0.229434
2950.57, 0.231022
2952.25, 0.232356
2953.93, 0.233754
2955.62, 0.235151
2957.3, 0.236294
2958.99, 0.237311
2960.68, 0.238518
2962.37, 0.240042
2964.07, 0.241503
2965.76, 0.242773
2967.46, 0.244044
2969.16, 0.245314
2970.86, 0.246394
2972.56, 0.247410
2974.27, 0.248363
2975.98, 0.249443
2977.69, 0.250523
2979.4, 0.251539
2981.11, 0.252619
2982.83, 0.253572
2984.54, 0.254588
2986.26, 0.255795
2987.98, 0.257065
2989.71, 0.258336
2991.43, 0.259670
2993.16, 0.260813
2994.89, 0.262147
2996.62, 0.263417
2998.35, 0.264624
3000.09, 0.265958
3001.83, 0.267229
3003.57, 0.268372
3005.31, 0.269325
3007.05, 0.270405
3008.79, 0.271484
3010.54, 0.272437
3012.29, 0.273263
3014.04, 0.274089
3015.8, 0.274915
3017.55, 0.275486
3019.31, 0.276185
3021.07, 0.276947
3022.83, 0.277709
3024.59, 0.278535
3026.36, 0.279234
3028.13, 0.279933
3029.9, 0.280631
3031.67, 0.281012
3033.44, 0.281648
3035.22, 0.282219
3037.0, 0.282664
3038.78, 0.283236
3040.56, 0.284061
3042.34, 0.285014
3044.13, 0.285776
3045.92, 0.286729
3047.71, 0.287619
3049.5, 0.288381
3051.3, 0.288952
3053.09, 0.289778
3054.89, 0.290604
3056.69, 0.291493
3058.5, 0.292510
3060.3, 0.293335
3062.11, 0.294161
3063.92, 0.294923
3065.73, 0.295749
3067.55, 0.296702
3069.36, 0.297401
3071.18, 0.298226
3073.0, 0.299116
3074.82, 0.300068
3076.65, 0.300894
3078.48, 0.301784
3080.31, 0.302736
3082.14, 0.303626
3083.97, 0.304515
3085.8, 0.305341
3087.64, 0.306166
3089.48, 0.306992
3091.33, 0.307754
3093.17, 0.308517
3095.02, 0.309279
3096.87, 0.310105
3098.72, 0.311121
3100.57, 0.312137
3102.43, 0.313090
3104.28, 0.314043
3106.14, 0.315059
3108.01, 0.316139
3109.87, 0.317219
3111.74, 0.318299
3113.61, 0.319379
3115.48, 0.320268
3117.35, 0.321221
3119.23, 0.322237
3121.1, 0.323317
3122.98, 0.324460
3124.87, 0.325603
3126.75, 0.326683
3128.64, 0.327763
3130.53, 0.328907
3132.42, 0.330050
3134.31, 0.331257
3136.21, 0.332273
3138.11, 0.333226
3140.01, 0.334496
3141.91, 0.335703
3143.82, 0.336656
3145.73, 0.337672
3147.64, 0.338879
3149.55, 0.339959
3151.46, 0.340912
3153.38, 0.341801
3155.3, 0.342754
3157.22, 0.343643
3159.14, 0.344469
3161.07, 0.345422
3163.0, 0.346311
3164.93, 0.347010
3166.86, 0.347581
3168.8, 0.348344
3170.74, 0.349233
3172.68, 0.350186
3174.62, 0.350884
3176.56, 0.351456
3178.51, 0.352155
3180.46, 0.353044
3182.42, 0.353933
3184.37, 0.354696
3186.33, 0.355521
3188.29, 0.356411
3190.25, 0.356982
3192.21, 0.357618
3194.18, 0.358634
3196.15, 0.359587
3198.12, 0.360222
3200.09, 0.360794
3202.07, 0.361556
3204.05, 0.362445
3206.03, 0.363271
3208.02, 0.364287
3210.0, 0.365113
3211.99, 0.365748
3213.98, 0.366510
3215.98, 0.367336
3217.97, 0.368035
3219.97, 0.368924
3221.97, 0.369750
3223.98, 0.370385
3225.98, 0.371084
3227.99, 0.371783
3230.0, 0.372481
3232.02, 0.373053
3234.03, 0.373434
3236.05, 0.374069
3238.07, 0.374577
3240.1, 0.375086
3242.12, 0.375721
3244.15, 0.376292
3246.18, 0.376737
3248.22, 0.377309
3250.25, 0.377944
3252.29, 0.378452
3254.33, 0.378960
3256.38, 0.379723
3258.43, 0.380231
3260.47, 0.380929
3262.53, 0.381755
3264.58, 0.382835
3266.64, 0.383597
3268.7, 0.384169
3270.76, 0.384868
3272.82, 0.385693
3274.89, 0.386456
3276.96, 0.387091
3279.04, 0.387726
3281.11, 0.388488
3283.19, 0.389314
3285.27, 0.390076
3287.35, 0.390902
3289.44, 0.391728
3291.53, 0.392427
3293.62, 0.393189
3295.71, 0.394142
3297.81, 0.394967
3299.91, 0.395857
3302.01, 0.396555
3304.11, 0.397318
3306.22, 0.397953
3308.33, 0.398524
3310.44, 0.399160
3312.56, 0.399541
3314.68, 0.399731
3316.8, 0.399604
3318.92, 0.399414
3321.05, 0.399541
3323.18, 0.399795
3325.31, 0.399858
3327.44, 0.400049
3329.58, 0.400049
3331.72, 0.399922
3333.86, 0.399541
3336.01, 0.399223
3338.16, 0.399033
3340.31, 0.398715
3342.46, 0.398143
3344.61, 0.397762
3346.77, 0.397826
3348.94, 0.398461
3351.1, 0.399223
3353.27, 0.399922
3355.44, 0.400303
3357.61, 0.400494
3359.79, 0.400112
3361.97, 0.399350
3364.15, 0.398651
3366.33, 0.397953
3368.52, 0.397318
3370.71, 0.396873
3372.9, 0.396682
3375.1, 0.396746
3377.3, 0.397127
3379.5, 0.397889
3381.71, 0.398715
3383.91, 0.399477
3386.12, 0.399922
3388.34, 0.399922
3390.55, 0.399668
3392.77, 0.399414
3394.99, 0.398969
3397.22, 0.398524
3399.45, 0.397826
3401.68, 0.397063
3403.91, 0.396428
3406.15, 0.395793
3408.39, 0.395476
3410.63, 0.395476
3412.87, 0.395984
3415.12, 0.396936
3417.37, 0.398270
3419.63, 0.400112
3421.88, 0.402145
3424.14, 0.404432
3426.41, 0.406655
3428.67, 0.408561
3430.94, 0.410276
3433.21, 0.411991
3435.49, 0.413833
3437.77, 0.415802
3440.05, 0.417644
3442.33, 0.419486
3444.62, 0.421138
3446.91, 0.422789
3449.2, 0.424377
3451.5, 0.425965
3453.8, 0.427426
3456.1, 0.428379
3458.41, 0.429205
3460.72, 0.429713
3463.03, 0.430030
3465.34, 0.430094
3467.66, 0.429967
3469.98, 0.429840
3472.31, 0.429903
3474.63, 0.430094
3476.96, 0.430348
3479.3, 0.430856
3481.64, 0.431491
3483.97, 0.431999
3486.32, 0.432317
3488.66, 0.432635
3491.01, 0.432571
3493.36, 0.432317
3495.72, 0.431872
3498.08, 0.431555
3500.44, 0.431936
3502.81, 0.432889
3505.18, 0.434223
3507.55, 0.436255
3509.92, 0.438733
3512.3, 0.441337
3514.68, 0.443751
3517.06, 0.446101
3519.45, 0.448324
3521.84, 0.450230
3524.24, 0.451945
3526.64, 0.453406
3529.04, 0.454613
3531.44, 0.455947
3533.85, 0.457026
3536.26, 0.457852
3538.67, 0.458551
3541.09, 0.459059
3543.51, 0.459567
3545.93, 0.460075
3548.36, 0.460520
3550.79, 0.460838
3553.22, 0.461092
3555.66, 0.461282
3558.1, 0.461282
3560.54, 0.461346
3562.99, 0.461346
3565.44, 0.461092
3567.9, 0.460838
3570.35, 0.460647
3572.81, 0.460520
3575.28, 0.460202
3577.75, 0.459885
3580.22, 0.459758
3582.69, 0.459758
3585.17, 0.459758
3587.65, 0.459885
3590.14, 0.460012
3592.62, 0.460075
3595.11, 0.460266
3597.61, 0.460583
3600.11, 0.460901
3602.61, 0.461219
3605.11, 0.461600
3607.62, 0.461917
3610.14, 0.462235
3612.65, 0.462807
3615.17, 0.463378
3617.69, 0.463886
3620.22, 0.464331
3622.75, 0.464903
3625.28, 0.465411
3627.82, 0.465983
3630.36, 0.466618
3632.9, 0.467126
3635.45, 0.467317
3638.0, 0.467571
3640.56, 0.467952
3643.12, 0.468142
3645.68, 0.468206
3648.24, 0.468206
3650.81, 0.468015
3653.39, 0.467634
3655.96, 0.467253
3658.54, 0.466745
3661.13, 0.466173
3663.71, 0.465475
3666.3, 0.464585
3668.9, 0.463315
3671.5, 0.461790
3674.1, 0.459694
3676.7, 0.456963
3679.31, 0.453342
3681.93, 0.448832
3684.54, 0.443878
3687.17, 0.439495
3689.79, 0.436382
3692.42, 0.434540
3695.05, 0.434096
3697.69, 0.435239
3700.32, 0.437780
3702.97, 0.440956
3705.61, 0.444513
3708.27, 0.448769
3710.92, 0.453723
3713.58, 0.458995
3716.24, 0.463632
3718.91, 0.467190
3721.58, 0.469984
3724.25, 0.472335
3726.93, 0.474304
3729.61, 0.475765
3732.29, 0.476781
3734.98, 0.477543
3737.67, 0.476908
3740.37, 0.473859
3743.07, 0.473224
3745.78, 0.478369
3748.49, 0.483197
3751.2, 0.485547
3753.91, 0.486944
3756.63, 0.488088
3759.36, 0.488977
3762.09, 0.489676
3764.82, 0.490311
3767.55, 0.490946
3770.29, 0.491518
3773.04, 0.492089
3775.78, 0.492471
3778.54, 0.492915
3781.29, 0.493360
3784.05, 0.493804
3786.82, 0.494186
3789.59, 0.494757
3792.36, 0.495202
3795.13, 0.495583
3797.92, 0.495837
3800.7, 0.496218
3803.49, 0.496663
3806.28, 0.496917
3809.08, 0.497107
3811.88, 0.497489
3814.68, 0.498060
3817.49, 0.498378
3820.31, 0.498632
3823.12, 0.498886
3825.94, 0.499140
3828.77, 0.499394
3831.6, 0.499712
3834.43, 0.500029
3837.27, 0.500220
3840.11, 0.500283
3842.96, 0.500474
3845.81, 0.500728
3848.67, 0.500792
3851.53, 0.500982
3854.39, 0.501046
3857.26, 0.501173
3860.13, 0.501173
3863.01, 0.501173
3865.89, 0.501300
3868.77, 0.501236
3871.66, 0.501236
3874.55, 0.501300
3877.45, 0.501363
3880.35, 0.501363
3883.26, 0.501236
3886.17, 0.501173
3889.09, 0.501109
3892.01, 0.501109
3894.93, 0.500982
3897.86, 0.500982
3900.79, 0.500919
3903.73, 0.500728
3906.67, 0.500538
3909.62, 0.500474
3912.57, 0.500283
3915.52, 0.500220
3918.48, 0.500220
3921.45, 0.500093
3924.42, 0.499902
3927.39, 0.499712
3930.37, 0.499521
3933.35, 0.499394
3936.34, 0.499331
3939.33, 0.499204
3942.32, 0.499013
3945.32, 0.498950
3948.33, 0.498823
3951.34, 0.498632
3954.35, 0.498568
3957.37, 0.498505
3960.39, 0.498441
3963.42, 0.498187
3966.45, 0.498060
3969.49, 0.498060
3972.53, 0.497870
3975.58, 0.497679
3978.63, 0.497425
3981.68, 0.497298
3984.75, 0.497234
3987.81, 0.497107
3990.88, 0.496980
3993.95, 0.496917
3997.03, 0.496790
4000.12, 0.496663
4003.21, 0.496599
4006.3, 0.496282
4009.4, 0.496028
4012.5, 0.495964
4015.61, 0.495901
4018.72, 0.495583
4021.84, 0.495329
4024.96, 0.495075
4028.09, 0.494757
4031.22, 0.494440
4034.36, 0.494186
4037.5, 0.493995
4040.65, 0.493741
4043.8, 0.493487
4046.96, 0.493106
4050.12, 0.492598
4053.29, 0.492280
4056.46, 0.492089
4059.64, 0.491772
4062.82, 0.491391
4066.0, 0.490946
4069.19, 0.490692
4072.39, 0.490374
4075.59, 0.489930
4078.8, 0.489612
4082.01, 0.489294
4085.23, 0.488977
4088.45, 0.488786
4091.68, 0.488532
4094.91, 0.488151
4098.15, 0.487834
4101.39, 0.487580
4104.63, 0.487325
4107.89, 0.487008
4111.14, 0.486754
4114.41, 0.486436
4117.67, 0.486118
4120.95, 0.485991
4124.23, 0.485674
4127.51, 0.485420
4130.8, 0.485039
4134.09, 0.484785
4137.39, 0.484658
4140.7, 0.484340
4144.01, 0.483959
4147.32, 0.483641
4150.64, 0.483324
4153.97, 0.483070
4157.3, 0.482815
4160.64, 0.482434
4163.98, 0.482117
4167.33, 0.481926
4170.68, 0.481609
4174.04, 0.481227
4177.4, 0.480783
4180.77, 0.480402
4184.14, 0.480021
4187.52, 0.479639
4190.91, 0.479195
4194.3, 0.478877
4197.69, 0.478306
4201.1, 0.477607
4204.5, 0.476781
4207.92, 0.475765
4211.34, 0.474558
4214.76, 0.473351
4218.19, 0.472144
4221.62, 0.470747
4225.06, 0.469159
4228.51, 0.467634
4231.96, 0.466237
4235.42, 0.464903
4238.88, 0.463632
4242.35, 0.462489
4245.83, 0.461409
4249.31, 0.460202
4252.79, 0.459059
4256.28, 0.457471
4259.78, 0.455248
4263.29, 0.452961
4266.79, 0.451373
4270.31, 0.450865
4273.83, 0.451437
4277.35, 0.452580
4280.89, 0.454041
4284.42, 0.455629
4287.97, 0.456963
4291.52, 0.457979
4295.07, 0.458868
4298.63, 0.459567
4302.2, 0.460075
4305.78, 0.460456
4309.35, 0.460583
4312.94, 0.460520
4316.53, 0.460266
4320.13, 0.459885
4323.73, 0.459440
4327.34, 0.458868
4330.96, 0.458106
4334.58, 0.457407
4338.21, 0.456645
4341.84, 0.455819
4345.48, 0.454930
4349.12, 0.453977
4352.77, 0.453088
4356.43, 0.452326
4360.1, 0.451564
4363.76, 0.450865
4367.44, 0.450103
4371.12, 0.449595
4374.81, 0.449023
4378.51, 0.448515
4382.21, 0.448134
4385.92, 0.447625
4389.63, 0.446927
4393.35, 0.446228
4397.08, 0.445529
4400.81, 0.444831
4404.55, 0.444132
4408.29, 0.443560
4412.04, 0.442798
4415.8, 0.442036
4419.57, 0.441337
4423.34, 0.440765
4427.12, 0.440194
4430.9, 0.439749
4434.69, 0.439114
4438.49, 0.438415
4442.29, 0.437716
4446.1, 0.436827
4449.92, 0.435938
4453.74, 0.434794
4457.57, 0.433270
4461.41, 0.431618
4465.25, 0.429776
4469.1, 0.427744
4472.95, 0.425584
4476.82, 0.423488
4480.69, 0.421582
4484.56, 0.419931
4488.44, 0.418660
4492.33, 0.417708
4496.23, 0.416945
4500.13, 0.416374
4504.04, 0.415865
4507.96, 0.415548
4511.88, 0.415357
4515.81, 0.415167
4519.75, 0.415040
4523.69, 0.415040
4527.65, 0.414976
4531.6, 0.414786
4535.57, 0.414531
4539.54, 0.414023
4543.52, 0.413325
4547.5, 0.412245
4551.5, 0.410911
4555.5, 0.409386
4559.5, 0.407608
4563.52, 0.405766
4567.54, 0.403924
4571.56, 0.401955
4575.6, 0.399985
4579.64, 0.397953
4583.69, 0.395857
4587.75, 0.393697
4591.81, 0.391410
4595.88, 0.388933
4599.96, 0.386265
4604.04, 0.383343
4608.14, 0.380231
4612.24, 0.376864
4616.34, 0.373307
4620.46, 0.369813
4624.58, 0.366256
4628.71, 0.362953
4632.84, 0.359714
4636.99, 0.356347
4641.14, 0.353044
4645.3, 0.349805
4649.47, 0.346883
4653.64, 0.344342
4657.82, 0.342119
4662.01, 0.340467
4666.21, 0.339260
4670.41, 0.338307
4674.62, 0.337672
4678.84, 0.337291
4683.07, 0.336974
4687.3, 0.336847
4691.54, 0.336656
4695.79, 0.336592
4700.05, 0.336465
4704.31, 0.336465
4708.59, 0.336465
4712.87, 0.336465
4717.15, 0.336338
4721.45, 0.336084
4725.76, 0.335957
4730.07, 0.335767
4734.39, 0.335449
4738.72, 0.335195
4743.05, 0.334877
4747.39, 0.334496
4751.75, 0.334115
4756.1, 0.333607
4760.47, 0.332908
4764.85, 0.331892
4769.23, 0.330685
4773.62, 0.329224
4778.02, 0.327509
4782.43, 0.325731
4786.85, 0.323888
4791.27, 0.321919
4795.7, 0.319633
4800.14, 0.317346
4804.59, 0.314932
4809.05, 0.312391
4813.51, 0.309851
4817.99, 0.307310
4822.47, 0.304769
4826.96, 0.302292
4831.46, 0.299941
4835.96, 0.297591
4840.48, 0.295177
4845.0, 0.293145
4849.54, 0.291366
4854.08, 0.289461
4858.63, 0.287428
4863.18, 0.285586
4867.75, 0.283680
4872.33, 0.281711
4876.91, 0.279742
4881.5, 0.277773
4886.1, 0.275804
4890.71, 0.273962
4895.33, 0.272247
4899.96, 0.270722
4904.59, 0.269515
4909.24, 0.268436
4913.89, 0.267356
4918.55, 0.266339
4923.22, 0.265260
4927.9, 0.264116
4932.59, 0.262846
4937.29, 0.261385
4942.0, 0.259606
4946.71, 0.257701
4951.44, 0.255541
4956.17, 0.253000
4960.91, 0.250523
4965.67, 0.248046
4970.43, 0.245124
4975.2, 0.242138
4979.98, 0.239280
4984.76, 0.236739
4989.56, 0.234198
4994.37, 0.231721
4999.18, 0.229307
5004.01, 0.226830
5008.84, 0.224289
5013.69, 0.221494
5018.54, 0.218318
5023.4, 0.215587
5028.28, 0.212792
5033.16, 0.209679
5038.05, 0.206313
5042.95, 0.202756
5047.86, 0.199072
5052.78, 0.195197
5057.71, 0.191259
5062.65, 0.187384
5067.6, 0.183319
5072.56, 0.179253
5077.53, 0.174998
5082.5, 0.170615
5087.49, 0.166740
5092.49, 0.162802
5097.5, 0.158673
5102.51, 0.154608
5107.54, 0.150860
5112.58, 0.147303
5117.62, 0.144000
5122.68, 0.140887
5127.75, 0.138156
5132.82, 0.135806
5137.91, 0.133710
5143.01, 0.131613
5148.12, 0.129771
5153.23, 0.128946
5158.36, 0.128120
5163.5, 0.127231
5168.65, 0.126659
5173.81, 0.126278
5178.98, 0.126087
5184.15, 0.126087
5189.34, 0.126278
5194.54, 0.126405
5199.75, 0.126595
5204.98, 0.127294
5210.21, 0.127485
5215.45, 0.128183
5220.7, 0.129771
5225.96, 0.130851
5231.23, 0.131677
5236.52, 0.132503
5241.81, 0.133710
5247.12, 0.135171
5252.44, 0.136504
5257.76, 0.137838
5263.1, 0.139236
5268.45, 0.140506
5273.81, 0.141523
5279.18, 0.142602
5284.56, 0.143428
5289.95, 0.143555
5295.36, 0.144190
5300.77, 0.144953
5306.2, 0.145143
5311.63, 0.145334
5317.08, 0.145207
5322.54, 0.144953
5328.01, 0.144508
5333.49, 0.143873
5338.98, 0.143047
5344.49, 0.141268
5350.0, 0.139363
5355.53, 0.138982
5361.07, 0.138537
5366.62, 0.137330
5372.18, 0.135742
5377.75, 0.134027
5383.34, 0.132249
5388.93, 0.130343
5394.54, 0.128310
5400.16, 0.126405
5405.79, 0.124372
5411.44, 0.122340
5417.09, 0.119418
5422.76, 0.116750
5428.43, 0.116623
5434.12, 0.115733
5439.83, 0.113764
5445.54, 0.111668
5451.26, 0.109572
5457.0, 0.106841
5462.75, 0.103538
5468.52, 0.101568
5474.29, 0.0999170
5480.08, 0.0982020
5485.88, 0.0978840
5491.69, 0.0981380
5497.51, 0.0989640
5503.35, 0.100616
5509.2, 0.103029
5515.06, 0.105634
5520.93, 0.108556
5526.82, 0.112113
5532.71, 0.115733
5538.63, 0.118909
5544.55, 0.121641
5550.49, 0.123737
5556.44, 0.126278
5562.4, 0.128628
5568.37, 0.130089
5574.36, 0.129644
5580.36, 0.129771
5586.37, 0.132058
5592.4, 0.133138
5598.44, 0.132503
5604.49, 0.131804
5610.56, 0.131296
5616.63, 0.130343
5622.73, 0.129708
5628.83, 0.128374
5634.95, 0.125516
5641.08, 0.122085
5647.23, 0.122085
5653.39, 0.121958
5659.56, 0.121704
5665.74, 0.121514
5671.94, 0.119608
5678.15, 0.119036
5684.38, 0.119672
5690.62, 0.119227
5696.87, 0.120116
5703.14, 0.120053
5709.42, 0.118846
5715.72, 0.119926
5722.03, 0.121450
5728.35, 0.122467
5734.69, 0.122657
5741.03, 0.122149
5747.4, 0.121260
5753.78, 0.122149
5760.17, 0.119418
5766.58, 0.115924
5773.0, 0.118338
5779.44, 0.119862
5785.88, 0.119799
5792.35, 0.119418
5798.83, 0.118528
5805.32, 0.117830
5811.83, 0.116051
5818.35, 0.112113
5824.89, 0.111224
5831.45, 0.113320
5838.01, 0.114844
5844.59, 0.115606
5851.19, 0.115225
5857.8, 0.114272
5864.43, 0.113955
5871.07, 0.114463
5877.73, 0.111160
5884.4, 0.112875
5891.09, 0.115924
5897.79, 0.117131
5904.5, 0.122594
5911.23, 0.125261
5917.98, 0.126278
5924.75, 0.126849
5931.53, 0.123673
5938.32, 0.123102
5945.13, 0.128755
5951.96, 0.131550
5958.8, 0.132376
5965.65, 0.130470
5972.53, 0.131296
5979.42, 0.132884
5986.32, 0.131550
5993.24, 0.132439
6000.18, 0.134916
6007.13, 0.134408
6014.1, 0.133328
6021.08, 0.134408
6028.09, 0.134980
6035.1, 0.133710
6042.14, 0.127485
6049.19, 0.122530
6056.25, 0.129327
6063.34, 0.132439
6070.44, 0.129835
6077.55, 0.130788
6084.69, 0.133646
6091.84, 0.133964
6099.0, 0.133138
6106.19, 0.130025
6113.39, 0.127167
6120.61, 0.130216
6127.84, 0.132947
6135.09, 0.132503
6142.36, 0.131995
6149.65, 0.131995
6156.95, 0.130915
6164.27, 0.131613
6171.61, 0.133011
6178.97, 0.130280
6186.34, 0.128564
6193.73, 0.131804
6201.14, 0.133011
6208.57, 0.132376
6216.01, 0.131804
6223.47, 0.131359
6230.95, 0.130597
6238.45, 0.129454
6245.97, 0.128437
6253.5, 0.127675
6261.06, 0.126849
6268.63, 0.126151
6276.21, 0.125516
6283.82, 0.124880
6291.45, 0.124118
6299.1, 0.123292
6306.76, 0.122212
6314.44, 0.121196
6322.14, 0.120497
6329.86, 0.119926
6337.6, 0.116940
6345.35, 0.114971
6353.13, 0.117766
6360.92, 0.117830
6368.74, 0.115352
6376.57, 0.115352
6384.43, 0.115543
6392.3, 0.114590
6400.19, 0.112240
6408.1, 0.105380
6416.03, 0.102521
6423.98, 0.106015
6431.95, 0.106841
6439.94, 0.106968
6447.95, 0.106523
6455.98, 0.105697
6464.03, 0.104617
6472.1, 0.102331
6480.19, 0.100044
6488.31, 0.0967410
6496.44, 0.0966140
6504.59, 0.100806
6512.76, 0.101886
6520.95, 0.100679
6529.16, 0.102013
6537.4, 0.102204
6545.65, 0.101060
6553.92, 0.0997900
6562.22, 0.0985200
6570.54, 0.0957250
6578.88, 0.0960420
6587.23, 0.0964230
6595.61, 0.0959790
6604.02, 0.0959150
6612.44, 0.0945180
6620.89, 0.0927390
6629.35, 0.0889280
6637.84, 0.0859430
6646.35, 0.0884200
6654.88, 0.0904520
6663.44, 0.0896270
6672.01, 0.0878480
6680.61, 0.0863870
6689.23, 0.0868950
6697.88, 0.0870220
6706.54, 0.0851170
6715.23, 0.0843550
6723.94, 0.0846090
6732.67, 0.0848630
6741.42, 0.0842910
6750.2, 0.0830210
6759.0, 0.0818140
6767.82, 0.0799720
6776.67, 0.0777480
6785.54, 0.0753350
6794.44, 0.0745090
6803.35, 0.0754620
6812.29, 0.0752080
6821.26, 0.0738100
6830.24, 0.0733020
6839.25, 0.0738100
6848.29, 0.0727940
6857.35, 0.0700630
6866.43, 0.0694270
6875.54, 0.0716510
6884.67, 0.0718410
6893.82, 0.0713960
6903.0, 0.0705710
6912.2, 0.0705710
6921.43, 0.0706340
6930.69, 0.0701900
6939.96, 0.0693640
6949.27, 0.0678390
6958.59, 0.0656800
6967.95, 0.0658070
6977.33, 0.0660610
6986.73, 0.0652350
6996.16, 0.0644730
7005.61, 0.0640920
7015.09, 0.0632660
7024.6, 0.0623770
7034.13, 0.0610430
7043.69, 0.0590740
7053.27, 0.0587560
7062.88, 0.0589470
7072.52, 0.0584380
7082.18, 0.0578030
7091.87, 0.0571680
7101.58, 0.0565960
7111.32, 0.0555800
7121.09, 0.0547540
7130.88, 0.0541190
7140.71, 0.0530390
7150.56, 0.0520860
7160.43, 0.0513880
7170.33, 0.0505620
7180.27, 0.0504980
7190.23, 0.0501170
7200.21, 0.0491010
7210.23, 0.0481480
7220.27, 0.0478940
7230.34, 0.0471320
7240.44, 0.0460520
7250.56, 0.0447180
7260.72, 0.0433210
7270.9, 0.0417330
7281.12, 0.0409700
7291.36, 0.0407800
7301.63, 0.0405260
7311.93, 0.0402080
7322.25, 0.0398270
7332.61, 0.0390650
7343.0, 0.0385570
7353.41, 0.0383030
7363.86, 0.0379210
7374.33, 0.0372860
7384.83, 0.0367780
7395.37, 0.0363330
7405.93, 0.0358250
7416.53, 0.0353170
7427.15, 0.0349360
7437.81, 0.0343640
7448.5, 0.0338560
7459.22, 0.0332840
7469.96, 0.0327130
7480.74, 0.0321410
7491.55, 0.0316960
7502.39, 0.0311880
7513.27, 0.0305530
7524.17, 0.0297910
7535.11, 0.0290920
7546.08, 0.0282030
7557.08, 0.0273770
7568.11, 0.0264880
7579.17, 0.0254720
7590.27, 0.0243920
7601.4, 0.0233750
7612.56, 0.0223590
7623.76, 0.0216600
7634.98, 0.0210250
7646.24, 0.0208350
7657.54, 0.0206440
7668.87, 0.0203900
7680.23, 0.0200090
7691.62, 0.0198820
7703.05, 0.0196910
7714.51, 0.0194370
7726.01, 0.0191200
7737.54, 0.0187380
7749.11, 0.0183570
7760.71, 0.0181030
7772.35, 0.0177860
7784.02, 0.0173410
7795.72, 0.0168330
7807.46, 0.0163880
7819.23, 0.0159440
7831.04, 0.0154990
7842.89, 0.0149910
7854.77, 0.0146100
7866.69, 0.0141010
7878.65, 0.0136570
7890.64, 0.0132120
7902.67, 0.0129580
7914.74, 0.0126400
7926.84, 0.0124500
7938.98, 0.0120690
7951.16, 0.0116240
7963.37, 0.0113700
7975.62, 0.0110520
7987.91, 0.0107350
8000.24, 0.0105440
8012.6, 0.0102270
8025.01, 0.00990900
8037.45, 0.00952800
8049.93, 0.00927400
8062.45, 0.00908300
8075.01, 0.00882900
8087.61, 0.00857500
8100.24, 0.00832100
8112.91, 0.00825800
8125.63, 0.00825800
8138.39, 0.00806700
8151.18, 0.00787600
8164.02, 0.00768600
8176.9, 0.00755900
8189.81, 0.00736800
8202.77, 0.00730500
8215.77, 0.00724100
8228.82, 0.00736800
8241.9, 0.00736800
8255.02, 0.00717800
8268.19, 0.00711400
8281.39, 0.00724100
8294.65, 0.00736800
8307.94, 0.00730500
8321.28, 0.00730500
8334.66, 0.00762200
8348.08, 0.00774900
8361.54, 0.00800400
8375.05, 0.00838500
8388.6, 0.00870200
8402.2, 0.00902000
8415.84, 0.00940100
8429.52, 0.00971900
8443.25, 0.0101630
8457.02, 0.0106710
8470.84, 0.0111800
8484.7, 0.0118150
8498.61, 0.0125770
8512.57, 0.0130850
8526.57, 0.0137200
8540.62, 0.0143560
8554.71, 0.0151180
8568.85, 0.0159440
8583.04, 0.0170230
8597.27, 0.0179760
8611.55, 0.0191830
8625.88, 0.0203900
8640.26, 0.0214700
8654.68, 0.0226130
8669.16, 0.0240110
8683.68, 0.0255350
8698.25, 0.0272500
8712.87, 0.0289020
8727.53, 0.0306800
8742.25, 0.0324590
8757.02, 0.0343010
8771.83, 0.0360790
8786.7, 0.0375400
8801.62, 0.0386200
8816.59, 0.0393190
8831.61, 0.0393820
8846.68, 0.0388740
8861.8, 0.0376670
8876.97, 0.0356980
8892.2, 0.0327760
8907.48, 0.0293460
8922.81, 0.0255990
8938.2, 0.0219140
8953.63, 0.0184210
8969.13, 0.0154990
8984.67, 0.0135300
9000.27, 0.0127040
9015.92, 0.0128310
9031.63, 0.0139740
9047.39, 0.0157530
9063.21, 0.0179130
9079.08, 0.0198180
9095.01, 0.0217240
9111.0, 0.0235660
9127.04, 0.0253440
9143.13, 0.0269960
9159.28, 0.0285200
9175.49, 0.0299810
9191.76, 0.0315060
9208.09, 0.0330940
9224.47, 0.0343010
9240.92, 0.0352540
9257.42, 0.0361430
9273.98, 0.0367780
9290.6, 0.0373500
9307.28, 0.0376040
9324.02, 0.0376670
9340.82, 0.0375400
9357.68, 0.0374130
9374.6, 0.0370320
9391.58, 0.0365880
9408.62, 0.0362060
9425.73, 0.0356980
9442.9, 0.0349360
9460.13, 0.0343010
9477.42, 0.0336020
9494.78, 0.0329030
9512.2, 0.0322050
9529.69, 0.0316330
9547.24, 0.0309340
9564.86, 0.0303630
9582.54, 0.0297910
9600.28, 0.0293460
9618.1, 0.0287750
9635.97, 0.0281390
9653.92, 0.0276310
9671.93, 0.0270600
9690.01, 0.0261700
9708.16, 0.0250900
9726.37, 0.0235020
9744.65, 0.0217240
9763.0, 0.0202630
9781.43, 0.0191830
9799.92, 0.0184840
9818.48, 0.0184210
9837.1, 0.0188020
9855.8, 0.0193740
9874.58, 0.0198180
9893.42, 0.0207080
9912.34, 0.0215970
9931.33, 0.0225500
9950.39, 0.0231210
9969.52, 0.0232480
9988.74, 0.0233120
10008.0, 0.0234390
10027.4, 0.0235020
10046.8, 0.0236290
10066.3, 0.0237560
10085.9, 0.0236930
10105.6, 0.0236290
10125.3, 0.0237560
10145.1, 0.0237560
10165.0, 0.0236930
10185.0, 0.0232480
10205.0, 0.0226130
10225.2, 0.0218510
10245.4, 0.0208980
10265.7, 0.0197550
10286.0, 0.0187380
10306.5, 0.0176590
10327.0, 0.0165790
10347.6, 0.0153720
10368.3, 0.0141650
10389.1, 0.0129580
10409.9, 0.0120050
10430.9, 0.0108620
10451.9, 0.00965500
10473.0, 0.00882900
10494.2, 0.00838500
10515.5, 0.00794000
10536.9, 0.00787600
10558.4, 0.00806700
10579.9, 0.00844800
10601.5, 0.00914700
10623.3, 0.00965500
10645.1, 0.00978200
10667.0, 0.00997300
10689.0, 0.0101000
10711.1, 0.0101630
10733.2, 0.0101000
10755.5, 0.00997300
10777.9, 0.0100360
10800.3, 0.0104810
10822.9, 0.0109250
10845.5, 0.0115610
10868.2, 0.0120690
10891.1, 0.0125130
10914.0, 0.0131490
10937.0, 0.0139740
10960.2, 0.0147370
10983.4, 0.0154990
11006.7, 0.0160070
11030.1, 0.0165790
11053.6, 0.0172770
11077.3, 0.0180400
11101.0, 0.0186110
11124.8, 0.0193100
11148.7, 0.0200720
11172.7, 0.0210250
11196.9, 0.0217870
11221.1, 0.0225500
11245.4, 0.0232480
11269.9, 0.0238200
11294.4, 0.0245190
11319.1, 0.0251540
11343.9, 0.0257260
11368.8, 0.0260430
11393.7, 0.0264240
11418.8, 0.0269960
11444.0, 0.0275680
11469.4, 0.0279490
11494.8, 0.0280760
11520.3, 0.0283300
11546.0, 0.0283930
11571.8, 0.0285840
11597.7, 0.0289020
11623.7, 0.0289020
11649.8, 0.0287110
11676.0, 0.0284570
11702.4, 0.0281390
11728.9, 0.0280120
11755.5, 0.0279490
11782.2, 0.0276950
11809.0, 0.0271230
11836.0, 0.0266780
11863.0, 0.0261700
11890.3, 0.0256620
11917.6, 0.0249630
11945.0, 0.0240740
11972.6, 0.0235020
12000.4, 0.0227400
12028.2, 0.0219140
12056.2, 0.0212160
12084.3, 0.0203900
12112.5, 0.0195010
12140.9, 0.0186110
12169.4, 0.0175950
12198.0, 0.0163880
12226.8, 0.0152450
12255.7, 0.0139110
12284.7, 0.0128310
12313.9, 0.0116240
12343.2, 0.0104810
12372.7, 0.00927400
12402.3, 0.00813100
12432.0, 0.00717800
12461.9, 0.00641600
12491.9, 0.00597100
12522.1, 0.00590700
12552.4, 0.00603400
12582.9, 0.00635200
12613.5, 0.00673300
12644.3, 0.00692400
12675.2, 0.00705100
12706.3, 0.00717800
12737.5, 0.00762200
12768.9, 0.00813100
12800.4, 0.00832100
12832.1, 0.00844800
12863.9, 0.00844800
12895.9, 0.00844800
12928.1, 0.00825800
12960.4, 0.00813100
12992.9, 0.00794000
13025.5, 0.00774900
13058.3, 0.00743200
13091.3, 0.00717800
13124.4, 0.00705100
13157.8, 0.00698700
13191.2, 0.00686000
13224.9, 0.00647900
13258.7, 0.00641600
13292.7, 0.00647900
13326.9, 0.00647900
13361.2, 0.00635200
13395.7, 0.00628800
13430.4, 0.00647900
13465.3, 0.00660600
13500.4, 0.00673300
13535.7, 0.00654300
13571.1, 0.00641600
13606.7, 0.00616100
13642.5, 0.00584400
13678.5, 0.00565300
13714.7, 0.00527200
13751.1, 0.00489100
13787.6, 0.00476400
13824.4, 0.00476400
13861.4, 0.00501800
13898.5, 0.00514500
13935.9, 0.00501800
13973.5, 0.00489100
14011.2, 0.00508200
14049.2, 0.00508200
14087.4, 0.00527200
14125.8, 0.00565300
14164.3, 0.00603400
14203.2, 0.00616100
14242.2, 0.00635200
14281.4, 0.00667000
14320.9, 0.00692400
14360.5, 0.00705100
14400.4, 0.00724100
14440.5, 0.00743200
14480.9, 0.00755900
14521.4, 0.00787600
14562.2, 0.00806700
14603.3, 0.00800400
14644.5, 0.00813100
14686.0, 0.00819400
14727.7, 0.00838500
14769.7, 0.00876600
14811.9, 0.00908300
14854.3, 0.00914700
14897.0, 0.00908300
14939.9, 0.00889300
14983.1, 0.00895600
15026.5, 0.00902000
15070.2, 0.00908300
15114.2, 0.00914700
15158.3, 0.00933700
15202.8, 0.00933700
15247.5, 0.00946400
15292.5, 0.00965500
15337.7, 0.00997300
15383.2, 0.0102270
15429.0, 0.0100360
15475.1, 0.00997300
15521.4, 0.0102900
15568.0, 0.0104810
15614.9, 0.0106710
15662.1, 0.0109250
15709.6, 0.0113700
15757.3, 0.0114340
15805.4, 0.0115610
15853.7, 0.0119420
15902.3, 0.0122590
15951.2, 0.0127680
16000.5, 0.0134030
16050.0, 0.0136570
16099.8, 0.0141650
16150.0, 0.0151180
16200.5, 0.0160710
16251.3, 0.0164520
16302.4, 0.0170230
16353.8, 0.0174040
16405.5, 0.0179760
16457.6, 0.0181030
16510.0, 0.0179760
16562.8, 0.0182300
16615.9, 0.0184210
16669.3, 0.0187380
16723.1, 0.0193740
16777.2, 0.0200720
16831.7, 0.0207710
16886.5, 0.0210250
16941.7, 0.0212160
16997.2, 0.0217870
17053.1, 0.0226130
17109.4, 0.0229940
17166.1, 0.0236290
17223.1, 0.0238200
17280.5, 0.0242010
17338.3, 0.0243920
17396.5, 0.0246460
17455.1, 0.0250900
17514.0, 0.0252170
17573.4, 0.0249000
17633.2, 0.0250900
17693.4, 0.0251540
17754.0, 0.0249000
17815.0, 0.0244550
17876.4, 0.0243920
17938.3, 0.0242650
18000.5, 0.0240110
18063.3, 0.0243280
18126.4, 0.0245190
18190.0, 0.0243280
18254.1, 0.0244550
18318.6, 0.0244550
18383.5, 0.0245190
18449.0, 0.0239470
18514.9, 0.0235660
18581.2, 0.0230580
18648.0, 0.0228040
18715.4, 0.0227400
18783.2, 0.0226130
18851.5, 0.0217870
18920.3, 0.0209620
18989.6, 0.0203900
19059.4, 0.0201360
19129.7, 0.0191200
19200.6, 0.0183570
19272.0, 0.0179130
19343.9, 0.0179130
19416.3, 0.0176590
19489.3, 0.0166420
19562.8, 0.0149910
19637.0, 0.0134030
19711.6, 0.0127680
19786.8, 0.0128950
19862.6, 0.0123230
19939.0, 0.0112430
20016.0, 0.0111160
20093.6, 0.0118780
20171.8, 0.0111160
20250.6, 0.00997300
20330.0, 0.00984600
20410.0, 0.0114340
20490.7, 0.0137840
20572.0, 0.0149270
20654.0, 0.0158800
20736.6, 0.0174680
20819.9, 0.0185480
20903.8, 0.0199450
20988.5, 0.0215970
21073.8, 0.0219780
21159.8, 0.0217240
21246.5, 0.0219140
21334.0, 0.0225500
21422.1, 0.0243280
21511.0, 0.0238840
21600.7, 0.0229940
21691.0, 0.0224860
21782.1, 0.0219780
21874.0, 0.0204530
21966.7, 0.0210250
22060.2, 0.0218510
22154.5, 0.0212790
22249.6, 0.0198820
22345.5, 0.0191200
22442.2, 0.0189290
22539.8, 0.0185480
22638.2, 0.0189290
22737.5, 0.0198820
22837.7, 0.0205170
22938.7, 0.0226770
23040.7, 0.0234390
23143.5, 0.0236290
23247.3, 0.0240110
23352.1, 0.0252170
23457.7, 0.0243280
23564.4, 0.0253440
23672.0, 0.0250900
23780.5, 0.0236290
23890.1, 0.0230580
24000.7, 0.0245820
24112.3, 0.0222960
24225.0, 0.0247090
24338.7, 0.0281390
24453.5, 0.0299810
