Database of Origin, USGS Spectral Database
Sample Description, See USGS database for additional info
Date Added,2017-07-03 06:06:55.863249

Data ID,USGS_hem14          
Sample ID, hematite_gds69.9618
Mineral Name, hematite
Material Class,Oxide

Wavelength
1464.04, 0.306584
1464.45, 0.306433
1464.86, 0.306333
1465.28, 0.306634
1465.69, 0.307086
1466.11, 0.306986
1466.52, 0.306584
1466.94, 0.306483
1467.35, 0.306534
1467.77, 0.306584
1468.18, 0.306835
1468.6, 0.306835
1469.02, 0.306835
1469.43, 0.306885
1469.85, 0.306785
1470.27, 0.306534
1470.68, 0.306433
1471.1, 0.306734
1471.52, 0.306835
1471.94, 0.306684
1472.35, 0.306885
1472.77, 0.307187
1473.19, 0.306986
1473.61, 0.306684
1474.03, 0.306534
1474.45, 0.306684
1474.87, 0.306785
1475.29, 0.306684
1475.71, 0.306835
1476.13, 0.306986
1476.55, 0.307086
1476.97, 0.307337
1477.39, 0.307287
1477.81, 0.306986
1478.23, 0.306835
1478.65, 0.307136
1479.07, 0.307136
1479.5, 0.307438
1479.92, 0.307588
1480.34, 0.307639
1480.76, 0.307488
1481.19, 0.307388
1481.61, 0.307588
1482.03, 0.307789
1482.46, 0.307588
1482.88, 0.307237
1483.31, 0.307187
1483.73, 0.307187
1484.16, 0.307588
1484.58, 0.307990
1485.01, 0.308041
1485.43, 0.307890
1485.86, 0.307538
1486.28, 0.307538
1486.71, 0.307990
1487.14, 0.308442
1487.56, 0.308643
1487.99, 0.308493
1488.42, 0.308392
1488.84, 0.308493
1489.27, 0.308342
1489.7, 0.308141
1490.13, 0.308392
1490.56, 0.308844
1490.98, 0.308844
1491.41, 0.308844
1491.84, 0.308744
1492.27, 0.308744
1492.7, 0.308794
1493.13, 0.308945
1493.56, 0.308945
1493.99, 0.309045
1494.42, 0.309246
1494.85, 0.309648
1495.29, 0.309698
1495.72, 0.309347
1496.15, 0.309397
1496.58, 0.309648
1497.01, 0.309598
1497.44, 0.309397
1497.88, 0.309749
1498.31, 0.309749
1498.74, 0.309598
1499.18, 0.309799
1499.61, 0.309749
1500.04, 0.309749
1500.48, 0.310100
1500.91, 0.310502
1501.35, 0.310351
1501.78, 0.310201
1502.22, 0.310201
1502.65, 0.310150
1503.09, 0.310301
1503.53, 0.310402
1503.96, 0.310301
1504.4, 0.310201
1504.83, 0.310150
1505.27, 0.310603
1505.71, 0.310954
1506.15, 0.311205
1506.58, 0.310904
1507.02, 0.310753
1507.46, 0.310803
1507.9, 0.310904
1508.34, 0.310904
1508.78, 0.311155
1509.21, 0.311306
1509.66, 0.311356
1510.09, 0.311507
1510.53, 0.311607
1510.97, 0.311607
1511.42, 0.311708
1511.86, 0.311758
1512.3, 0.311457
1512.74, 0.311507
1513.18, 0.311909
1513.62, 0.312110
1514.06, 0.312260
1514.51, 0.312110
1514.95, 0.312009
1515.39, 0.312009
1515.83, 0.312160
1516.28, 0.312411
1516.72, 0.312511
1517.16, 0.312612
1517.61, 0.312712
1518.05, 0.312612
1518.5, 0.312913
1518.94, 0.313165
1519.39, 0.312964
1519.83, 0.312763
1520.28, 0.312913
1520.73, 0.312964
1521.17, 0.312913
1521.62, 0.312913
1522.07, 0.313014
1522.51, 0.313265
1522.96, 0.313466
1523.41, 0.313466
1523.85, 0.313265
1524.3, 0.313215
1524.75, 0.313215
1525.2, 0.313315
1525.65, 0.313516
1526.1, 0.313717
1526.55, 0.313767
1527.0, 0.313918
1527.45, 0.314019
1527.9, 0.314119
1528.35, 0.314270
1528.8, 0.314019
1529.25, 0.313818
1529.7, 0.314169
1530.15, 0.314521
1530.6, 0.314320
1531.05, 0.314169
1531.51, 0.314370
1531.96, 0.314923
1532.41, 0.314873
1532.87, 0.314772
1533.32, 0.314923
1533.77, 0.314973
1534.23, 0.315073
1534.68, 0.315475
1535.14, 0.315576
1535.59, 0.315425
1536.05, 0.315425
1536.5, 0.315626
1536.96, 0.315877
1537.41, 0.315877
1537.87, 0.315827
1538.32, 0.315978
1538.78, 0.316179
1539.24, 0.316380
1539.7, 0.316329
1540.15, 0.316229
1540.61, 0.316279
1541.07, 0.316430
1541.53, 0.316681
1541.98, 0.316731
1542.44, 0.316882
1542.9, 0.317083
1543.36, 0.316982
1543.82, 0.317083
1544.28, 0.317083
1544.74, 0.317284
1545.2, 0.317535
1545.66, 0.317635
1546.12, 0.317585
1546.59, 0.317485
1547.05, 0.317887
1547.51, 0.318188
1547.97, 0.318389
1548.43, 0.318590
1548.9, 0.318489
1549.36, 0.318339
1549.82, 0.318489
1550.29, 0.318741
1550.75, 0.318690
1551.21, 0.318741
1551.68, 0.318942
1552.14, 0.319142
1552.61, 0.319092
1553.07, 0.318992
1553.54, 0.319394
1554.0, 0.319846
1554.47, 0.319745
1554.93, 0.319695
1555.4, 0.319796
1555.87, 0.320097
1556.34, 0.320348
1556.8, 0.320549
1557.27, 0.320700
1557.74, 0.320599
1558.21, 0.320398
1558.68, 0.320549
1559.14, 0.320800
1559.61, 0.321102
1560.08, 0.321102
1560.55, 0.321102
1561.02, 0.321051
1561.49, 0.321102
1561.96, 0.321202
1562.43, 0.321403
1562.9, 0.321604
1563.38, 0.321654
1563.85, 0.321704
1564.32, 0.321554
1564.79, 0.321654
1565.26, 0.322307
1565.74, 0.322508
1566.21, 0.322558
1566.68, 0.322558
1567.16, 0.322609
1567.63, 0.322408
1568.1, 0.322508
1568.58, 0.322910
1569.05, 0.323011
1569.53, 0.322759
1570.0, 0.322910
1570.48, 0.323262
1570.96, 0.323563
1571.43, 0.323664
1571.91, 0.323714
1572.39, 0.323814
1572.86, 0.323814
1573.34, 0.323865
1573.82, 0.324015
1574.3, 0.324266
1574.77, 0.324367
1575.25, 0.324266
1575.73, 0.324266
1576.21, 0.324417
1576.69, 0.324568
1577.17, 0.324719
1577.65, 0.324668
1578.13, 0.324467
1578.61, 0.324719
1579.09, 0.325221
1579.57, 0.325472
1580.05, 0.325020
1580.54, 0.324970
1581.02, 0.325472
1581.5, 0.325673
1581.98, 0.325773
1582.47, 0.325723
1582.95, 0.325573
1583.43, 0.325673
1583.92, 0.325874
1584.4, 0.325974
1584.88, 0.325924
1585.37, 0.325974
1585.85, 0.326175
1586.34, 0.326276
1586.82, 0.326326
1587.31, 0.326477
1587.8, 0.326477
1588.28, 0.326678
1588.77, 0.326728
1589.26, 0.326879
1589.74, 0.326979
1590.23, 0.327180
1590.72, 0.327281
1591.21, 0.327281
1591.7, 0.327381
1592.19, 0.327481
1592.67, 0.327532
1593.16, 0.327682
1593.65, 0.327833
1594.14, 0.327934
1594.63, 0.328034
1595.12, 0.328034
1595.61, 0.328335
1596.11, 0.328536
1596.6, 0.328486
1597.09, 0.328737
1597.58, 0.328989
1598.08, 0.329039
1598.57, 0.328888
1599.06, 0.329139
1599.55, 0.329340
1600.05, 0.329390
1600.54, 0.329290
1601.04, 0.329541
1601.53, 0.329692
1602.03, 0.329893
1602.52, 0.329943
1603.02, 0.329943
1603.51, 0.330144
1604.01, 0.330295
1604.5, 0.330345
1605.0, 0.330596
1605.5, 0.330496
1606.0, 0.330546
1606.49, 0.330697
1606.99, 0.330948
1607.49, 0.331048
1607.99, 0.331249
1608.49, 0.331500
1608.99, 0.331500
1609.49, 0.331551
1609.99, 0.331701
1610.49, 0.331802
1610.99, 0.331952
1611.49, 0.332053
1611.99, 0.332103
1612.49, 0.332204
1612.99, 0.332204
1613.49, 0.332304
1614.0, 0.332656
1614.5, 0.332806
1615.0, 0.332756
1615.51, 0.332907
1616.01, 0.333108
1616.51, 0.333259
1617.02, 0.333459
1617.52, 0.333761
1618.03, 0.333962
1618.53, 0.333962
1619.04, 0.333962
1619.54, 0.333962
1620.05, 0.334163
1620.55, 0.334414
1621.06, 0.334615
1621.57, 0.334665
1622.08, 0.334615
1622.58, 0.334766
1623.09, 0.335067
1623.6, 0.335218
1624.11, 0.335268
1624.62, 0.335318
1625.13, 0.335368
1625.64, 0.335368
1626.15, 0.335569
1626.66, 0.336021
1627.17, 0.336222
1627.68, 0.335921
1628.19, 0.336072
1628.7, 0.336172
1629.21, 0.336273
1629.72, 0.336323
1630.24, 0.336373
1630.75, 0.336674
1631.26, 0.336775
1631.78, 0.336825
1632.29, 0.337026
1632.8, 0.337127
1633.32, 0.337227
1633.83, 0.337528
1634.35, 0.337880
1634.86, 0.337679
1635.38, 0.337729
1635.9, 0.338131
1636.41, 0.338282
1636.93, 0.338232
1637.45, 0.338382
1637.96, 0.338483
1638.48, 0.338634
1639.0, 0.338684
1639.52, 0.338684
1640.04, 0.338734
1640.56, 0.338885
1641.08, 0.339086
1641.59, 0.338935
1642.11, 0.338885
1642.63, 0.339186
1643.16, 0.339538
1643.68, 0.339739
1644.2, 0.339739
1644.72, 0.339789
1645.24, 0.339739
1645.76, 0.339689
1646.29, 0.339839
1646.81, 0.340141
1647.33, 0.340141
1647.86, 0.340241
1648.38, 0.340442
1648.9, 0.340593
1649.43, 0.340744
1649.95, 0.340844
1650.48, 0.340794
1651.0, 0.340894
1651.53, 0.340894
1652.06, 0.340844
1652.58, 0.340995
1653.11, 0.341246
1653.64, 0.341447
1654.17, 0.341397
1654.69, 0.341296
1655.22, 0.341145
1655.75, 0.341497
1656.28, 0.341748
1656.81, 0.341949
1657.34, 0.342150
1657.87, 0.342150
1658.4, 0.342150
1658.93, 0.342251
1659.46, 0.342452
1659.99, 0.342452
1660.52, 0.342602
1661.05, 0.342753
1661.59, 0.343004
1662.12, 0.343105
1662.65, 0.343205
1663.19, 0.343255
1663.72, 0.343406
1664.26, 0.343305
1664.79, 0.343456
1665.32, 0.343657
1665.86, 0.343657
1666.39, 0.343808
1666.93, 0.344109
1667.47, 0.344159
1668.0, 0.344260
1668.54, 0.344310
1669.08, 0.344461
1669.61, 0.344612
1670.15, 0.344461
1670.69, 0.344561
1671.23, 0.344762
1671.77, 0.344963
1672.31, 0.345214
1672.85, 0.345415
1673.39, 0.345566
1673.93, 0.345566
1674.47, 0.345667
1675.01, 0.345616
1675.55, 0.345616
1676.09, 0.345667
1676.64, 0.345867
1677.18, 0.346119
1677.72, 0.346169
1678.26, 0.346320
1678.81, 0.346571
1679.35, 0.346621
1679.89, 0.347023
1680.44, 0.346973
1680.98, 0.346872
1681.53, 0.347023
1682.07, 0.347274
1682.62, 0.347324
1683.17, 0.347425
1683.71, 0.347525
1684.26, 0.347676
1684.81, 0.347776
1685.36, 0.347927
1685.9, 0.348078
1686.45, 0.348279
1687.0, 0.348379
1687.55, 0.348480
1688.1, 0.348530
1688.65, 0.348530
1689.2, 0.348781
1689.75, 0.348982
1690.3, 0.349082
1690.85, 0.349133
1691.41, 0.349283
1691.96, 0.349585
1692.51, 0.349635
1693.06, 0.349685
1693.61, 0.349836
1694.17, 0.349937
1694.72, 0.349987
1695.28, 0.350188
1695.83, 0.350188
1696.39, 0.350288
1696.94, 0.350539
1697.5, 0.350539
1698.05, 0.350590
1698.61, 0.350841
1699.17, 0.351092
1699.72, 0.351142
1700.28, 0.351142
1700.84, 0.351243
1701.4, 0.351293
1701.95, 0.351544
1702.51, 0.351695
1703.07, 0.351745
1703.63, 0.351896
1704.19, 0.351996
1704.75, 0.351845
1705.31, 0.351946
1705.88, 0.352097
1706.44, 0.352147
1707.0, 0.352298
1707.56, 0.352298
1708.12, 0.352549
1708.69, 0.352699
1709.25, 0.352649
1709.81, 0.352800
1710.38, 0.353101
1710.94, 0.353202
1711.51, 0.353202
1712.07, 0.353202
1712.64, 0.353453
1713.2, 0.353403
1713.77, 0.353403
1714.34, 0.353503
1714.9, 0.353654
1715.47, 0.353704
1716.04, 0.353855
1716.61, 0.354056
1717.18, 0.354206
1717.74, 0.354257
1718.31, 0.354206
1718.88, 0.354206
1719.45, 0.354407
1720.02, 0.354558
1720.59, 0.354709
1721.17, 0.354709
1721.74, 0.354759
1722.31, 0.354960
1722.88, 0.355060
1723.45, 0.355261
1724.03, 0.355312
1724.6, 0.355312
1725.18, 0.355312
1725.75, 0.355261
1726.33, 0.355462
1726.9, 0.355613
1727.48, 0.355864
1728.05, 0.355914
1728.63, 0.355965
1729.2, 0.356216
1729.78, 0.356367
1730.36, 0.356216
1730.94, 0.356367
1731.51, 0.356517
1732.09, 0.356568
1732.67, 0.356819
1733.25, 0.356919
1733.83, 0.357020
1734.41, 0.356919
1734.99, 0.356969
1735.57, 0.357321
1736.15, 0.357572
1736.73, 0.357622
1737.32, 0.357572
1737.9, 0.357823
1738.48, 0.358075
1739.07, 0.358024
1739.65, 0.357974
1740.23, 0.358125
1740.82, 0.358175
1741.4, 0.358225
1741.99, 0.358476
1742.57, 0.358778
1743.16, 0.358728
1743.74, 0.358728
1744.33, 0.358828
1744.92, 0.358878
1745.51, 0.358828
1746.09, 0.359029
1746.68, 0.359431
1747.27, 0.359582
1747.86, 0.359632
1748.45, 0.359632
1749.04, 0.359732
1749.63, 0.359833
1750.22, 0.359983
1750.81, 0.360235
1751.4, 0.360486
1751.99, 0.360536
1752.59, 0.360586
1753.18, 0.360737
1753.77, 0.360938
1754.37, 0.361089
1754.96, 0.361089
1755.56, 0.361139
1756.15, 0.361189
1756.74, 0.361239
1757.34, 0.361541
1757.94, 0.361792
1758.53, 0.361792
1759.13, 0.361641
1759.73, 0.361742
1760.32, 0.361943
1760.92, 0.362144
1761.52, 0.362244
1762.12, 0.362294
1762.72, 0.362294
1763.32, 0.362495
1763.92, 0.362646
1764.52, 0.362797
1765.12, 0.362897
1765.72, 0.363048
1766.32, 0.362897
1766.92, 0.363098
1767.53, 0.363349
1768.13, 0.363651
1768.73, 0.363801
1769.34, 0.363852
1769.94, 0.363902
1770.55, 0.364053
1771.15, 0.364203
1771.76, 0.364354
1772.36, 0.364354
1772.97, 0.364354
1773.57, 0.364555
1774.18, 0.364706
1774.79, 0.364907
1775.4, 0.364756
1776.0, 0.364806
1776.61, 0.364957
1777.22, 0.364957
1777.83, 0.365158
1778.44, 0.365208
1779.05, 0.365258
1779.66, 0.365308
1780.27, 0.365610
1780.88, 0.365861
1781.5, 0.365911
1782.11, 0.365861
1782.72, 0.365911
1783.33, 0.365911
1783.95, 0.366012
1784.56, 0.366263
1785.18, 0.366564
1785.79, 0.366665
1786.41, 0.366665
1787.02, 0.366765
1787.64, 0.366866
1788.26, 0.366916
1788.87, 0.367067
1789.49, 0.367217
1790.11, 0.367318
1790.73, 0.367217
1791.35, 0.367167
1791.96, 0.367268
1792.58, 0.367418
1793.21, 0.367519
1793.83, 0.367418
1794.45, 0.367368
1795.07, 0.367469
1795.69, 0.367519
1796.31, 0.367820
1796.93, 0.368021
1797.56, 0.368172
1798.18, 0.368323
1798.8, 0.368172
1799.43, 0.368222
1800.05, 0.368323
1800.68, 0.368373
1801.3, 0.368373
1801.93, 0.368473
1802.56, 0.368775
1803.18, 0.368925
1803.81, 0.368875
1804.44, 0.368925
1805.07, 0.369026
1805.7, 0.369227
1806.33, 0.369327
1806.95, 0.369227
1807.58, 0.369428
1808.22, 0.369629
1808.85, 0.369629
1809.48, 0.369679
1810.11, 0.369930
1810.74, 0.369930
1811.38, 0.370131
1812.01, 0.370231
1812.64, 0.370181
1813.28, 0.370181
1813.91, 0.370332
1814.55, 0.370533
1815.18, 0.370784
1815.82, 0.370834
1816.45, 0.370784
1817.09, 0.370834
1817.73, 0.370985
1818.36, 0.371236
1819.0, 0.371337
1819.64, 0.371236
1820.28, 0.371437
1820.92, 0.371638
1821.56, 0.371638
1822.2, 0.371688
1822.84, 0.371738
1823.48, 0.371939
1824.12, 0.372191
1824.76, 0.372492
1825.41, 0.372492
1826.05, 0.372392
1826.69, 0.372492
1827.34, 0.372643
1827.98, 0.372592
1828.63, 0.372542
1829.27, 0.372693
1829.92, 0.372844
1830.56, 0.373045
1831.21, 0.373195
1831.86, 0.373446
1832.5, 0.373597
1833.15, 0.373698
1833.8, 0.373547
1834.45, 0.373597
1835.1, 0.373748
1835.75, 0.373597
1836.4, 0.373698
1837.05, 0.373848
1837.7, 0.374150
1838.35, 0.374501
1839.01, 0.374552
1839.66, 0.374753
1840.31, 0.374753
1840.96, 0.374753
1841.62, 0.374903
1842.27, 0.375205
1842.93, 0.375305
1843.58, 0.375355
1844.24, 0.375456
1844.9, 0.375757
1845.55, 0.375707
1846.21, 0.375607
1846.87, 0.375707
1847.53, 0.376008
1848.18, 0.376159
1848.84, 0.376310
1849.5, 0.376310
1850.16, 0.376260
1850.82, 0.376410
1851.48, 0.376661
1852.14, 0.376762
1852.81, 0.376762
1853.47, 0.376913
1854.13, 0.377415
1854.8, 0.377465
1855.46, 0.377114
1856.12, 0.377164
1856.79, 0.377415
1857.45, 0.377716
1858.12, 0.377767
1858.79, 0.377716
1859.45, 0.377767
1860.12, 0.377968
1860.79, 0.378219
1861.46, 0.378219
1862.12, 0.378219
1862.79, 0.378470
1863.46, 0.378671
1864.13, 0.378771
1864.8, 0.378721
1865.48, 0.378671
1866.15, 0.378721
1866.82, 0.378771
1867.49, 0.378822
1868.16, 0.379073
1868.84, 0.379123
1869.51, 0.378922
1870.19, 0.378822
1870.86, 0.378872
1871.54, 0.379123
1872.21, 0.379223
1872.89, 0.379374
1873.56, 0.379475
1874.24, 0.379374
1874.92, 0.379575
1875.6, 0.379726
1876.28, 0.379676
1876.96, 0.379826
1877.64, 0.379876
1878.32, 0.379776
1879.0, 0.379826
1879.68, 0.380077
1880.36, 0.380379
1881.04, 0.380530
1881.73, 0.380429
1882.41, 0.380379
1883.09, 0.380329
1883.78, 0.380329
1884.46, 0.380429
1885.15, 0.380580
1885.83, 0.380831
1886.52, 0.380831
1887.21, 0.380781
1887.89, 0.380931
1888.58, 0.381082
1889.27, 0.381082
1889.96, 0.380982
1890.65, 0.380881
1891.34, 0.381082
1892.03, 0.381183
1892.72, 0.381032
1893.41, 0.381082
1894.1, 0.381283
1894.79, 0.381484
1895.49, 0.381584
1896.18, 0.381635
1896.87, 0.381584
1897.57, 0.381534
1898.26, 0.381635
1898.96, 0.381584
1899.65, 0.381584
1900.35, 0.381735
1901.05, 0.381936
1901.74, 0.381936
1902.44, 0.381986
1903.14, 0.382037
1903.84, 0.382037
1904.54, 0.382087
1905.24, 0.382187
1905.94, 0.382238
1906.64, 0.382439
1907.34, 0.382690
1908.04, 0.382639
1908.75, 0.382639
1909.45, 0.382790
1910.15, 0.382941
1910.86, 0.382991
1911.56, 0.382941
1912.27, 0.382891
1912.97, 0.383142
1913.68, 0.383644
1914.39, 0.383795
1915.09, 0.383694
1915.8, 0.383745
1916.51, 0.383795
1917.22, 0.383745
1917.93, 0.383996
1918.64, 0.384398
1919.35, 0.384548
1920.06, 0.384649
1920.77, 0.384850
1921.48, 0.385000
1922.19, 0.385151
1922.91, 0.385302
1923.62, 0.385503
1924.33, 0.385503
1925.05, 0.385553
1925.76, 0.385854
1926.48, 0.385754
1927.19, 0.385804
1927.91, 0.385854
1928.63, 0.386156
1929.35, 0.386357
1930.07, 0.386357
1930.78, 0.386407
1931.5, 0.386608
1932.22, 0.386909
1932.94, 0.386960
1933.66, 0.387060
1934.39, 0.387311
1935.11, 0.387362
1935.83, 0.387412
1936.55, 0.387512
1937.28, 0.387562
1938.0, 0.387713
1938.73, 0.387814
1939.45, 0.387964
1940.18, 0.388015
1940.9, 0.388316
1941.63, 0.388668
1942.36, 0.388668
1943.09, 0.388668
1943.81, 0.388768
1944.54, 0.388969
1945.27, 0.389220
1946.0, 0.389220
1946.73, 0.389371
1947.47, 0.389572
1948.2, 0.389471
1948.93, 0.389421
1949.66, 0.389572
1950.4, 0.389723
1951.13, 0.389723
1951.86, 0.389773
1952.6, 0.389873
1953.34, 0.390124
1954.07, 0.390225
1954.81, 0.390376
1955.55, 0.390476
1956.29, 0.390325
1957.02, 0.390275
1957.76, 0.390526
1958.5, 0.390828
1959.24, 0.390777
1959.98, 0.390627
1960.72, 0.390727
1961.47, 0.390777
1962.21, 0.391029
1962.95, 0.391179
1963.7, 0.391230
1964.44, 0.391280
1965.18, 0.391380
1965.93, 0.391632
1966.67, 0.391632
1967.42, 0.391682
1968.17, 0.391632
1968.92, 0.391682
1969.66, 0.391782
1970.41, 0.391983
1971.16, 0.392184
1971.91, 0.392285
1972.66, 0.392385
1973.41, 0.392335
1974.16, 0.392385
1974.92, 0.392586
1975.67, 0.392686
1976.42, 0.392737
1977.18, 0.392837
1977.93, 0.392837
1978.69, 0.392837
1979.44, 0.392837
1980.2, 0.393038
1980.95, 0.393239
1981.71, 0.393239
1982.47, 0.393339
1983.23, 0.393741
1983.99, 0.393741
1984.74, 0.393591
1985.51, 0.393741
1986.27, 0.393842
1987.03, 0.393892
1987.79, 0.394143
1988.55, 0.394344
1989.32, 0.394394
1990.08, 0.394445
1990.84, 0.394595
1991.61, 0.394646
1992.37, 0.394897
1993.14, 0.394897
1993.9, 0.394997
1994.67, 0.395148
1995.44, 0.395198
1996.21, 0.395248
1996.98, 0.395248
1997.75, 0.395449
1998.52, 0.395600
1999.29, 0.395751
2000.06, 0.395901
2000.83, 0.396002
2001.6, 0.396002
2002.38, 0.396052
2003.15, 0.396203
2003.93, 0.396504
2004.7, 0.396605
2005.48, 0.396605
2006.25, 0.396554
2007.03, 0.396956
2007.81, 0.397308
2008.58, 0.397358
2009.36, 0.397308
2010.14, 0.397358
2010.92, 0.397308
2011.7, 0.397409
2012.48, 0.397760
2013.26, 0.398062
2014.05, 0.398162
2014.83, 0.398262
2015.61, 0.398413
2016.4, 0.398514
2017.18, 0.398664
2017.97, 0.398765
2018.75, 0.398916
2019.54, 0.399016
2020.32, 0.398966
2021.11, 0.399066
2021.9, 0.399317
2022.69, 0.399719
2023.48, 0.399770
2024.27, 0.399719
2025.06, 0.399920
2025.85, 0.400171
2026.64, 0.400322
2027.44, 0.400222
2028.23, 0.400322
2029.02, 0.400573
2029.82, 0.400624
2030.61, 0.400724
2031.41, 0.400774
2032.2, 0.400824
2033.0, 0.401025
2033.8, 0.401277
2034.6, 0.401427
2035.4, 0.401427
2036.2, 0.401427
2037.0, 0.401578
2037.8, 0.401779
2038.6, 0.401829
2039.4, 0.401829
2040.2, 0.402030
2041.01, 0.402131
2041.81, 0.402332
2042.61, 0.402432
2043.42, 0.402482
2044.22, 0.402583
2045.03, 0.402733
2045.84, 0.402884
2046.65, 0.402834
2047.46, 0.402884
2048.26, 0.403186
2049.07, 0.403286
2049.88, 0.403336
2050.69, 0.403537
2051.51, 0.403487
2052.32, 0.403537
2053.13, 0.403788
2053.94, 0.403788
2054.76, 0.403738
2055.57, 0.403839
2056.39, 0.404040
2057.2, 0.404240
2058.02, 0.404391
2058.84, 0.404391
2059.66, 0.404441
2060.48, 0.404642
2061.29, 0.404542
2062.11, 0.404441
2062.94, 0.404592
2063.76, 0.404793
2064.58, 0.404944
2065.4, 0.404743
2066.22, 0.404743
2067.05, 0.404944
2067.87, 0.405044
2068.7, 0.405245
2069.52, 0.405295
2070.35, 0.405295
2071.18, 0.405295
2072.0, 0.405446
2072.83, 0.405547
2073.66, 0.405496
2074.49, 0.405547
2075.32, 0.405697
2076.15, 0.405748
2076.98, 0.405898
2077.82, 0.405999
2078.65, 0.405898
2079.48, 0.406049
2080.32, 0.406200
2081.15, 0.406250
2081.99, 0.406200
2082.83, 0.406300
2083.66, 0.406501
2084.5, 0.406602
2085.34, 0.406602
2086.18, 0.406551
2087.02, 0.406602
2087.86, 0.406802
2088.7, 0.406853
2089.54, 0.406953
2090.39, 0.407104
2091.23, 0.407104
2092.07, 0.407154
2092.92, 0.407104
2093.76, 0.407255
2094.61, 0.407255
2095.45, 0.407355
2096.3, 0.407556
2097.15, 0.407656
2098.0, 0.407556
2098.85, 0.407656
2099.7, 0.408008
2100.55, 0.408209
2101.4, 0.408209
2102.25, 0.408360
2103.1, 0.408561
2103.96, 0.408611
2104.81, 0.408561
2105.67, 0.408762
2106.52, 0.408862
2107.38, 0.408963
2108.24, 0.409013
2109.09, 0.409063
2109.95, 0.409163
2110.81, 0.409364
2111.67, 0.409264
2112.53, 0.409314
2113.39, 0.409565
2114.25, 0.409716
2115.12, 0.409766
2115.98, 0.410017
2116.84, 0.410269
2117.71, 0.410269
2118.58, 0.410419
2119.44, 0.410470
2120.31, 0.410620
2121.18, 0.410721
2122.04, 0.410821
2122.91, 0.411022
2123.78, 0.411123
2124.65, 0.411223
2125.52, 0.411474
2126.4, 0.411625
2127.27, 0.411725
2128.14, 0.411725
2129.02, 0.411876
2129.89, 0.412127
2130.77, 0.412228
2131.64, 0.412429
2132.52, 0.412579
2133.4, 0.412630
2134.27, 0.412579
2135.15, 0.412630
2136.03, 0.412780
2136.91, 0.412981
2137.79, 0.413082
2138.68, 0.413182
2139.56, 0.413534
2140.44, 0.413685
2141.33, 0.413534
2142.21, 0.413634
2143.1, 0.413936
2143.99, 0.414137
2144.87, 0.413986
2145.76, 0.414086
2146.65, 0.414237
2147.54, 0.414438
2148.43, 0.414689
2149.32, 0.414740
2150.21, 0.414790
2151.1, 0.414991
2151.99, 0.414941
2152.89, 0.415091
2153.78, 0.415242
2154.68, 0.415292
2155.57, 0.415292
2156.47, 0.415393
2157.37, 0.415443
2158.27, 0.415594
2159.16, 0.415594
2160.06, 0.415694
2160.96, 0.415794
2161.86, 0.415945
2162.77, 0.416146
2163.67, 0.416196
2164.57, 0.416146
2165.48, 0.416297
2166.38, 0.416297
2167.29, 0.416297
2168.2, 0.416397
2169.1, 0.416598
2170.01, 0.416598
2170.92, 0.416598
2171.83, 0.416649
2172.74, 0.416699
2173.65, 0.416849
2174.56, 0.417000
2175.47, 0.417000
2176.39, 0.417050
2177.3, 0.417101
2178.22, 0.417201
2179.13, 0.417302
2180.05, 0.417302
2180.96, 0.417402
2181.88, 0.417452
2182.8, 0.417553
2183.72, 0.417553
2184.64, 0.417502
2185.56, 0.417653
2186.48, 0.417603
2187.41, 0.417754
2188.33, 0.417854
2189.25, 0.417904
2190.18, 0.417854
2191.1, 0.417854
2192.03, 0.417854
2192.96, 0.417904
2193.89, 0.418005
2194.82, 0.418155
2195.74, 0.418155
2196.68, 0.418256
2197.61, 0.418306
2198.54, 0.418356
2199.47, 0.418407
2200.4, 0.418608
2201.34, 0.418658
2202.28, 0.418708
2203.21, 0.418708
2204.15, 0.418658
2205.08, 0.418708
2206.02, 0.418809
2206.96, 0.418859
2207.9, 0.418909
2208.84, 0.418859
2209.78, 0.418959
2210.73, 0.419160
2211.67, 0.419261
2212.61, 0.419311
2213.56, 0.419462
2214.5, 0.419411
2215.45, 0.419462
2216.4, 0.419663
2217.35, 0.419813
2218.3, 0.419863
2219.24, 0.420064
2220.2, 0.420215
2221.15, 0.420115
2222.1, 0.420115
2223.05, 0.420215
2224.0, 0.420416
2224.96, 0.420667
2225.91, 0.420768
2226.87, 0.420768
2227.83, 0.420818
2228.79, 0.421019
2229.74, 0.421119
2230.7, 0.421170
2231.66, 0.421119
2232.63, 0.421270
2233.59, 0.421521
2234.55, 0.421672
2235.51, 0.421722
2236.48, 0.421923
2237.44, 0.422124
2238.41, 0.422124
2239.38, 0.422124
2240.34, 0.422325
2241.31, 0.422476
2242.28, 0.422626
2243.25, 0.422576
2244.22, 0.422727
2245.19, 0.423028
2246.17, 0.423229
2247.14, 0.423229
2248.12, 0.423179
2249.09, 0.423279
2250.07, 0.423430
2251.04, 0.423531
2252.02, 0.423631
2253.0, 0.423732
2253.98, 0.423882
2254.96, 0.423882
2255.94, 0.424033
2256.92, 0.424184
2257.91, 0.424284
2258.89, 0.424334
2259.88, 0.424334
2260.86, 0.424435
2261.85, 0.424686
2262.83, 0.424837
2263.82, 0.424987
2264.81, 0.425138
2265.8, 0.425339
2266.79, 0.425188
2267.78, 0.425188
2268.78, 0.425339
2269.77, 0.425440
2270.76, 0.425590
2271.76, 0.425842
2272.75, 0.425892
2273.75, 0.425992
2274.75, 0.426042
2275.75, 0.426193
2276.75, 0.426294
2277.75, 0.426243
2278.75, 0.426243
2279.75, 0.426545
2280.75, 0.426746
2281.76, 0.426846
2282.76, 0.426746
2283.77, 0.426846
2284.77, 0.427047
2285.78, 0.427097
2286.79, 0.427198
2287.8, 0.427248
2288.81, 0.427248
2289.82, 0.427298
2290.83, 0.427298
2291.84, 0.427499
2292.86, 0.427550
2293.87, 0.427499
2294.89, 0.427349
2295.91, 0.427449
2296.92, 0.427550
2297.94, 0.427600
2298.96, 0.427650
2299.98, 0.427851
2301.0, 0.427851
2302.02, 0.427750
2303.04, 0.427700
2304.07, 0.427851
2305.09, 0.427801
2306.12, 0.427851
2307.15, 0.428052
2308.17, 0.428102
2309.2, 0.428253
2310.23, 0.428253
2311.26, 0.428203
2312.29, 0.428040
2313.32, 0.428040
2314.35, 0.428094
2315.39, 0.428473
2316.42, 0.428690
2317.46, 0.428744
2318.5, 0.428798
2319.53, 0.428527
2320.57, 0.428798
2321.61, 0.429231
2322.65, 0.429501
2323.69, 0.429555
2324.73, 0.429555
2325.78, 0.429447
2326.82, 0.429501
2327.86, 0.429664
2328.91, 0.429718
2329.96, 0.429555
2331.01, 0.429664
2332.05, 0.429880
2333.1, 0.429772
2334.15, 0.429988
2335.21, 0.429826
2336.26, 0.430097
2337.31, 0.430421
2338.36, 0.430313
2339.42, 0.430313
2340.48, 0.430584
2341.53, 0.430692
2342.59, 0.430962
2343.65, 0.431016
2344.71, 0.431016
2345.77, 0.431449
2346.83, 0.431666
2347.9, 0.431449
2348.96, 0.431558
2350.02, 0.431503
2351.09, 0.431395
2352.16, 0.431666
2353.23, 0.431666
2354.29, 0.431558
2355.36, 0.431612
2356.43, 0.431882
2357.51, 0.431774
2358.58, 0.431882
2359.65, 0.431990
2360.73, 0.432153
2361.8, 0.432261
2362.88, 0.432532
2363.96, 0.432694
2365.03, 0.432261
2366.11, 0.432315
2367.19, 0.432640
2368.27, 0.432640
2369.36, 0.432586
2370.44, 0.432532
2371.53, 0.432802
2372.61, 0.433019
2373.7, 0.433127
2374.78, 0.433289
2375.87, 0.433397
2376.96, 0.433668
2378.05, 0.433776
2379.14, 0.433722
2380.24, 0.433560
2381.33, 0.433560
2382.42, 0.433560
2383.52, 0.433722
2384.61, 0.433830
2385.71, 0.433993
2386.81, 0.434101
2387.91, 0.434263
2389.01, 0.434534
2390.11, 0.434155
2391.22, 0.434101
2392.32, 0.434534
2393.42, 0.434750
2394.53, 0.434913
2395.64, 0.434967
2396.74, 0.434696
2397.85, 0.435021
2398.96, 0.435129
2400.07, 0.434913
2401.18, 0.434913
2402.3, 0.435183
2403.41, 0.435346
2404.52, 0.435291
2405.64, 0.435400
2406.76, 0.435778
2407.88, 0.435833
2408.99, 0.435616
2410.11, 0.435724
2411.23, 0.435562
2412.36, 0.435670
2413.48, 0.435887
2414.6, 0.436157
2415.73, 0.436265
2416.85, 0.436103
2417.98, 0.436103
2419.11, 0.436428
2420.24, 0.436698
2421.37, 0.436752
2422.5, 0.436536
2423.64, 0.436536
2424.77, 0.436915
2425.9, 0.437023
2427.04, 0.437239
2428.18, 0.437131
2429.31, 0.436861
2430.45, 0.436969
2431.59, 0.437077
2432.73, 0.436969
2433.88, 0.437131
2435.02, 0.437294
2436.16, 0.437510
2437.31, 0.437618
2438.45, 0.437889
2439.6, 0.437835
2440.75, 0.437456
2441.9, 0.437456
2443.05, 0.437889
2444.2, 0.437997
2445.35, 0.438322
2446.51, 0.438105
2447.67, 0.438051
2448.82, 0.438322
2449.98, 0.438268
2451.14, 0.438268
2452.3, 0.438376
2453.46, 0.438322
2454.62, 0.438376
2455.78, 0.438646
2456.94, 0.439025
2458.11, 0.439079
2459.28, 0.438971
2460.44, 0.439025
2461.61, 0.439079
2462.78, 0.439133
2463.95, 0.439566
2465.12, 0.439729
2466.3, 0.439621
2467.47, 0.439566
2468.65, 0.439512
2469.82, 0.439404
2471.0, 0.439458
2472.18, 0.439458
2473.36, 0.439621
2474.54, 0.439675
2475.72, 0.439891
2476.9, 0.440108
2478.08, 0.440270
2479.27, 0.440270
2480.46, 0.440324
2481.64, 0.440270
2482.83, 0.440324
2484.02, 0.440649
2485.21, 0.440703
2486.4, 0.440595
2487.6, 0.440595
2488.79, 0.440703
2489.99, 0.440811
2491.18, 0.440757
2492.38, 0.441027
2493.58, 0.441244
2494.78, 0.441190
2495.98, 0.441027
2497.18, 0.441082
2498.39, 0.441027
2499.59, 0.441027
2500.8, 0.441082
2502.01, 0.441352
2503.21, 0.441731
2504.42, 0.441893
2505.63, 0.441839
2506.84, 0.441731
2508.06, 0.441569
2509.27, 0.441731
2510.49, 0.441623
2511.7, 0.441731
2512.92, 0.441623
2514.14, 0.441731
2515.36, 0.441947
2516.58, 0.441893
2517.8, 0.442002
2519.03, 0.442380
2520.25, 0.442597
2521.48, 0.442597
2522.7, 0.442543
2523.93, 0.442705
2525.16, 0.442543
2526.39, 0.442597
2527.62, 0.442597
2528.86, 0.442705
2530.09, 0.442705
2531.33, 0.442813
2532.56, 0.443030
2533.8, 0.443192
2535.04, 0.442867
2536.28, 0.443192
2537.52, 0.443463
2538.76, 0.443300
2540.01, 0.443354
2541.25, 0.443463
2542.5, 0.443463
2543.75, 0.443733
2544.99, 0.443571
2546.24, 0.443517
2547.49, 0.443625
2548.75, 0.444220
2550.0, 0.444383
2551.26, 0.444383
2552.51, 0.444437
2553.77, 0.444653
2555.03, 0.444437
2556.29, 0.444599
2557.55, 0.444599
2558.81, 0.444437
2560.08, 0.444112
2561.34, 0.444274
2562.61, 0.444166
2563.88, 0.444491
2565.14, 0.445140
2566.41, 0.445140
2567.68, 0.444815
2568.96, 0.444761
2570.23, 0.445248
2571.51, 0.445032
2572.78, 0.444924
2574.06, 0.446006
2575.34, 0.445411
2576.62, 0.445465
2577.9, 0.445952
2579.18, 0.445627
2580.47, 0.445357
2581.75, 0.445411
2583.04, 0.445086
2584.32, 0.446601
2585.61, 0.446222
2586.9, 0.445735
2588.2, 0.445898
2589.49, 0.446277
2590.78, 0.446385
2592.08, 0.445357
2593.37, 0.443733
2594.67, 0.445248
2595.97, 0.446926
2597.27, 0.446547
2598.57, 0.446385
2599.88, 0.445898
2601.18, 0.445898
2602.49, 0.446006
2603.79, 0.445411
2605.1, 0.445627
2606.41, 0.446601
2607.72, 0.446222
2609.03, 0.446493
2610.35, 0.447034
2611.66, 0.446655
2612.98, 0.446385
2614.3, 0.446114
2615.62, 0.445357
2616.94, 0.446385
2618.26, 0.446439
2619.58, 0.445844
2620.91, 0.447413
2622.23, 0.447521
2623.56, 0.447142
2624.89, 0.446331
2626.22, 0.446493
2627.55, 0.447413
2628.88, 0.446006
2630.21, 0.446493
2631.55, 0.447738
2632.89, 0.447196
2634.22, 0.447683
2635.56, 0.447467
2636.9, 0.447251
2638.25, 0.447413
2639.59, 0.447142
2640.93, 0.447196
2642.28, 0.447521
2643.63, 0.447359
2644.98, 0.447305
2646.33, 0.447683
2647.68, 0.447575
2649.03, 0.447521
2650.39, 0.447196
2651.74, 0.446764
2653.1, 0.447251
2654.46, 0.447251
2655.82, 0.447413
2657.18, 0.446926
2658.54, 0.446493
2659.9, 0.446872
2661.27, 0.447034
2662.64, 0.446439
2664.01, 0.445573
2665.38, 0.445735
2666.74, 0.446006
2668.12, 0.445627
2669.49, 0.444328
2670.87, 0.446331
2672.24, 0.445735
2673.62, 0.444815
2675.0, 0.444383
2676.38, 0.444220
2677.76, 0.443733
2679.15, 0.443733
2680.54, 0.443841
2681.92, 0.442489
2683.31, 0.442164
2684.7, 0.441569
2686.09, 0.440595
2687.48, 0.439729
2688.88, 0.438701
2690.27, 0.437077
2691.67, 0.434913
2693.07, 0.432965
2694.47, 0.431612
2695.87, 0.429718
2697.27, 0.427337
2698.67, 0.424360
2700.08, 0.421330
2701.49, 0.418462
2702.9, 0.415323
2704.31, 0.411752
2705.72, 0.409100
2707.13, 0.406665
2708.54, 0.405096
2709.96, 0.404501
2711.38, 0.405367
2712.8, 0.404988
2714.22, 0.404068
2715.64, 0.402931
2717.06, 0.401200
2718.49, 0.398494
2719.91, 0.396492
2721.34, 0.396438
2722.77, 0.394219
2724.2, 0.392812
2725.63, 0.391784
2727.07, 0.389998
2728.5, 0.388104
2729.94, 0.385831
2731.38, 0.383559
2732.82, 0.381232
2734.26, 0.378905
2735.7, 0.376848
2737.15, 0.373656
2738.59, 0.370517
2740.04, 0.368948
2741.49, 0.367541
2742.94, 0.365214
2744.39, 0.362400
2745.84, 0.360019
2747.3, 0.357584
2748.76, 0.355149
2750.21, 0.352606
2751.67, 0.350116
2753.14, 0.346978
2754.6, 0.344218
2756.06, 0.343136
2757.53, 0.341350
2759.0, 0.339131
2760.46, 0.336750
2761.94, 0.335127
2763.41, 0.335127
2764.88, 0.334856
2766.36, 0.334207
2767.83, 0.333666
2769.31, 0.332692
2770.79, 0.331826
2772.27, 0.330960
2773.76, 0.329769
2775.24, 0.328525
2776.73, 0.327334
2778.22, 0.325819
2779.71, 0.324142
2781.2, 0.322897
2782.69, 0.322410
2784.18, 0.321652
2785.68, 0.321057
2787.18, 0.321923
2788.68, 0.322789
2790.18, 0.323492
2791.68, 0.323871
2793.19, 0.324575
2794.69, 0.325224
2796.2, 0.325603
2797.71, 0.326144
2799.22, 0.326577
2800.73, 0.326685
2802.24, 0.327010
2803.76, 0.327334
2805.28, 0.327280
2806.8, 0.327172
2808.32, 0.326956
2809.84, 0.326901
2811.36, 0.326739
2812.89, 0.326360
2814.42, 0.326090
2815.94, 0.326036
2817.48, 0.325765
2819.01, 0.325765
2820.54, 0.325765
2822.08, 0.325440
2823.61, 0.324899
2825.15, 0.324358
2826.69, 0.323925
2828.23, 0.323763
2829.78, 0.323330
2831.32, 0.322735
2832.87, 0.322139
2834.42, 0.321598
2835.97, 0.321111
2837.52, 0.320354
2839.08, 0.319596
2840.63, 0.319055
2842.19, 0.318514
2843.75, 0.317864
2845.31, 0.317269
2846.87, 0.316566
2848.44, 0.315916
2850.0, 0.315051
2851.57, 0.314131
2853.14, 0.313535
2854.71, 0.313211
2856.28, 0.312453
2857.86, 0.311641
2859.43, 0.310938
2861.01, 0.310505
2862.59, 0.310072
2864.17, 0.309369
2865.76, 0.308611
2867.34, 0.308016
2868.93, 0.307366
2870.52, 0.306555
2872.11, 0.306068
2873.7, 0.305581
2875.29, 0.304607
2876.89, 0.304011
2878.49, 0.303362
2880.08, 0.302983
2881.69, 0.302658
2883.29, 0.302226
2884.89, 0.301901
2886.5, 0.301684
2888.11, 0.301360
2889.72, 0.301089
2891.33, 0.300873
2892.94, 0.300440
2894.56, 0.300007
2896.17, 0.299466
2897.79, 0.299358
2899.42, 0.299141
2901.04, 0.298816
2902.66, 0.298600
2904.29, 0.298492
2905.92, 0.298492
2907.55, 0.298275
2909.18, 0.298329
2910.81, 0.298492
2912.45, 0.298329
2914.08, 0.298221
2915.72, 0.298167
2917.36, 0.298005
2919.01, 0.298059
2920.65, 0.298221
2922.3, 0.298329
2923.94, 0.298329
2925.59, 0.298492
2927.25, 0.298708
2928.9, 0.298762
2930.56, 0.298600
2932.21, 0.298600
2933.87, 0.298708
2935.53, 0.298762
2937.2, 0.298600
2938.86, 0.298492
2940.53, 0.298654
2942.2, 0.298762
2943.87, 0.298871
2945.54, 0.299358
2947.22, 0.299845
2948.89, 0.299899
2950.57, 0.299899
2952.25, 0.299899
2953.93, 0.300223
2955.62, 0.300873
2957.3, 0.301197
2958.99, 0.301360
2960.68, 0.301684
2962.37, 0.301847
2964.07, 0.302117
2965.76, 0.302767
2967.46, 0.303254
2969.16, 0.303470
2970.86, 0.303524
2972.56, 0.303633
2974.27, 0.303903
2975.98, 0.304282
2977.69, 0.304769
2979.4, 0.304985
2981.11, 0.305202
2982.83, 0.305689
2984.54, 0.306176
2986.26, 0.306446
2987.98, 0.306663
2989.71, 0.307258
2991.43, 0.307745
2993.16, 0.308016
2994.89, 0.308395
2996.62, 0.308665
2998.35, 0.309098
3000.09, 0.309585
3001.83, 0.310018
3003.57, 0.310397
3005.31, 0.310884
3007.05, 0.311371
3008.79, 0.311750
3010.54, 0.312020
3012.29, 0.312399
3014.04, 0.312778
3015.8, 0.313157
3017.55, 0.313644
3019.31, 0.314239
3021.07, 0.314942
3022.83, 0.315483
3024.59, 0.315970
3026.36, 0.316187
3028.13, 0.316458
3029.9, 0.316945
3031.67, 0.317432
3033.44, 0.317810
3035.22, 0.318135
3037.0, 0.318622
3038.78, 0.318947
3040.56, 0.319055
3042.34, 0.319271
3044.13, 0.319813
3045.92, 0.320300
3047.71, 0.320733
3049.5, 0.321165
3051.3, 0.321544
3053.09, 0.321977
3054.89, 0.322410
3056.69, 0.322789
3058.5, 0.323114
3060.3, 0.323492
3062.11, 0.323709
3063.92, 0.324142
3065.73, 0.324629
3067.55, 0.325170
3069.36, 0.325440
3071.18, 0.325819
3073.0, 0.326198
3074.82, 0.326577
3076.65, 0.327226
3078.48, 0.327767
3080.31, 0.328146
3082.14, 0.328363
3083.97, 0.328687
3085.8, 0.329228
3087.64, 0.329661
3089.48, 0.330094
3091.33, 0.330744
3093.17, 0.331176
3095.02, 0.331393
3096.87, 0.331772
3098.72, 0.332259
3100.57, 0.332800
3102.43, 0.333287
3104.28, 0.333720
3106.14, 0.334315
3108.01, 0.334964
3109.87, 0.335451
3111.74, 0.335884
3113.61, 0.336317
3115.48, 0.336967
3117.35, 0.337616
3119.23, 0.338103
3121.1, 0.338644
3122.98, 0.339239
3124.87, 0.339889
3126.75, 0.340538
3128.64, 0.341133
3130.53, 0.341891
3132.42, 0.342649
3134.31, 0.343190
3136.21, 0.343623
3138.11, 0.344218
3140.01, 0.344976
3141.91, 0.345679
3143.82, 0.346274
3145.73, 0.346924
3147.64, 0.347627
3149.55, 0.348276
3151.46, 0.348926
3153.38, 0.349467
3155.3, 0.350116
3157.22, 0.350874
3159.14, 0.351415
3161.07, 0.352010
3163.0, 0.352714
3164.93, 0.353363
3166.86, 0.353796
3168.8, 0.354445
3170.74, 0.355311
3172.68, 0.356015
3174.62, 0.356448
3176.56, 0.357097
3178.51, 0.357692
3180.46, 0.358396
3182.42, 0.358991
3184.37, 0.359640
3186.33, 0.360127
3188.29, 0.360723
3190.25, 0.361318
3192.21, 0.361913
3194.18, 0.362617
3196.15, 0.363212
3198.12, 0.363591
3200.09, 0.364294
3202.07, 0.364998
3204.05, 0.365593
3206.03, 0.366134
3208.02, 0.366675
3210.0, 0.367270
3211.99, 0.367757
3213.98, 0.368244
3215.98, 0.368894
3217.97, 0.369489
3219.97, 0.370030
3221.97, 0.370571
3223.98, 0.371167
3225.98, 0.371599
3227.99, 0.372249
3230.0, 0.372790
3232.02, 0.373385
3234.03, 0.373926
3236.05, 0.374522
3238.07, 0.374955
3240.1, 0.375442
3242.12, 0.375874
3244.15, 0.376524
3246.18, 0.377119
3248.22, 0.377660
3250.25, 0.378147
3252.29, 0.378634
3254.33, 0.379230
3256.38, 0.379771
3258.43, 0.380204
3260.47, 0.380799
3262.53, 0.381286
3264.58, 0.381773
3266.64, 0.382260
3268.7, 0.382801
3270.76, 0.383288
3272.82, 0.383775
3274.89, 0.384479
3276.96, 0.385074
3279.04, 0.385615
3281.11, 0.386210
3283.19, 0.386805
3285.27, 0.387238
3287.35, 0.387725
3289.44, 0.388267
3291.53, 0.388699
3293.62, 0.389078
3295.71, 0.389457
3297.81, 0.389998
3299.91, 0.390539
3302.01, 0.391026
3304.11, 0.391351
3306.22, 0.391784
3308.33, 0.392271
3310.44, 0.392704
3312.56, 0.393191
3314.68, 0.393678
3316.8, 0.394165
3318.92, 0.394435
3321.05, 0.394760
3323.18, 0.395139
3325.31, 0.395410
3327.44, 0.395626
3329.58, 0.395842
3331.72, 0.396329
3333.86, 0.396654
3336.01, 0.397033
3338.16, 0.397304
3340.31, 0.397466
3342.46, 0.397574
3344.61, 0.397628
3346.77, 0.397736
3348.94, 0.397791
3351.1, 0.397520
3353.27, 0.397304
3355.44, 0.397087
3357.61, 0.396600
3359.79, 0.396059
3361.97, 0.395247
3364.15, 0.393948
3366.33, 0.392542
3368.52, 0.391243
3370.71, 0.390161
3372.9, 0.389511
3375.1, 0.389132
3377.3, 0.389024
3379.5, 0.389132
3381.71, 0.389673
3383.91, 0.390648
3386.12, 0.391567
3388.34, 0.392433
3390.55, 0.392920
3392.77, 0.392920
3394.99, 0.392379
3397.22, 0.391243
3399.45, 0.389890
3401.68, 0.388212
3403.91, 0.386535
3406.15, 0.384966
3408.39, 0.383450
3410.63, 0.382098
3412.87, 0.381123
3415.12, 0.380691
3417.37, 0.381015
3419.63, 0.381989
3421.88, 0.383667
3424.14, 0.385940
3426.41, 0.388212
3428.67, 0.390485
3430.94, 0.393137
3433.21, 0.396167
3435.49, 0.398710
3437.77, 0.400929
3440.05, 0.402823
3442.33, 0.404392
3444.62, 0.405799
3446.91, 0.406990
3449.2, 0.408180
3451.5, 0.409425
3453.8, 0.410453
3456.1, 0.411319
3458.41, 0.412401
3460.72, 0.413267
3463.03, 0.414025
3465.34, 0.414403
3467.66, 0.414566
3469.98, 0.414620
3472.31, 0.414728
3474.63, 0.414674
3476.96, 0.414728
3479.3, 0.414891
3481.64, 0.414891
3483.97, 0.414999
3486.32, 0.415215
3488.66, 0.415053
3491.01, 0.414512
3493.36, 0.413754
3495.72, 0.412726
3498.08, 0.411698
3500.44, 0.411265
3502.81, 0.411590
3505.18, 0.412564
3507.55, 0.414241
3509.92, 0.416893
3512.3, 0.420302
3514.68, 0.423440
3517.06, 0.426038
3519.45, 0.428040
3521.84, 0.429718
3524.24, 0.431071
3526.64, 0.432153
3529.04, 0.432965
3531.44, 0.433776
3533.85, 0.434372
3536.26, 0.435021
3538.67, 0.435724
3541.09, 0.436374
3543.51, 0.436915
3545.93, 0.437402
3548.36, 0.437997
3550.79, 0.438592
3553.22, 0.439025
3555.66, 0.439458
3558.1, 0.439945
3560.54, 0.440432
3562.99, 0.440865
3565.44, 0.441298
3567.9, 0.441839
3570.35, 0.442272
3572.81, 0.442867
3575.28, 0.443300
3577.75, 0.443625
3580.22, 0.444112
3582.69, 0.444599
3585.17, 0.445086
3587.65, 0.445411
3590.14, 0.445844
3592.62, 0.446277
3595.11, 0.446764
3597.61, 0.447196
3600.11, 0.447683
3602.61, 0.448062
3605.11, 0.448441
3607.62, 0.448712
3610.14, 0.449199
3612.65, 0.449577
3615.17, 0.449848
3617.69, 0.450173
3620.22, 0.450497
3622.75, 0.450822
3625.28, 0.451093
3627.82, 0.451417
3630.36, 0.451688
3632.9, 0.451904
3635.45, 0.452283
3638.0, 0.452500
3640.56, 0.452716
3643.12, 0.453041
3645.68, 0.453474
3648.24, 0.453852
3650.81, 0.454231
3653.39, 0.454610
3655.96, 0.454881
3658.54, 0.455151
3661.13, 0.455530
3663.71, 0.455855
3666.3, 0.456125
3668.9, 0.456504
3671.5, 0.457045
3674.1, 0.457424
3676.7, 0.457749
3679.31, 0.458127
3681.93, 0.458506
3684.54, 0.458831
3687.17, 0.459101
3689.79, 0.459426
3692.42, 0.459805
3695.05, 0.460130
3697.69, 0.460454
3700.32, 0.460887
3702.97, 0.461266
3705.61, 0.461699
3708.27, 0.462024
3710.92, 0.462294
3713.58, 0.462619
3716.24, 0.463052
3718.91, 0.463485
3721.58, 0.463863
3724.25, 0.464242
3726.93, 0.464513
3729.61, 0.464892
3732.29, 0.465433
3734.98, 0.465866
3737.67, 0.466028
3740.37, 0.466299
3743.07, 0.466677
3745.78, 0.467002
3748.49, 0.467219
3751.2, 0.467597
3753.91, 0.467868
3756.63, 0.468084
3759.36, 0.468517
3762.09, 0.469004
3764.82, 0.469167
3767.55, 0.469383
3770.29, 0.469708
3773.04, 0.470032
3775.78, 0.470249
3778.54, 0.470357
3781.29, 0.470574
3784.05, 0.470844
3786.82, 0.471169
3789.59, 0.471439
3792.36, 0.471710
3795.13, 0.471926
3797.92, 0.472035
3800.7, 0.472251
3803.49, 0.472576
3806.28, 0.472738
3809.08, 0.472846
3811.88, 0.473009
3814.68, 0.473117
3817.49, 0.473333
3820.31, 0.473442
3823.12, 0.473658
3825.94, 0.473875
3828.77, 0.474037
3831.6, 0.474253
3834.43, 0.474470
3837.27, 0.474524
3840.11, 0.474740
3842.96, 0.474903
3845.81, 0.475065
3848.67, 0.475282
3851.53, 0.475390
3854.39, 0.475444
3857.26, 0.475552
3860.13, 0.475660
3863.01, 0.475931
3865.89, 0.475985
3868.77, 0.476093
3871.66, 0.476201
3874.55, 0.476364
3877.45, 0.476418
3880.35, 0.476634
3883.26, 0.476743
3886.17, 0.476959
3889.09, 0.477176
3892.01, 0.477338
3894.93, 0.477392
3897.86, 0.477446
3900.79, 0.477500
3903.73, 0.477663
3906.67, 0.477663
3909.62, 0.477717
3912.57, 0.477879
3915.52, 0.477933
3918.48, 0.478041
3921.45, 0.478204
3924.42, 0.478312
3927.39, 0.478420
3930.37, 0.478474
3933.35, 0.478474
3936.34, 0.478474
3939.33, 0.478582
3942.32, 0.478691
3945.32, 0.478853
3948.33, 0.479015
3951.34, 0.479015
3954.35, 0.479069
3957.37, 0.479178
3960.39, 0.479394
3963.42, 0.479557
3966.45, 0.479719
3969.49, 0.479827
3972.53, 0.480044
3975.58, 0.480368
3978.63, 0.480585
3981.68, 0.480693
3984.75, 0.480963
3987.81, 0.481234
3990.88, 0.481342
3993.95, 0.481559
3997.03, 0.481721
4000.12, 0.481992
4003.21, 0.482316
4006.3, 0.482479
4009.4, 0.482641
4012.5, 0.482912
4015.61, 0.483074
4018.72, 0.483236
4021.84, 0.483344
4024.96, 0.483615
4028.09, 0.483886
4031.22, 0.484102
4034.36, 0.484318
4037.5, 0.484481
4040.65, 0.484589
4043.8, 0.484643
4046.96, 0.484751
4050.12, 0.484860
4053.29, 0.484914
4056.46, 0.485022
4059.64, 0.485130
4062.82, 0.485293
4066.0, 0.485293
4069.19, 0.485401
4072.39, 0.485455
4075.59, 0.485509
4078.8, 0.485563
4082.01, 0.485725
4085.23, 0.485834
4088.45, 0.485888
4091.68, 0.485996
4094.91, 0.486050
4098.15, 0.486158
4101.39, 0.486158
4104.63, 0.486321
4107.89, 0.486429
4111.14, 0.486483
4114.41, 0.486537
4117.67, 0.486754
4120.95, 0.486916
4124.23, 0.487024
4127.51, 0.487132
4130.8, 0.487078
4134.09, 0.487187
4137.39, 0.487403
4140.7, 0.487403
4144.01, 0.487349
4147.32, 0.487457
4150.64, 0.487619
4153.97, 0.487619
4157.3, 0.487565
4160.64, 0.487674
4163.98, 0.487728
4167.33, 0.487836
4170.68, 0.487890
4174.04, 0.487890
4177.4, 0.488106
4180.77, 0.488161
4184.14, 0.487998
4187.52, 0.487944
4190.91, 0.488106
4194.3, 0.488269
4197.69, 0.488106
4201.1, 0.487998
4204.5, 0.487944
4207.92, 0.487674
4211.34, 0.487403
4214.76, 0.487187
4218.19, 0.487078
4221.62, 0.486970
4225.06, 0.486700
4228.51, 0.486591
4231.96, 0.486537
4235.42, 0.486483
4238.88, 0.486537
4242.35, 0.486645
4245.83, 0.486862
4249.31, 0.487078
4252.79, 0.487241
4256.28, 0.487241
4259.78, 0.486862
4263.29, 0.486429
4266.79, 0.486104
4270.31, 0.485996
4273.83, 0.486213
4277.35, 0.486429
4280.89, 0.486429
4284.42, 0.486483
4287.97, 0.486645
4291.52, 0.486808
4295.07, 0.486808
4298.63, 0.486862
4302.2, 0.487024
4305.78, 0.487241
4309.35, 0.487403
4312.94, 0.487349
4316.53, 0.487403
4320.13, 0.487457
4323.73, 0.487511
4327.34, 0.487565
4330.96, 0.487511
4334.58, 0.487295
4338.21, 0.487187
4341.84, 0.487241
4345.48, 0.487187
4349.12, 0.487024
4352.77, 0.486970
4356.43, 0.486916
4360.1, 0.486862
4363.76, 0.486808
4367.44, 0.486645
4371.12, 0.486483
4374.81, 0.486267
4378.51, 0.485996
4382.21, 0.485834
4385.92, 0.485671
4389.63, 0.485401
4393.35, 0.485184
4397.08, 0.484860
4400.81, 0.484535
4404.55, 0.484264
4408.29, 0.483831
4412.04, 0.483453
4415.8, 0.483236
4419.57, 0.482857
4423.34, 0.482479
4427.12, 0.481992
4430.9, 0.481396
4434.69, 0.480909
4438.49, 0.480314
4442.29, 0.479665
4446.1, 0.479124
4449.92, 0.478582
4453.74, 0.477987
4457.57, 0.477338
4461.41, 0.476526
4465.25, 0.475769
4469.1, 0.475011
4472.95, 0.474199
4476.82, 0.473442
4480.69, 0.472738
4484.56, 0.471981
4488.44, 0.471115
4492.33, 0.470141
4496.23, 0.469058
4500.13, 0.468138
4504.04, 0.467164
4507.96, 0.466190
4511.88, 0.465216
4515.81, 0.464188
4519.75, 0.463322
4523.69, 0.462348
4527.65, 0.461266
4531.6, 0.460238
4535.57, 0.459318
4539.54, 0.458398
4543.52, 0.457424
4547.5, 0.456558
4551.5, 0.455692
4555.5, 0.454827
4559.5, 0.454015
4563.52, 0.453420
4567.54, 0.452878
4571.56, 0.452337
4575.6, 0.451742
4579.64, 0.451093
4583.69, 0.450606
4587.75, 0.450119
4591.81, 0.449686
4595.88, 0.449253
4599.96, 0.448712
4604.04, 0.448225
4608.14, 0.447738
4612.24, 0.447251
4616.34, 0.446709
4620.46, 0.446277
4624.58, 0.445844
4628.71, 0.445573
4632.84, 0.445248
4636.99, 0.444978
4641.14, 0.444761
4645.3, 0.444599
4649.47, 0.444437
4653.64, 0.444328
4657.82, 0.444328
4662.01, 0.444328
4666.21, 0.444383
4670.41, 0.444437
4674.62, 0.444545
4678.84, 0.444707
4683.07, 0.444761
4687.3, 0.444761
4691.54, 0.444815
4695.79, 0.444924
4700.05, 0.445032
4704.31, 0.445194
4708.59, 0.445194
4712.87, 0.445194
4717.15, 0.445302
4721.45, 0.445465
4725.76, 0.445519
4730.07, 0.445681
4734.39, 0.445789
4738.72, 0.445844
4743.05, 0.446006
4747.39, 0.446222
4751.75, 0.446331
4756.1, 0.446547
4760.47, 0.446818
4764.85, 0.446980
4769.23, 0.447196
4773.62, 0.447359
4778.02, 0.447521
4782.43, 0.447738
4786.85, 0.447846
4791.27, 0.448116
4795.7, 0.448333
4800.14, 0.448549
4804.59, 0.448766
4809.05, 0.449090
4813.51, 0.449361
4817.99, 0.449632
4822.47, 0.449848
4826.96, 0.450064
4831.46, 0.450335
4835.96, 0.450768
4840.48, 0.451093
4845.0, 0.451417
4849.54, 0.451796
4854.08, 0.452067
4858.63, 0.452283
4863.18, 0.452446
4867.75, 0.452662
4872.33, 0.452878
4876.91, 0.452987
4881.5, 0.453149
4886.1, 0.453528
4890.71, 0.453744
4895.33, 0.453961
4899.96, 0.454177
4904.59, 0.454339
4909.24, 0.454448
4913.89, 0.454556
4918.55, 0.454664
4923.22, 0.454827
4927.9, 0.455043
4932.59, 0.455205
4937.29, 0.455476
4942.0, 0.455692
4946.71, 0.455801
4951.44, 0.455855
4956.17, 0.455909
4960.91, 0.456017
4965.67, 0.456125
4970.43, 0.456071
4975.2, 0.455963
4979.98, 0.455963
4984.76, 0.456125
4989.56, 0.456288
4994.37, 0.456288
4999.18, 0.456342
5004.01, 0.456396
5008.84, 0.456396
5013.69, 0.456450
5018.54, 0.456666
5023.4, 0.457045
5028.28, 0.457370
5033.16, 0.457695
5038.05, 0.457857
5042.95, 0.458019
5047.86, 0.458236
5052.78, 0.458344
5057.71, 0.458560
5062.65, 0.458669
5067.6, 0.458831
5072.56, 0.459047
5077.53, 0.459156
5082.5, 0.459210
5087.49, 0.459534
5092.49, 0.459859
5097.5, 0.460021
5102.51, 0.460292
5107.54, 0.460671
5112.58, 0.460995
5117.62, 0.461320
5122.68, 0.461645
5127.75, 0.461861
5132.82, 0.462132
5137.91, 0.462348
5143.01, 0.462565
5148.12, 0.462781
5153.23, 0.463160
5158.36, 0.463539
5163.5, 0.463918
5168.65, 0.464134
5173.81, 0.464459
5178.98, 0.464729
5184.15, 0.465054
5189.34, 0.465379
5194.54, 0.465649
5199.75, 0.465974
5204.98, 0.466461
5210.21, 0.466677
5215.45, 0.467110
5220.7, 0.467435
5225.96, 0.467651
5231.23, 0.467760
5236.52, 0.467976
5241.81, 0.468301
5247.12, 0.468571
5252.44, 0.468734
5257.76, 0.469058
5263.1, 0.469329
5268.45, 0.469491
5273.81, 0.469708
5279.18, 0.469924
5284.56, 0.470087
5289.95, 0.470357
5295.36, 0.470790
5300.77, 0.471007
5306.2, 0.471169
5311.63, 0.471385
5317.08, 0.471602
5322.54, 0.471926
5328.01, 0.472251
5333.49, 0.472468
5338.98, 0.472792
5344.49, 0.472955
5350.0, 0.473333
5355.53, 0.473983
5361.07, 0.474470
5366.62, 0.475065
5372.18, 0.475606
5377.75, 0.476201
5383.34, 0.476743
5388.93, 0.477338
5394.54, 0.477825
5400.16, 0.478312
5405.79, 0.478745
5411.44, 0.479178
5417.09, 0.479232
5422.76, 0.479719
5428.43, 0.480422
5434.12, 0.480585
5439.83, 0.480747
5445.54, 0.481018
5451.26, 0.481234
5457.0, 0.481126
5462.75, 0.481180
5468.52, 0.481559
5474.29, 0.481667
5480.08, 0.481775
5485.88, 0.481883
5491.69, 0.481938
5497.51, 0.481992
5503.35, 0.481938
5509.2, 0.481883
5515.06, 0.481829
5520.93, 0.481775
5526.82, 0.481829
5532.71, 0.481992
5538.63, 0.482100
5544.55, 0.482046
5550.49, 0.481992
5556.44, 0.482046
5562.4, 0.482262
5568.37, 0.482100
5574.36, 0.481721
5580.36, 0.481883
5586.37, 0.482316
5592.4, 0.482316
5598.44, 0.482208
5604.49, 0.482208
5610.56, 0.482154
5616.63, 0.482154
5622.73, 0.482262
5628.83, 0.481992
5634.95, 0.481396
5641.08, 0.480963
5647.23, 0.481288
5653.39, 0.481288
5659.56, 0.481396
5665.74, 0.480855
5671.94, 0.480368
5678.15, 0.480206
5684.38, 0.479719
5690.62, 0.478907
5696.87, 0.478204
5703.14, 0.476688
5709.42, 0.475065
5715.72, 0.473333
5722.03, 0.471548
5728.35, 0.469275
5734.69, 0.466623
5741.03, 0.463918
5747.4, 0.461645
5753.78, 0.459913
5760.17, 0.457532
5766.58, 0.456450
5773.0, 0.456288
5779.44, 0.455692
5785.88, 0.455638
5792.35, 0.455801
5798.83, 0.456233
5805.32, 0.456666
5811.83, 0.456558
5818.35, 0.456233
5824.89, 0.456937
5831.45, 0.457208
5838.01, 0.457208
5844.59, 0.456342
5851.19, 0.455259
5857.8, 0.453798
5864.43, 0.452500
5871.07, 0.450497
5877.73, 0.447792
5884.4, 0.446331
5891.09, 0.444166
5897.79, 0.442164
5904.5, 0.440324
5911.23, 0.437781
5917.98, 0.435183
5924.75, 0.432315
5931.53, 0.429177
5938.32, 0.426850
5945.13, 0.425064
5951.96, 0.422629
5958.8, 0.420031
5965.65, 0.417055
5972.53, 0.414999
5979.42, 0.412455
5986.32, 0.410020
5993.24, 0.408072
6000.18, 0.406178
6007.13, 0.403635
6014.1, 0.401579
6021.08, 0.399739
6028.09, 0.397791
6035.1, 0.395139
6042.14, 0.392054
6049.19, 0.390052
6056.25, 0.389186
6063.34, 0.386860
6070.44, 0.384695
6077.55, 0.383342
6084.69, 0.382043
6091.84, 0.380312
6099.0, 0.378743
6106.19, 0.376848
6113.39, 0.375983
6120.61, 0.376091
6127.84, 0.375983
6135.09, 0.375658
6142.36, 0.375874
6149.65, 0.376416
6156.95, 0.377011
6164.27, 0.378147
6171.61, 0.379121
6178.97, 0.379446
6186.34, 0.380582
6193.73, 0.381935
6201.14, 0.382693
6208.57, 0.383234
6216.01, 0.383613
6223.47, 0.383992
6230.95, 0.384262
6238.45, 0.384208
6245.97, 0.384208
6253.5, 0.384262
6261.06, 0.384262
6268.63, 0.383992
6276.21, 0.383667
6283.82, 0.382909
6291.45, 0.381935
6299.1, 0.380582
6306.76, 0.378959
6314.44, 0.377011
6322.14, 0.374630
6329.86, 0.371924
6337.6, 0.368894
6345.35, 0.366080
6353.13, 0.363374
6360.92, 0.359694
6368.74, 0.355744
6376.57, 0.352010
6384.43, 0.348006
6392.3, 0.343569
6400.19, 0.338915
6408.1, 0.333936
6416.03, 0.330040
6423.98, 0.326631
6431.95, 0.322951
6439.94, 0.319109
6447.95, 0.315375
6455.98, 0.311479
6464.03, 0.307421
6472.1, 0.303308
6480.19, 0.299412
6488.31, 0.295678
6496.44, 0.292702
6504.59, 0.289942
6512.76, 0.287020
6520.95, 0.284368
6529.16, 0.282203
6537.4, 0.280039
6545.65, 0.278199
6553.92, 0.276576
6562.22, 0.275060
6570.54, 0.273870
6578.88, 0.273491
6587.23, 0.272896
6595.61, 0.272842
6604.02, 0.273004
6612.44, 0.273437
6620.89, 0.273816
6629.35, 0.274195
6637.84, 0.275547
6646.35, 0.277550
6654.88, 0.278957
6663.44, 0.280364
6672.01, 0.281716
6680.61, 0.283502
6689.23, 0.285721
6697.88, 0.287507
6706.54, 0.289238
6715.23, 0.291565
6723.94, 0.293838
6732.67, 0.296111
6741.42, 0.298167
6750.2, 0.300332
6759.0, 0.302226
6767.82, 0.303903
6776.67, 0.305256
6785.54, 0.306555
6794.44, 0.308340
6803.35, 0.310018
6812.29, 0.311317
6821.26, 0.312670
6830.24, 0.314401
6839.25, 0.316025
6848.29, 0.316728
6857.35, 0.317377
6866.43, 0.318947
6875.54, 0.320408
6884.67, 0.321544
6893.82, 0.322789
6903.0, 0.323817
6912.2, 0.325116
6921.43, 0.326360
6930.69, 0.327443
6939.96, 0.328308
6949.27, 0.328850
6958.59, 0.329445
6967.95, 0.330419
6977.33, 0.331068
6986.73, 0.331663
6996.16, 0.332421
7005.61, 0.333666
7015.09, 0.335181
7024.6, 0.337183
7034.13, 0.339239
7043.69, 0.341945
7053.27, 0.345571
7062.88, 0.349034
7072.52, 0.352714
7082.18, 0.356718
7091.87, 0.361101
7101.58, 0.365647
7111.32, 0.370084
7121.09, 0.374576
7130.88, 0.378905
7140.71, 0.382747
7150.56, 0.386751
7160.43, 0.390269
7170.33, 0.393732
7180.27, 0.397033
7190.23, 0.399847
7200.21, 0.402336
7210.23, 0.404988
7220.27, 0.407423
7230.34, 0.409425
7240.44, 0.411265
7250.56, 0.413321
7260.72, 0.415161
7270.9, 0.416839
7281.12, 0.418733
7291.36, 0.420464
7301.63, 0.421763
7311.93, 0.423116
7322.25, 0.424415
7332.61, 0.425605
7343.0, 0.426687
7353.41, 0.427715
7363.86, 0.428527
7374.33, 0.429339
7384.83, 0.430097
7395.37, 0.430854
7405.93, 0.431503
7416.53, 0.432369
7427.15, 0.433181
7437.81, 0.433776
7448.5, 0.434209
7459.22, 0.434642
7469.96, 0.435129
7480.74, 0.435724
7491.55, 0.436049
7502.39, 0.436211
7513.27, 0.436157
7524.17, 0.435995
7535.11, 0.435778
7546.08, 0.435346
7557.08, 0.434750
7568.11, 0.434209
7579.17, 0.433614
7590.27, 0.432965
7601.4, 0.432207
7612.56, 0.431233
7623.76, 0.430259
7634.98, 0.429393
7646.24, 0.428365
7657.54, 0.427283
7668.87, 0.425876
7680.23, 0.424360
7691.62, 0.422953
7703.05, 0.421492
7714.51, 0.419815
7726.01, 0.417975
7737.54, 0.416027
7749.11, 0.414025
7760.71, 0.412023
7772.35, 0.410074
7784.02, 0.408126
7795.72, 0.406124
7807.46, 0.404284
7819.23, 0.402607
7831.04, 0.400929
7842.89, 0.399252
7854.77, 0.397682
7866.69, 0.396329
7878.65, 0.395085
7890.64, 0.394057
7902.67, 0.393245
7914.74, 0.392433
7926.84, 0.391513
7938.98, 0.390485
7951.16, 0.389403
7963.37, 0.388429
7975.62, 0.387671
7987.91, 0.386860
8000.24, 0.385940
8012.6, 0.384911
8025.01, 0.383559
8037.45, 0.382043
8049.93, 0.380474
8062.45, 0.378688
8075.01, 0.376632
8087.61, 0.374413
8100.24, 0.372195
8112.91, 0.369814
8125.63, 0.367541
8138.39, 0.365052
8151.18, 0.362454
8164.02, 0.359640
8176.9, 0.356718
8189.81, 0.353580
8202.77, 0.350170
8215.77, 0.346599
8228.82, 0.342865
8241.9, 0.339077
8255.02, 0.335019
8268.19, 0.330689
8281.39, 0.326306
8294.65, 0.321923
8307.94, 0.317432
8321.28, 0.312832
8334.66, 0.308449
8348.08, 0.304120
8361.54, 0.300061
8375.05, 0.296057
8388.6, 0.292160
8402.2, 0.288318
8415.84, 0.284639
8429.52, 0.281013
8443.25, 0.277604
8457.02, 0.273978
8470.84, 0.270515
8484.7, 0.267160
8498.61, 0.263859
8512.57, 0.260504
8526.57, 0.257041
8540.62, 0.253361
8554.71, 0.249681
8568.85, 0.245893
8583.04, 0.242376
8597.27, 0.239454
8611.55, 0.237938
8625.88, 0.237451
8640.26, 0.237181
8654.68, 0.236315
8669.16, 0.234854
8683.68, 0.232906
8698.25, 0.230904
8712.87, 0.228739
8727.53, 0.226466
8742.25, 0.224139
8757.02, 0.221867
8771.83, 0.219594
8786.7, 0.217213
8801.62, 0.214778
8816.59, 0.212397
8831.61, 0.209853
8846.68, 0.207418
8861.8, 0.204821
8876.97, 0.202331
8892.2, 0.199626
8907.48, 0.196812
8922.81, 0.193890
8938.2, 0.190913
8953.63, 0.187937
8969.13, 0.184853
8984.67, 0.181768
9000.27, 0.179008
9015.92, 0.175816
9031.63, 0.172894
9047.39, 0.170026
9063.21, 0.167212
9079.08, 0.164235
9095.01, 0.161259
9111.0, 0.158337
9127.04, 0.155740
9143.13, 0.153088
9159.28, 0.150707
9175.49, 0.148651
9191.76, 0.147190
9208.09, 0.145783
9224.47, 0.144646
9240.92, 0.143780
9257.42, 0.143131
9273.98, 0.142590
9290.6, 0.142536
9307.28, 0.142482
9324.02, 0.142428
9340.82, 0.142211
9357.68, 0.142428
9374.6, 0.142265
9391.58, 0.141995
9408.62, 0.141345
9425.73, 0.140750
9442.9, 0.139830
9460.13, 0.138802
9477.42, 0.137557
9494.78, 0.136475
9512.2, 0.135717
9529.69, 0.135339
9547.24, 0.134797
9564.86, 0.134743
9582.54, 0.134797
9600.28, 0.134797
9618.1, 0.134960
9635.97, 0.135663
9653.92, 0.135934
9671.93, 0.136150
9690.01, 0.136421
9708.16, 0.137287
9726.37, 0.138261
9744.65, 0.139505
9763.0, 0.140696
9781.43, 0.141995
9799.92, 0.143402
9818.48, 0.145133
9837.1, 0.146865
9855.8, 0.148705
9874.58, 0.150599
9893.42, 0.152601
9912.34, 0.154549
9931.33, 0.156659
9950.39, 0.158770
9969.52, 0.160826
9988.74, 0.162504
10008.0, 0.164073
10027.4, 0.165480
10046.8, 0.166725
10066.3, 0.167645
10085.9, 0.168456
10105.6, 0.169214
10125.3, 0.169701
10145.1, 0.169917
10165.0, 0.169809
10185.0, 0.169268
10205.0, 0.169106
10225.2, 0.168564
10245.4, 0.167374
10265.7, 0.166021
10286.0, 0.165101
10306.5, 0.163911
10327.0, 0.162341
10347.6, 0.160447
10368.3, 0.158878
10389.1, 0.157633
10409.9, 0.156443
10430.9, 0.155036
10451.9, 0.153629
10473.0, 0.152060
10494.2, 0.150436
10515.5, 0.148542
10536.9, 0.146703
10558.4, 0.145025
10579.9, 0.143672
10601.5, 0.142049
10623.3, 0.140317
10645.1, 0.138477
10667.0, 0.136746
10689.0, 0.134797
10711.1, 0.132849
10733.2, 0.131010
10755.5, 0.129332
10777.9, 0.127167
10800.3, 0.125165
10822.9, 0.123325
10845.5, 0.121756
10868.2, 0.120295
10891.1, 0.119159
10914.0, 0.118293
10937.0, 0.117914
10960.2, 0.117752
10983.4, 0.117968
11006.7, 0.118834
11030.1, 0.120295
11053.6, 0.121810
11077.3, 0.123758
11101.0, 0.125869
11124.8, 0.127979
11148.7, 0.129981
11172.7, 0.132146
11196.9, 0.133715
11221.1, 0.135284
11245.4, 0.136529
11269.9, 0.137449
11294.4, 0.138044
11319.1, 0.138423
11343.9, 0.138423
11368.8, 0.138369
11393.7, 0.137936
11418.8, 0.137882
11444.0, 0.138044
11469.4, 0.138261
11494.8, 0.138585
11520.3, 0.138423
11546.0, 0.137666
11571.8, 0.136962
11597.7, 0.136150
11623.7, 0.135176
11649.8, 0.133445
11676.0, 0.132092
11702.4, 0.131010
11728.9, 0.130360
11755.5, 0.129494
11782.2, 0.128899
11809.0, 0.128629
11836.0, 0.128520
11863.0, 0.128412
11890.3, 0.128358
11917.6, 0.127979
11945.0, 0.127276
11972.6, 0.126464
12000.4, 0.125706
12028.2, 0.124678
12056.2, 0.123542
12084.3, 0.122081
12112.5, 0.120457
12140.9, 0.118293
12169.4, 0.116399
12198.0, 0.114451
12226.8, 0.112936
12255.7, 0.111366
12284.7, 0.109743
12313.9, 0.108173
12343.2, 0.106929
12372.7, 0.105414
12402.3, 0.103574
12432.0, 0.101139
12461.9, 0.0987580
12491.9, 0.0963770
12522.1, 0.0943740
12552.4, 0.0923720
12582.9, 0.0906410
12613.5, 0.0888010
12644.3, 0.0871230
12675.2, 0.0855000
12706.3, 0.0843630
12737.5, 0.0830650
12768.9, 0.0817120
12800.4, 0.0805210
12832.1, 0.0798720
12863.9, 0.0789520
12895.9, 0.0782490
12928.1, 0.0777070
12960.4, 0.0766790
12992.9, 0.0746230
13025.5, 0.0728370
13058.3, 0.0706730
13091.3, 0.0681290
13124.4, 0.0651530
13157.8, 0.0623930
13191.2, 0.0595790
13224.9, 0.0566030
13258.7, 0.0536270
13292.7, 0.0509210
13326.9, 0.0481070
13361.2, 0.0457800
13395.7, 0.0431830
13430.4, 0.0405850
13465.3, 0.0379340
13500.4, 0.0358230
13535.7, 0.0333880
13571.1, 0.0310070
13606.7, 0.0287890
13642.5, 0.0268400
13678.5, 0.0247300
13714.7, 0.0229980
13751.1, 0.0214830
13787.6, 0.0202390
13824.4, 0.0185070
13861.4, 0.0168840
13898.5, 0.0156390
13935.9, 0.0148810
13973.5, 0.0139610
14011.2, 0.0132580
14049.2, 0.0123920
14087.4, 0.0114720
14125.8, 0.0103900
14164.3, 0.00995700
14203.2, 0.00963200
14242.2, 0.00909100
14281.4, 0.00860400
14320.9, 0.00860400
14360.5, 0.00844200
14400.4, 0.00860400
14440.5, 0.00849600
14480.9, 0.00876600
14521.4, 0.00898300
14562.2, 0.00936200
14603.3, 0.0100650
14644.5, 0.0115260
14686.0, 0.0128790
14727.7, 0.0146650
14769.7, 0.0160180
14811.9, 0.0180740
14854.3, 0.0208880
14897.0, 0.0240810
14939.9, 0.0272730
14983.1, 0.0308990
15026.5, 0.0346870
15070.2, 0.0390160
15114.2, 0.0437240
15158.3, 0.0486480
15202.8, 0.0538970
15247.5, 0.0588220
15292.5, 0.0632050
15337.7, 0.0675340
15383.2, 0.0709970
15429.0, 0.0738110
15475.1, 0.0763000
15521.4, 0.0783030
15568.0, 0.0796010
15614.9, 0.0812790
15662.1, 0.0829560
15709.6, 0.0847960
15757.3, 0.0864200
15805.4, 0.0879890
15853.7, 0.0895580
15902.3, 0.0915060
15951.2, 0.0935090
16000.5, 0.0954570
16050.0, 0.0976750
16099.8, 0.100219
16150.0, 0.102762
16200.5, 0.105468
16251.3, 0.106875
16302.4, 0.108985
16353.8, 0.111042
16405.5, 0.112394
16457.6, 0.113801
16510.0, 0.115533
16562.8, 0.117102
16615.9, 0.118347
16669.3, 0.118942
16723.1, 0.119862
16777.2, 0.120836
16831.7, 0.122297
16886.5, 0.123109
16941.7, 0.124083
16997.2, 0.124786
17053.1, 0.126031
17109.4, 0.127167
17166.1, 0.128574
17223.1, 0.129819
17280.5, 0.131010
17338.3, 0.131713
17396.5, 0.133012
17455.1, 0.133769
17514.0, 0.134310
17573.4, 0.135501
17633.2, 0.136637
17693.4, 0.136908
17754.0, 0.137341
17815.0, 0.138153
17876.4, 0.139235
17938.3, 0.139830
18000.5, 0.140425
18063.3, 0.140804
18126.4, 0.140479
18190.0, 0.139776
18254.1, 0.139830
18318.6, 0.139559
18383.5, 0.139181
18449.0, 0.139127
18514.9, 0.139289
18581.2, 0.138261
18648.0, 0.137178
18715.4, 0.135068
18783.2, 0.133066
18851.5, 0.130522
18920.3, 0.127600
18989.6, 0.123758
19059.4, 0.120457
19129.7, 0.114992
19200.6, 0.108661
19272.0, 0.102383
19343.9, 0.0960520
19416.3, 0.0891800
19489.3, 0.0823610
19562.8, 0.0768960
19637.0, 0.0716470
19711.6, 0.0649370
19786.8, 0.0600120
19862.6, 0.0559000
19939.0, 0.0525990
20016.0, 0.0499470
20093.6, 0.0497310
20171.8, 0.0516250
20250.6, 0.0576850
20330.0, 0.0663440
20410.0, 0.0760300
20490.7, 0.0851210
20572.0, 0.0924800
20654.0, 0.0988660
20736.6, 0.105414
20819.9, 0.110446
20903.8, 0.114992
20988.5, 0.117698
21073.8, 0.120403
21159.8, 0.123109
21246.5, 0.124949
21334.0, 0.125923
21422.1, 0.126247
21511.0, 0.125219
21600.7, 0.126356
21691.0, 0.127600
21782.1, 0.127979
21874.0, 0.127059
21966.7, 0.126951
22060.2, 0.125815
22154.5, 0.126356
22249.6, 0.125706
22345.5, 0.124624
22442.2, 0.123812
22539.8, 0.122081
22638.2, 0.120913
22737.5, 0.119466
22837.7, 0.117942
22938.7, 0.115108
23040.7, 0.110929
23143.5, 0.105657
23247.3, 0.0999270
23352.1, 0.0943980
23457.7, 0.0899120
23564.4, 0.0861220
23672.0, 0.0827930
23780.5, 0.0797390
23890.1, 0.0770440
24000.7, 0.0749590
24112.3, 0.0731400
24225.0, 0.0715450
24338.7, 0.0710620
24453.5, 0.0712420
24569.4, 0.0707310
24686.4, 0.0714110
24804.5, 0.0726870
24923.8, 0.0740730
25044.2, 0.0755910
25165.8, 0.0768110
25288.6, 0.0777020
25412.5, 0.0783460
25537.7, 0.0783540
25664.1, 0.0775600
25791.8, 0.0762570
25920.8, 0.0741260
26051.1, 0.0712690
26182.6, 0.0681340
26315.5, 0.0649310
26449.8, 0.0612360
26585.4, 0.0565040
26722.5, 0.0510210
26860.9, 0.0474510
27000.8, 0.0463080
27142.1, 0.0494000
27285.0, 0.0569000
27429.4, 0.0671660
27575.3, 0.0776570
27722.7, 0.0868610
27871.8, 0.0949140
28022.4, 0.102296
28174.7, 0.108781
28328.7, 0.114990
28484.4, 0.121056
28641.7, 0.126423
28800.9, 0.131037
28961.8, 0.135844
29124.5, 0.140657
29289.0, 0.145215
29455.4, 0.149167
29623.8, 0.152435
29794.0, 0.155787
29966.3, 0.159095
30140.5, 0.161688
30316.7, 0.164014
30495.1, 0.166999
30675.5, 0.170144
30858.1, 0.172120
31042.8, 0.175054
31229.8, 0.177779
31419.1, 0.180075
31610.7, 0.182292
31804.6, 0.185002
32000.9, 0.188027
32199.7, 0.191129
32400.9, 0.194512
32604.8, 0.197607
32811.1, 0.200223
33020.1, 0.202304
33231.8, 0.202476
33446.2, 0.200159
33663.4, 0.196277
33883.4, 0.189270
34106.3, 0.180482
34332.1, 0.170892
34561.0, 0.160691
34792.9, 0.150695
35028.0, 0.143822
35266.3, 0.141057
35507.8, 0.136344
35752.7, 0.131883
36001.0, 0.127062
36252.8, 0.124312
36508.1, 0.122646
36767.0, 0.120661
37029.7, 0.118929
37296.1, 0.117317
37566.3, 0.116565
37840.5, 0.115657
38118.8, 0.114345
38401.2, 0.113577
38687.8, 0.112981
38978.6, 0.112698
39273.9, 0.112160
39573.7, 0.111668
39878.1, 0.111992
40187.3, 0.111327
40501.2, 0.110552
40820.0, 0.110395
41144.0, 0.109219
41473.2, 0.106119
41807.6, 0.101268
42147.5, 0.0962630
42493.0, 0.0961070
42844.2, 0.100268
43201.2, 0.104318
43564.3, 0.106912
43933.5, 0.109630
44309.0, 0.112906
44691.0, 0.115624
45079.6, 0.118534
45475.0, 0.121701
45877.5, 0.124375
46287.1, 0.127003
46704.2, 0.130366
47128.7, 0.134274
47561.1, 0.136812
48001.5, 0.140785
48450.1, 0.144212
48907.2, 0.145342
49373.0, 0.148108
49847.7, 0.151055
50331.5, 0.152062
50825.0, 0.152977
51328.2, 0.155510
51841.5, 0.158283
52365.1, 0.159839
52899.4, 0.161401
53444.8, 0.164498
54001.5, 0.167523
54570.1, 0.169153
55150.6, 0.169480
55743.6, 0.169939
56349.5, 0.171704
56968.7, 0.173059
57601.7, 0.173631
58248.9, 0.175421
58910.9, 0.178690
59588.1, 0.181796
60281.0, 0.184426
60990.2, 0.185219
61716.3, 0.185743
62459.8, 0.188109
63221.6, 0.189505
64002.1, 0.188189
64802.1, 0.188283
65622.1, 0.187723
66463.4, 0.188316
67326.6, 0.189219
68212.4, 0.190380
69121.9, 0.189907
70056.0, 0.188794
71015.7, 0.186201
72002.0, 0.189339
73016.3, 0.191245
74059.4, 0.199611
75132.7, 0.196421
76237.6, 0.183319
77375.5, 0.186874
78547.9, 0.190477
79756.3, 0.188591
81002.5, 0.187909
82288.5, 0.186744
83615.7, 0.181831
84986.5, 0.180025
86402.9, 0.176691
87867.4, 0.170993
89382.4, 0.165878
90950.5, 0.161787
92574.6, 0.160528
94257.2, 0.158375
96002.7, 0.155400
97814.1, 0.148475
99695.1, 0.129761
101650.0, 0.162032
103683.0, 0.163878
105799.0, 0.153186
108003.0, 0.146057
110301.0, 0.141577
112699.0, 0.136107
115204.0, 0.138856
117822.0, 0.138352
120562.0, 0.134465
123433.0, 0.134922
126443.0, 0.132515
129604.0, 0.125271
132926.0, 0.112597
136424.0, 0.104411
140111.0, 0.112317
144003.0, 0.122744
148118.0, 0.107524
152474.0, 0.118976
157095.0, 0.103945
162004.0, 0.0710150
167231.0, 0.0586480
172805.0, 0.0698400
178764.0, 0.0650330
185148.0, 0.385839
192005.0, 0.468174
199390.0, 0.282319
207366.0, 0.280829
216006.0, 0.280829
