Database of Origin, USGS Spectral Database
Sample Description, See USGS database for additional info
Date Added,2016-08-03 21:00:46.582362

Data ID,USGS_ano02          
Sample ID, anorthite_gds28.2570
Mineral Name, anorthite
Material Class,Tectosilicate

Wavelength
1642.63, 0.788896
1643.16, 0.789173
1643.68, 0.789284
1644.2, 0.789450
1644.72, 0.789561
1645.24, 0.789617
1645.76, 0.789450
1646.29, 0.789506
1646.81, 0.789561
1647.33, 0.789506
1647.86, 0.789672
1648.38, 0.789783
1648.9, 0.790005
1649.43, 0.790337
1649.95, 0.790559
1650.48, 0.790891
1651.0, 0.790947
1651.53, 0.790670
1652.06, 0.791002
1652.58, 0.791335
1653.11, 0.791723
1653.64, 0.791778
1654.17, 0.791667
1654.69, 0.791612
1655.22, 0.792055
1655.75, 0.791834
1656.28, 0.791834
1656.81, 0.792388
1657.34, 0.792665
1657.87, 0.792942
1658.4, 0.792942
1658.93, 0.792997
1659.46, 0.793219
1659.99, 0.793385
1660.52, 0.793330
1661.05, 0.793441
1661.59, 0.793940
1662.12, 0.793995
1662.65, 0.793995
1663.19, 0.794272
1663.72, 0.794494
1664.26, 0.794605
1664.79, 0.794494
1665.32, 0.794826
1665.86, 0.794993
1666.39, 0.795048
1666.93, 0.795159
1667.47, 0.795769
1668.0, 0.796046
1668.54, 0.795990
1669.08, 0.796378
1669.61, 0.796489
1670.15, 0.796545
1670.69, 0.796711
1671.23, 0.796932
1671.77, 0.797099
1672.31, 0.797376
1672.85, 0.797320
1673.39, 0.797653
1673.93, 0.797819
1674.47, 0.797764
1675.01, 0.798041
1675.55, 0.798318
1676.09, 0.798263
1676.64, 0.798207
1677.18, 0.798706
1677.72, 0.799094
1678.26, 0.799482
1678.81, 0.799648
1679.35, 0.799925
1679.89, 0.799981
1680.44, 0.799981
1680.98, 0.800092
1681.53, 0.800258
1682.07, 0.800369
1682.62, 0.800812
1683.17, 0.801145
1683.71, 0.800868
1684.26, 0.800868
1684.81, 0.801034
1685.36, 0.800978
1685.9, 0.801200
1686.45, 0.801754
1687.0, 0.802087
1687.55, 0.801976
1688.1, 0.802142
1688.65, 0.802364
1689.2, 0.802530
1689.75, 0.802974
1690.3, 0.803306
1690.85, 0.803528
1691.41, 0.803362
1691.96, 0.803362
1692.51, 0.803583
1693.06, 0.803583
1693.61, 0.803805
1694.17, 0.803860
1694.72, 0.803971
1695.28, 0.804082
1695.83, 0.804359
1696.39, 0.804636
1696.94, 0.804692
1697.5, 0.804692
1698.05, 0.804913
1698.61, 0.804969
1699.17, 0.805246
1699.72, 0.805412
1700.28, 0.805412
1700.84, 0.805634
1701.4, 0.805967
1701.95, 0.805911
1702.51, 0.806133
1703.07, 0.806410
1703.63, 0.806465
1704.19, 0.806244
1704.75, 0.806188
1705.31, 0.806244
1705.88, 0.806354
1706.44, 0.806410
1707.0, 0.806354
1707.56, 0.806465
1708.12, 0.806853
1708.69, 0.807130
1709.25, 0.807297
1709.81, 0.807297
1710.38, 0.807075
1710.94, 0.807130
1711.51, 0.807297
1712.07, 0.807352
1712.64, 0.807408
1713.2, 0.807463
1713.77, 0.807408
1714.34, 0.807629
1714.9, 0.807962
1715.47, 0.808183
1716.04, 0.808239
1716.61, 0.808239
1717.18, 0.808350
1717.74, 0.808405
1718.31, 0.808571
1718.88, 0.808461
1719.45, 0.808571
1720.02, 0.808738
1720.59, 0.808793
1721.17, 0.808848
1721.74, 0.809181
1722.31, 0.809347
1722.88, 0.809070
1723.45, 0.808959
1724.03, 0.809236
1724.6, 0.809569
1725.18, 0.809458
1725.75, 0.809347
1726.33, 0.809569
1726.9, 0.809735
1727.48, 0.809846
1728.05, 0.809846
1728.63, 0.809846
1729.2, 0.809957
1729.78, 0.810068
1730.36, 0.810345
1730.94, 0.810511
1731.51, 0.810567
1732.09, 0.810567
1732.67, 0.810511
1733.25, 0.810456
1733.83, 0.810733
1734.41, 0.811121
1734.99, 0.811121
1735.57, 0.811343
1736.15, 0.811343
1736.73, 0.811398
1737.32, 0.811564
1737.9, 0.812063
1738.48, 0.812008
1739.07, 0.811952
1739.65, 0.811897
1740.23, 0.811841
1740.82, 0.812008
1741.4, 0.812285
1741.99, 0.812340
1742.57, 0.812562
1743.16, 0.812728
1743.74, 0.812950
1744.33, 0.813449
1744.92, 0.813726
1745.51, 0.813892
1746.09, 0.814003
1746.68, 0.814114
1747.27, 0.814225
1747.86, 0.814280
1748.45, 0.814280
1749.04, 0.814280
1749.63, 0.814391
1750.22, 0.814280
1750.81, 0.814557
1751.4, 0.814890
1751.99, 0.815001
1752.59, 0.815056
1753.18, 0.815167
1753.77, 0.815222
1754.37, 0.815278
1754.96, 0.815333
1755.56, 0.815610
1756.15, 0.816109
1756.74, 0.816497
1757.34, 0.816552
1757.94, 0.816331
1758.53, 0.816109
1759.13, 0.816442
1759.73, 0.816552
1760.32, 0.816552
1760.92, 0.816608
1761.52, 0.816719
1762.12, 0.816940
1762.72, 0.817162
1763.32, 0.817439
1763.92, 0.817716
1764.52, 0.817883
1765.12, 0.817993
1765.72, 0.817827
1766.32, 0.817883
1766.92, 0.817883
1767.53, 0.818104
1768.13, 0.818437
1768.73, 0.818215
1769.34, 0.818215
1769.94, 0.818548
1770.55, 0.818825
1771.15, 0.818714
1771.76, 0.818714
1772.36, 0.818769
1772.97, 0.818991
1773.57, 0.819157
1774.18, 0.818936
1774.79, 0.819102
1775.4, 0.819379
1776.0, 0.819545
1776.61, 0.819490
1777.22, 0.819434
1777.83, 0.819601
1778.44, 0.819601
1779.05, 0.819656
1779.66, 0.819490
1780.27, 0.819712
1780.88, 0.820044
1781.5, 0.820210
1782.11, 0.819989
1782.72, 0.819767
1783.33, 0.819989
1783.95, 0.820044
1784.56, 0.820155
1785.18, 0.820210
1785.79, 0.820210
1786.41, 0.820210
1787.02, 0.820155
1787.64, 0.820099
1788.26, 0.820321
1788.87, 0.820432
1789.49, 0.820820
1790.11, 0.820598
1790.73, 0.820099
1791.35, 0.820155
1791.96, 0.820487
1792.58, 0.820321
1793.21, 0.820377
1793.83, 0.820377
1794.45, 0.820543
1795.07, 0.820820
1795.69, 0.820986
1796.31, 0.820986
1796.93, 0.820765
1797.56, 0.820875
1798.18, 0.820820
1798.8, 0.820986
1799.43, 0.820986
1800.05, 0.820875
1800.68, 0.821042
1801.3, 0.821042
1801.93, 0.821208
1802.56, 0.821153
1803.18, 0.821042
1803.81, 0.820986
1804.44, 0.821153
1805.07, 0.821374
1805.7, 0.821319
1806.33, 0.821153
1806.95, 0.821153
1807.58, 0.821208
1808.22, 0.821485
1808.85, 0.821541
1809.48, 0.821430
1810.11, 0.821153
1810.74, 0.821208
1811.38, 0.821485
1812.01, 0.821707
1812.64, 0.821596
1813.28, 0.821541
1813.91, 0.821651
1814.55, 0.821818
1815.18, 0.821762
1815.82, 0.821928
1816.45, 0.822095
1817.09, 0.822372
1817.73, 0.822261
1818.36, 0.822206
1819.0, 0.822316
1819.64, 0.822483
1820.28, 0.822815
1820.92, 0.823092
1821.56, 0.822982
1822.2, 0.823148
1822.84, 0.823203
1823.48, 0.823203
1824.12, 0.823148
1824.76, 0.823037
1825.41, 0.823314
1826.05, 0.823868
1826.69, 0.823868
1827.34, 0.823702
1827.98, 0.823924
1828.63, 0.824090
1829.27, 0.824201
1829.92, 0.824422
1830.56, 0.824422
1831.21, 0.824312
1831.86, 0.824367
1832.5, 0.824478
1833.15, 0.824256
1833.8, 0.824256
1834.45, 0.824755
1835.1, 0.824866
1835.75, 0.824977
1836.4, 0.825143
1837.05, 0.825088
1837.7, 0.825365
1838.35, 0.825420
1839.01, 0.825309
1839.66, 0.825531
1840.31, 0.825642
1840.96, 0.825420
1841.62, 0.825919
1842.27, 0.826196
1842.93, 0.826030
1843.58, 0.826030
1844.24, 0.826141
1844.9, 0.826030
1845.55, 0.825753
1846.21, 0.825697
1846.87, 0.826362
1847.53, 0.826695
1848.18, 0.826639
1848.84, 0.826639
1849.5, 0.826307
1850.16, 0.826362
1850.82, 0.826473
1851.48, 0.826584
1852.14, 0.826529
1852.81, 0.826695
1853.47, 0.826861
1854.13, 0.827083
1854.8, 0.826917
1855.46, 0.826695
1856.12, 0.826750
1856.79, 0.827027
1857.45, 0.827138
1858.12, 0.826972
1858.79, 0.826806
1859.45, 0.827027
1860.12, 0.827138
1860.79, 0.827249
1861.46, 0.826972
1862.12, 0.826861
1862.79, 0.826972
1863.46, 0.827083
1864.13, 0.827027
1864.8, 0.827194
1865.48, 0.827138
1866.15, 0.826861
1866.82, 0.826806
1867.49, 0.827083
1868.16, 0.827138
1868.84, 0.826750
1869.51, 0.826861
1870.19, 0.826861
1870.86, 0.827304
1871.54, 0.827027
1872.21, 0.826639
1872.89, 0.826917
1873.56, 0.826861
1874.24, 0.826806
1874.92, 0.826695
1875.6, 0.826418
1876.28, 0.826362
1876.96, 0.826529
1877.64, 0.826584
1878.32, 0.826639
1879.0, 0.826529
1879.68, 0.826251
1880.36, 0.826085
1881.04, 0.825974
1881.73, 0.826141
1882.41, 0.826030
1883.09, 0.825974
1883.78, 0.826362
1884.46, 0.826362
1885.15, 0.826141
1885.83, 0.826141
1886.52, 0.826196
1887.21, 0.825974
1887.89, 0.825919
1888.58, 0.826030
1889.27, 0.825919
1889.96, 0.825974
1890.65, 0.825974
1891.34, 0.825697
1892.03, 0.825365
1892.72, 0.825531
1893.41, 0.825531
1894.1, 0.825420
1894.79, 0.825309
1895.49, 0.825198
1896.18, 0.824977
1896.87, 0.824921
1897.57, 0.825032
1898.26, 0.824866
1898.96, 0.824644
1899.65, 0.824866
1900.35, 0.824977
1901.05, 0.824755
1901.74, 0.824589
1902.44, 0.824700
1903.14, 0.824921
1903.84, 0.824811
1904.54, 0.824700
1905.24, 0.824921
1905.94, 0.824921
1906.64, 0.824811
1907.34, 0.824422
1908.04, 0.824533
1908.75, 0.824755
1909.45, 0.824533
1910.15, 0.824589
1910.86, 0.824921
1911.56, 0.824866
1912.27, 0.824644
1912.97, 0.824811
1913.68, 0.825143
1914.39, 0.825088
1915.09, 0.824866
1915.8, 0.824866
1916.51, 0.825088
1917.22, 0.825143
1917.93, 0.825088
1918.64, 0.825088
1919.35, 0.825198
1920.06, 0.825476
1920.77, 0.825808
1921.48, 0.825808
1922.19, 0.825642
1922.91, 0.825642
1923.62, 0.825863
1924.33, 0.826141
1925.05, 0.826418
1925.76, 0.826418
1926.48, 0.826362
1927.19, 0.826141
1927.91, 0.826307
1928.63, 0.826307
1929.35, 0.826085
1930.07, 0.826196
1930.78, 0.826030
1931.5, 0.826141
1932.22, 0.826473
1932.94, 0.826418
1933.66, 0.826251
1934.39, 0.826529
1935.11, 0.826639
1935.83, 0.826861
1936.55, 0.826917
1937.28, 0.826806
1938.0, 0.826806
1938.73, 0.827027
1939.45, 0.826861
1940.18, 0.826972
1940.9, 0.827194
1941.63, 0.827304
1942.36, 0.827360
1943.09, 0.827360
1943.81, 0.827471
1944.54, 0.827194
1945.27, 0.826972
1946.0, 0.826972
1946.73, 0.827304
1947.47, 0.827304
1948.2, 0.827360
1948.93, 0.827304
1949.66, 0.827415
1950.4, 0.827360
1951.13, 0.827249
1951.86, 0.827138
1952.6, 0.827138
1953.34, 0.827027
1954.07, 0.827194
1954.81, 0.827027
1955.55, 0.827083
1956.29, 0.827083
1957.02, 0.826917
1957.76, 0.826972
1958.5, 0.827027
1959.24, 0.826917
1959.98, 0.826917
1960.72, 0.826806
1961.47, 0.826972
1962.21, 0.826861
1962.95, 0.826639
1963.7, 0.826529
1964.44, 0.826584
1965.18, 0.826529
1965.93, 0.826695
1966.67, 0.826584
1967.42, 0.826584
1968.17, 0.826362
1968.92, 0.826418
1969.66, 0.826307
1970.41, 0.826362
1971.16, 0.826418
1971.91, 0.826473
1972.66, 0.826196
1973.41, 0.826085
1974.16, 0.826141
1974.92, 0.826030
1975.67, 0.826030
1976.42, 0.825808
1977.18, 0.825642
1977.93, 0.825808
1978.69, 0.825808
1979.44, 0.825753
1980.2, 0.825753
1980.95, 0.825586
1981.71, 0.825531
1982.47, 0.825531
1983.23, 0.825531
1983.99, 0.825697
1984.74, 0.825586
1985.51, 0.825309
1986.27, 0.825476
1987.03, 0.825420
1987.79, 0.825420
1988.55, 0.825531
1989.32, 0.825586
1990.08, 0.825586
1990.84, 0.825531
1991.61, 0.825586
1992.37, 0.825586
1993.14, 0.825476
1993.9, 0.825753
1994.67, 0.825753
1995.44, 0.825863
1996.21, 0.825808
1996.98, 0.825697
1997.75, 0.825642
1998.52, 0.825697
1999.29, 0.825919
2000.06, 0.825808
2000.83, 0.825697
2001.6, 0.825808
2002.38, 0.826030
2003.15, 0.825974
2003.93, 0.825919
2004.7, 0.826141
2005.48, 0.826030
2006.25, 0.826307
2007.03, 0.826362
2007.81, 0.826085
2008.58, 0.826030
2009.36, 0.826251
2010.14, 0.826584
2010.92, 0.826806
2011.7, 0.826750
2012.48, 0.826750
2013.26, 0.827027
2014.05, 0.826972
2014.83, 0.826917
2015.61, 0.826861
2016.4, 0.826695
2017.18, 0.826917
2017.97, 0.827083
2018.75, 0.827194
2019.54, 0.827471
2020.32, 0.827637
2021.11, 0.827637
2021.9, 0.827637
2022.69, 0.827803
2023.48, 0.827803
2024.27, 0.827637
2025.06, 0.827526
2025.85, 0.827582
2026.64, 0.827692
2027.44, 0.827803
2028.23, 0.828080
2029.02, 0.828136
2029.82, 0.828025
2030.61, 0.827692
2031.41, 0.827748
2032.2, 0.828080
2033.0, 0.828468
2033.8, 0.828247
2034.6, 0.828302
2035.4, 0.828247
2036.2, 0.828080
2037.0, 0.828025
2037.8, 0.828136
2038.6, 0.828191
2039.4, 0.828358
2040.2, 0.828635
2041.01, 0.828635
2041.81, 0.828247
2042.61, 0.828136
2043.42, 0.828080
2044.22, 0.827970
2045.03, 0.828080
2045.84, 0.828025
2046.65, 0.828080
2047.46, 0.827914
2048.26, 0.827914
2049.07, 0.828136
2049.88, 0.828191
2050.69, 0.827914
2051.51, 0.827748
2052.32, 0.827803
2053.13, 0.827692
2053.94, 0.827637
2054.76, 0.827803
2055.57, 0.827526
2056.39, 0.827471
2057.2, 0.827415
2058.02, 0.827360
2058.84, 0.827415
2059.66, 0.827360
2060.48, 0.827304
2061.29, 0.827083
2062.11, 0.826806
2062.94, 0.826917
2063.76, 0.826917
2064.58, 0.826861
2065.4, 0.826695
2066.22, 0.826529
2067.05, 0.826473
2067.87, 0.826418
2068.7, 0.826196
2069.52, 0.826141
2070.35, 0.825919
2071.18, 0.825808
2072.0, 0.825642
2072.83, 0.825697
2073.66, 0.825863
2074.49, 0.825642
2075.32, 0.825531
2076.15, 0.825198
2076.98, 0.824866
2077.82, 0.824866
2078.65, 0.824811
2079.48, 0.824644
2080.32, 0.824422
2081.15, 0.824367
2081.99, 0.824035
2082.83, 0.823813
2083.66, 0.823924
2084.5, 0.823924
2085.34, 0.823757
2086.18, 0.823813
2087.02, 0.824035
2087.86, 0.824201
2088.7, 0.823813
2089.54, 0.823647
2090.39, 0.823868
2091.23, 0.824035
2092.07, 0.823979
2092.92, 0.824035
2093.76, 0.823979
2094.61, 0.823868
2095.45, 0.823480
2096.3, 0.823591
2097.15, 0.823924
2098.0, 0.823757
2098.85, 0.823647
2099.7, 0.823591
2100.55, 0.823536
2101.4, 0.823314
2102.25, 0.823314
2103.1, 0.823425
2103.96, 0.823591
2104.81, 0.823868
2105.67, 0.823591
2106.52, 0.823425
2107.38, 0.823370
2108.24, 0.823536
2109.09, 0.823370
2109.95, 0.823370
2110.81, 0.823757
2111.67, 0.823868
2112.53, 0.823536
2113.39, 0.823536
2114.25, 0.823536
2115.12, 0.823425
2115.98, 0.823591
2116.84, 0.823868
2117.71, 0.823757
2118.58, 0.823757
2119.44, 0.823924
2120.31, 0.824035
2121.18, 0.824090
2122.04, 0.824035
2122.91, 0.824035
2123.78, 0.824035
2124.65, 0.824201
2125.52, 0.824312
2126.4, 0.824312
2127.27, 0.824145
2128.14, 0.824422
2129.02, 0.824644
2129.89, 0.824589
2130.77, 0.824422
2131.64, 0.824422
2132.52, 0.824367
2133.4, 0.824367
2134.27, 0.824533
2135.15, 0.824589
2136.03, 0.824589
2136.91, 0.824533
2137.79, 0.824589
2138.68, 0.824644
2139.56, 0.824589
2140.44, 0.824644
2141.33, 0.824533
2142.21, 0.824367
2143.1, 0.824367
2143.99, 0.824367
2144.87, 0.824580
2145.76, 0.824420
2146.65, 0.824420
2147.54, 0.824048
2148.43, 0.824048
2149.32, 0.824526
2150.21, 0.824686
2151.1, 0.824526
2151.99, 0.823783
2152.89, 0.823517
2153.78, 0.823464
2154.68, 0.823677
2155.57, 0.823305
2156.47, 0.822455
2157.37, 0.822402
2158.27, 0.822561
2159.16, 0.822667
2160.06, 0.822721
2160.96, 0.822242
2161.86, 0.821605
2162.77, 0.821393
2163.67, 0.820702
2164.57, 0.820383
2165.48, 0.820330
2166.38, 0.820649
2167.29, 0.820490
2168.2, 0.820490
2169.1, 0.820065
2170.01, 0.820277
2170.92, 0.819905
2171.83, 0.820065
2172.74, 0.820596
2173.65, 0.820490
2174.56, 0.820277
2175.47, 0.820596
2176.39, 0.820330
2177.3, 0.820224
2178.22, 0.820596
2179.13, 0.820330
2180.05, 0.820118
2180.96, 0.819905
2181.88, 0.819852
2182.8, 0.819905
2183.72, 0.819427
2184.64, 0.819321
2185.56, 0.819427
2186.48, 0.820012
2187.41, 0.820171
2188.33, 0.819587
2189.25, 0.819321
2190.18, 0.819587
2191.1, 0.819693
2192.03, 0.818949
2192.96, 0.818737
2193.89, 0.818577
2194.82, 0.818790
2195.74, 0.818896
2196.68, 0.818790
2197.61, 0.818790
2198.54, 0.818790
2199.47, 0.817993
2200.4, 0.817728
2201.34, 0.817781
2202.28, 0.817728
2203.21, 0.817621
2204.15, 0.817834
2205.08, 0.817621
2206.02, 0.816984
2206.96, 0.817143
2207.9, 0.817356
2208.84, 0.817037
2209.78, 0.817143
2210.73, 0.817250
2211.67, 0.817356
2212.61, 0.817143
2213.56, 0.816718
2214.5, 0.816559
2215.45, 0.816931
2216.4, 0.817250
2217.35, 0.817143
2218.3, 0.816665
2219.24, 0.816825
2220.2, 0.817143
2221.15, 0.816453
2222.1, 0.816028
2223.05, 0.816187
2224.0, 0.816081
2224.96, 0.816347
2225.91, 0.816718
2226.87, 0.816187
2227.83, 0.815815
2228.79, 0.815390
2229.74, 0.815497
2230.7, 0.815922
2231.66, 0.815709
2232.63, 0.814912
2233.59, 0.814700
2234.55, 0.815178
2235.51, 0.814966
2236.48, 0.814541
2237.44, 0.814487
2238.41, 0.814434
2239.38, 0.814222
2240.34, 0.814594
2241.31, 0.815072
2242.28, 0.814700
2243.25, 0.814434
2244.22, 0.814063
2245.19, 0.813584
2246.17, 0.813531
2247.14, 0.813691
2248.12, 0.813744
2249.09, 0.813319
2250.07, 0.813160
2251.04, 0.812841
2252.02, 0.812310
2253.0, 0.812363
2253.98, 0.812575
2254.96, 0.812522
2255.94, 0.812575
2256.92, 0.812363
2257.91, 0.812203
2258.89, 0.812203
2259.88, 0.811991
2260.86, 0.811672
2261.85, 0.811832
2262.83, 0.811672
2263.82, 0.811832
2264.81, 0.811832
2265.8, 0.811619
2266.79, 0.811141
2267.78, 0.811035
2268.78, 0.810876
2269.77, 0.811088
2270.76, 0.811035
2271.76, 0.811141
2272.75, 0.811141
2273.75, 0.810822
2274.75, 0.810026
2275.75, 0.809813
2276.75, 0.809973
2277.75, 0.810185
2278.75, 0.810185
2279.75, 0.809707
2280.75, 0.809388
2281.76, 0.808963
2282.76, 0.808963
2283.77, 0.809070
2284.77, 0.809017
2285.78, 0.808804
2286.79, 0.808698
2287.8, 0.808220
2288.81, 0.808220
2289.82, 0.808220
2290.83, 0.807635
2291.84, 0.807529
2292.86, 0.807689
2293.87, 0.806998
2294.89, 0.806414
2295.91, 0.806573
2296.92, 0.806626
2297.94, 0.806573
2298.96, 0.806573
2299.98, 0.805989
2301.0, 0.805298
2302.02, 0.805405
2303.04, 0.805351
2304.07, 0.805458
2305.09, 0.805033
2306.12, 0.804608
2307.15, 0.804502
2308.17, 0.804608
2309.2, 0.804608
2310.23, 0.804502
2311.26, 0.804448
2312.29, 0.804767
2313.32, 0.804555
2314.35, 0.804661
2315.39, 0.804820
2316.42, 0.804820
2317.46, 0.804820
2318.5, 0.804767
2319.53, 0.804714
2320.57, 0.804661
2321.61, 0.804714
2322.65, 0.804873
2323.69, 0.804873
2324.73, 0.804927
2325.78, 0.804980
2326.82, 0.804927
2327.86, 0.804927
2328.91, 0.805245
2329.96, 0.804980
2331.01, 0.804714
2332.05, 0.804395
2333.1, 0.804502
2334.15, 0.804661
2335.21, 0.804448
2336.26, 0.804077
2337.31, 0.804130
2338.36, 0.804395
2339.42, 0.804342
2340.48, 0.803864
2341.53, 0.803917
2342.59, 0.804024
2343.65, 0.803811
2344.71, 0.803599
2345.77, 0.803599
2346.83, 0.803546
2347.9, 0.803546
2348.96, 0.803227
2350.02, 0.803014
2351.09, 0.803067
2352.16, 0.803014
2353.23, 0.802908
2354.29, 0.802855
2355.36, 0.802483
2356.43, 0.802696
2357.51, 0.802643
2358.58, 0.802749
2359.65, 0.802961
2360.73, 0.802802
2361.8, 0.802589
2362.88, 0.802111
2363.96, 0.801686
2365.03, 0.801580
2366.11, 0.801793
2367.19, 0.801846
2368.27, 0.801952
2369.36, 0.801474
2370.44, 0.801261
2371.53, 0.801261
2372.61, 0.800837
2373.7, 0.800358
2374.78, 0.800305
2375.87, 0.800571
2376.96, 0.800624
2378.05, 0.800730
2379.14, 0.800624
2380.24, 0.800518
2381.33, 0.800146
2382.42, 0.800199
2383.52, 0.800146
2384.61, 0.799721
2385.71, 0.799084
2386.81, 0.799243
2387.91, 0.799296
2389.01, 0.799243
2390.11, 0.799031
2391.22, 0.798977
2392.32, 0.799031
2393.42, 0.799243
2394.53, 0.798606
2395.64, 0.798446
2396.74, 0.798181
2397.85, 0.798393
2398.96, 0.798446
2400.07, 0.798287
2401.18, 0.797915
2402.3, 0.797968
2403.41, 0.797915
2404.52, 0.797968
2405.64, 0.797862
2406.76, 0.797331
2407.88, 0.797490
2408.99, 0.797278
2410.11, 0.796747
2411.23, 0.796906
2412.36, 0.797012
2413.48, 0.796693
2414.6, 0.796375
2415.73, 0.796162
2416.85, 0.796428
2417.98, 0.796587
2419.11, 0.796056
2420.24, 0.795737
2421.37, 0.795631
2422.5, 0.795419
2423.64, 0.795366
2424.77, 0.795472
2425.9, 0.795312
2427.04, 0.795047
2428.18, 0.794994
2429.31, 0.794781
2430.45, 0.794569
2431.59, 0.794569
2432.73, 0.794144
2433.88, 0.794197
2435.02, 0.793825
2436.16, 0.793613
2437.31, 0.793666
2438.45, 0.793560
2439.6, 0.793082
2440.75, 0.792975
2441.9, 0.792922
2443.05, 0.792922
2444.2, 0.792550
2445.35, 0.792338
2446.51, 0.792072
2447.67, 0.792550
2448.82, 0.792125
2449.98, 0.791541
2451.14, 0.791647
2452.3, 0.791754
2453.46, 0.791329
2454.62, 0.791063
2455.78, 0.791169
2456.94, 0.791382
2458.11, 0.791010
2459.28, 0.790798
2460.44, 0.790798
2461.61, 0.790638
2462.78, 0.790585
2463.95, 0.790691
2465.12, 0.790638
2466.3, 0.790532
2467.47, 0.790373
2468.65, 0.790532
2469.82, 0.790107
2471.0, 0.789523
2472.18, 0.789310
2473.36, 0.789576
2474.54, 0.789523
2475.72, 0.789682
2476.9, 0.789523
2478.08, 0.789151
2479.27, 0.788885
2480.46, 0.788885
2481.64, 0.789257
2482.83, 0.789098
2484.02, 0.788779
2485.21, 0.788673
2486.4, 0.788089
2487.6, 0.788354
2488.79, 0.788779
2489.99, 0.788567
2491.18, 0.787982
2492.38, 0.788089
2493.58, 0.787982
2494.78, 0.787664
2495.98, 0.787557
2497.18, 0.787876
2498.39, 0.787876
2499.59, 0.788036
2500.8, 0.787770
2502.01, 0.787557
2503.21, 0.787026
2504.42, 0.786973
2505.63, 0.786655
2506.84, 0.786708
2508.06, 0.786920
2509.27, 0.786973
2510.49, 0.786601
2511.7, 0.786655
2512.92, 0.786495
2514.14, 0.786123
2515.36, 0.785592
2516.58, 0.785433
2517.8, 0.785698
2519.03, 0.785805
2520.25, 0.786123
2521.48, 0.786283
2522.7, 0.785008
2523.93, 0.784158
2525.16, 0.784477
2526.39, 0.784795
2527.62, 0.784902
2528.86, 0.784795
2530.09, 0.783414
2531.33, 0.781715
2532.56, 0.781343
2533.8, 0.782883
2535.04, 0.781237
2536.28, 0.780121
2537.52, 0.782989
2538.76, 0.784530
2540.01, 0.784689
2541.25, 0.781980
2542.5, 0.778209
2543.75, 0.778953
2544.99, 0.781502
2546.24, 0.781396
2547.49, 0.778740
2548.75, 0.780174
2550.0, 0.779377
2551.26, 0.776403
2552.51, 0.774969
2553.77, 0.779537
2555.03, 0.783627
2556.29, 0.783946
2557.55, 0.783574
2558.81, 0.779856
2560.08, 0.769870
2561.34, 0.762115
2562.61, 0.761796
2563.88, 0.764080
2565.14, 0.772632
2566.41, 0.780227
2567.68, 0.777625
2568.96, 0.769710
2570.23, 0.771729
2571.51, 0.775234
2572.78, 0.765461
2574.06, 0.767851
2575.34, 0.770773
2576.62, 0.766523
2577.9, 0.772844
2579.18, 0.777040
2580.47, 0.770295
2581.75, 0.767745
2583.04, 0.759246
2584.32, 0.759937
2585.61, 0.767851
2586.9, 0.763336
2588.2, 0.764664
2589.49, 0.770295
2590.78, 0.775022
2592.08, 0.769498
2593.37, 0.747614
2594.67, 0.728811
2595.97, 0.748464
2597.27, 0.769126
2598.57, 0.776562
2599.88, 0.774119
2601.18, 0.767692
2602.49, 0.763230
2603.79, 0.756166
2605.1, 0.750004
2606.41, 0.755528
2607.72, 0.762486
2609.03, 0.764611
2610.35, 0.768595
2611.66, 0.771198
2612.98, 0.769020
2614.3, 0.769339
2615.62, 0.756856
2616.94, 0.749367
2618.26, 0.759512
2619.58, 0.755688
2620.91, 0.759512
2622.23, 0.772950
2623.56, 0.775978
2624.89, 0.769817
2626.22, 0.758609
2627.55, 0.763549
2628.88, 0.759778
2630.21, 0.749739
2631.55, 0.760415
2632.89, 0.764983
2634.22, 0.766417
2635.56, 0.773428
2636.9, 0.775659
2638.25, 0.775819
2639.59, 0.774650
2640.93, 0.772366
2642.28, 0.771357
2643.63, 0.772154
2644.98, 0.766417
2646.33, 0.767054
2647.68, 0.772632
2649.03, 0.774544
2650.39, 0.770613
2651.74, 0.762008
2653.1, 0.762062
2654.46, 0.764664
2655.82, 0.765408
2657.18, 0.769551
2658.54, 0.763283
2659.9, 0.759193
2661.27, 0.761052
2662.64, 0.761212
2664.01, 0.746764
2665.38, 0.733485
2666.74, 0.734919
2668.12, 0.744374
2669.49, 0.731095
2670.87, 0.731573
2672.24, 0.752288
2673.62, 0.756325
2675.0, 0.747401
2676.38, 0.735663
2677.76, 0.737415
2679.15, 0.743577
2680.54, 0.755528
2681.92, 0.757015
2683.31, 0.752341
2684.7, 0.751757
2686.09, 0.751438
2687.48, 0.753404
2688.88, 0.755688
2690.27, 0.756856
2691.67, 0.750535
2693.07, 0.735981
2694.47, 0.732051
2695.87, 0.739540
2697.27, 0.747242
2698.67, 0.747933
2700.08, 0.740443
2701.49, 0.735556
2702.9, 0.739221
2704.31, 0.738584
2705.72, 0.736035
2707.13, 0.729554
2708.54, 0.716806
2709.96, 0.705227
2711.38, 0.706502
2712.8, 0.715107
2714.22, 0.712291
2715.64, 0.701137
2717.06, 0.679094
2718.49, 0.644568
2719.91, 0.597454
2721.34, 0.587627
2722.77, 0.608661
2724.2, 0.627199
2725.63, 0.653014
2727.07, 0.675535
2728.5, 0.686264
2729.94, 0.690301
2731.38, 0.691417
2732.82, 0.688070
2734.26, 0.679359
2735.7, 0.680793
2737.15, 0.678350
2738.59, 0.660609
2740.04, 0.651473
2741.49, 0.657582
2742.94, 0.669427
2744.39, 0.674473
2745.84, 0.675535
2747.3, 0.675641
2748.76, 0.674632
2750.21, 0.672348
2751.67, 0.668470
2753.14, 0.662150
2754.6, 0.645099
2756.06, 0.645418
2757.53, 0.658644
2759.0, 0.661300
2760.46, 0.655457
2761.94, 0.644196
2763.41, 0.641700
2764.88, 0.644993
2766.36, 0.641753
2767.83, 0.637450
2769.31, 0.634635
2770.79, 0.630227
2772.27, 0.632404
2773.76, 0.634635
2775.24, 0.632139
2776.73, 0.627783
2778.22, 0.625765
2779.71, 0.622737
2781.2, 0.619763
2782.69, 0.619975
2784.18, 0.619975
2785.68, 0.612539
2787.18, 0.607440
2788.68, 0.612433
2790.18, 0.617107
2791.68, 0.617160
2793.19, 0.616310
2794.69, 0.615779
2796.2, 0.614982
2797.71, 0.614239
2799.22, 0.613867
2800.73, 0.609405
2802.24, 0.601278
2803.76, 0.600641
2805.28, 0.606643
2806.8, 0.609405
2808.32, 0.609830
2809.84, 0.610202
2811.36, 0.610520
2812.89, 0.609246
2814.42, 0.607386
2815.94, 0.607811
2817.48, 0.607493
2819.01, 0.604943
2820.54, 0.604890
2822.08, 0.606749
2823.61, 0.608077
2825.15, 0.607652
2826.69, 0.606271
2828.23, 0.605687
2829.78, 0.605740
2831.32, 0.604199
2832.87, 0.601969
2834.42, 0.600110
2835.97, 0.599366
2837.52, 0.598250
2839.08, 0.597985
2840.63, 0.597719
2842.19, 0.596763
2843.75, 0.595648
2845.31, 0.594214
2846.87, 0.592301
2848.44, 0.590124
2850.0, 0.589168
2851.57, 0.588583
2853.14, 0.586140
2854.71, 0.584759
2856.28, 0.585078
2857.86, 0.584812
2859.43, 0.583750
2861.01, 0.583059
2862.59, 0.582634
2864.17, 0.582156
2865.76, 0.581147
2867.34, 0.580616
2868.93, 0.580403
2870.52, 0.579447
2872.11, 0.578704
2873.7, 0.579075
2875.29, 0.579288
2876.89, 0.579075
2878.49, 0.578810
2880.08, 0.578757
2881.69, 0.578332
2883.29, 0.578119
2884.89, 0.578066
2886.5, 0.578013
2888.11, 0.577535
2889.72, 0.577748
2891.33, 0.578172
2892.94, 0.578279
2894.56, 0.578172
2896.17, 0.577960
2897.79, 0.577960
2899.42, 0.577004
2901.04, 0.576207
2902.66, 0.577057
2904.29, 0.577482
2905.92, 0.577907
2907.55, 0.577854
2909.18, 0.577748
2910.81, 0.577907
2912.45, 0.577960
2914.08, 0.577694
2915.72, 0.577535
2917.36, 0.577535
2919.01, 0.577801
2920.65, 0.577535
2922.3, 0.577004
2923.94, 0.577269
2925.59, 0.577801
2927.25, 0.577801
2928.9, 0.577588
2930.56, 0.577376
2932.21, 0.577482
2933.87, 0.577535
2935.53, 0.577429
2937.2, 0.577163
2938.86, 0.577057
2940.53, 0.577004
2942.2, 0.576845
2943.87, 0.576579
2945.54, 0.576313
2947.22, 0.575995
2948.89, 0.576101
2950.57, 0.575995
2952.25, 0.575888
2953.93, 0.575676
2955.62, 0.575782
2957.3, 0.575623
2958.99, 0.575463
2960.68, 0.575304
2962.37, 0.575357
2964.07, 0.575198
2965.76, 0.575251
2967.46, 0.574985
2969.16, 0.574773
2970.86, 0.574614
2972.56, 0.574561
2974.27, 0.574614
2975.98, 0.574720
2977.69, 0.574720
2979.4, 0.574773
2981.11, 0.574932
2982.83, 0.575092
2984.54, 0.575039
2986.26, 0.575410
2987.98, 0.575623
2989.71, 0.575517
2991.43, 0.575570
2993.16, 0.575995
2994.89, 0.576154
2996.62, 0.576101
2998.35, 0.576260
3000.09, 0.576685
3001.83, 0.576951
3003.57, 0.577110
3005.31, 0.577269
3007.05, 0.577482
3008.79, 0.577854
3010.54, 0.578332
3012.29, 0.578704
3014.04, 0.579022
3015.8, 0.579341
3017.55, 0.579553
3019.31, 0.579713
3021.07, 0.579925
3022.83, 0.580191
3024.59, 0.580510
3026.36, 0.581094
3028.13, 0.581731
3029.9, 0.581944
3031.67, 0.581944
3033.44, 0.582050
3035.22, 0.582475
3037.0, 0.582634
3038.78, 0.582953
3040.56, 0.583112
3042.34, 0.583537
3044.13, 0.583803
3045.92, 0.584121
3047.71, 0.584334
3049.5, 0.584493
3051.3, 0.584387
3053.09, 0.584653
3054.89, 0.585078
3056.69, 0.585662
3058.5, 0.585981
3060.3, 0.586087
3062.11, 0.586299
3063.92, 0.586671
3065.73, 0.586884
3067.55, 0.587043
3069.36, 0.587096
3071.18, 0.587468
3073.0, 0.587680
3074.82, 0.588052
3076.65, 0.588371
3078.48, 0.588636
3080.31, 0.588743
3082.14, 0.588955
3083.97, 0.589433
3085.8, 0.589858
3087.64, 0.589911
3089.48, 0.590177
3091.33, 0.590495
3093.17, 0.590973
3095.02, 0.591133
3096.87, 0.591611
3098.72, 0.592089
3100.57, 0.592673
3102.43, 0.593098
3104.28, 0.593098
3106.14, 0.593258
3108.01, 0.593789
3109.87, 0.594160
3111.74, 0.594426
3113.61, 0.594798
3115.48, 0.595276
3117.35, 0.595860
3119.23, 0.596391
3121.1, 0.596763
3122.98, 0.597241
3124.87, 0.597507
3126.75, 0.597985
3128.64, 0.598622
3130.53, 0.599153
3132.42, 0.599738
3134.31, 0.600216
3136.21, 0.600641
3138.11, 0.601066
3140.01, 0.601544
3141.91, 0.602234
3143.82, 0.602712
3145.73, 0.603084
3147.64, 0.603668
3149.55, 0.604253
3151.46, 0.604731
3153.38, 0.605315
3155.3, 0.605793
3157.22, 0.606430
3159.14, 0.606962
3161.07, 0.607546
3163.0, 0.607918
3164.93, 0.608449
3166.86, 0.609086
3168.8, 0.609458
3170.74, 0.609883
3172.68, 0.610467
3174.62, 0.610998
3176.56, 0.611476
3178.51, 0.611848
3180.46, 0.612379
3182.42, 0.613017
3184.37, 0.613601
3186.33, 0.613920
3188.29, 0.614398
3190.25, 0.614823
3192.21, 0.615248
3194.18, 0.615885
3196.15, 0.616310
3198.12, 0.616629
3200.09, 0.617054
3202.07, 0.617372
3204.05, 0.617957
3206.03, 0.618541
3208.02, 0.618966
3210.0, 0.619338
3211.99, 0.620081
3213.98, 0.620559
3215.98, 0.621037
3217.97, 0.621728
3219.97, 0.622206
3221.97, 0.622472
3223.98, 0.622737
3225.98, 0.623268
3227.99, 0.623746
3230.0, 0.624012
3232.02, 0.624596
3234.03, 0.624968
3236.05, 0.625499
3238.07, 0.626030
3240.1, 0.626508
3242.12, 0.626880
3244.15, 0.627146
3246.18, 0.627358
3248.22, 0.627836
3250.25, 0.628421
3252.29, 0.628952
3254.33, 0.629377
3256.38, 0.629802
3258.43, 0.630014
3260.47, 0.630386
3262.53, 0.630811
3264.58, 0.631448
3266.64, 0.631979
3268.7, 0.632298
3270.76, 0.632776
3272.82, 0.633254
3274.89, 0.633732
3276.96, 0.634051
3279.04, 0.634317
3281.11, 0.635007
3283.19, 0.635591
3285.27, 0.636069
3287.35, 0.636388
3289.44, 0.636707
3291.53, 0.637079
3293.62, 0.637397
3295.71, 0.637663
3297.81, 0.637822
3299.91, 0.638141
3302.01, 0.638831
3304.11, 0.639044
3306.22, 0.639522
3308.33, 0.640106
3310.44, 0.640266
3312.56, 0.640425
3314.68, 0.640637
3316.8, 0.640797
3318.92, 0.641062
3321.05, 0.641381
3323.18, 0.641806
3325.31, 0.642125
3327.44, 0.642443
3329.58, 0.642656
3331.72, 0.642709
3333.86, 0.642656
3336.01, 0.642603
3338.16, 0.642603
3340.31, 0.642603
3342.46, 0.642337
3344.61, 0.642125
3346.77, 0.641753
3348.94, 0.641222
3351.1, 0.640478
3353.27, 0.639787
3355.44, 0.639097
3357.61, 0.638247
3359.79, 0.637132
3361.97, 0.635857
3364.15, 0.634104
3366.33, 0.632245
3368.52, 0.630439
3370.71, 0.628899
3372.9, 0.627783
3375.1, 0.627093
3377.3, 0.627040
3379.5, 0.627624
3381.71, 0.628633
3383.91, 0.629748
3386.12, 0.630386
3388.34, 0.630811
3390.55, 0.630651
3392.77, 0.629908
3394.99, 0.628474
3397.22, 0.626615
3399.45, 0.624543
3401.68, 0.622259
3403.91, 0.619763
3406.15, 0.617107
3408.39, 0.614770
3410.63, 0.612751
3412.87, 0.610892
3415.12, 0.609830
3417.37, 0.609670
3419.63, 0.610627
3421.88, 0.612379
3424.14, 0.615088
3426.41, 0.618328
3428.67, 0.621622
3430.94, 0.624437
3433.21, 0.627040
3435.49, 0.629217
3437.77, 0.631023
3440.05, 0.632564
3442.33, 0.634051
3444.62, 0.635326
3446.91, 0.636600
3449.2, 0.637769
3451.5, 0.638885
3453.8, 0.639947
3456.1, 0.641115
3458.41, 0.641859
3460.72, 0.642656
3463.03, 0.643028
3465.34, 0.643346
3467.66, 0.643399
3469.98, 0.643453
3472.31, 0.643506
3474.63, 0.643665
3476.96, 0.643718
3479.3, 0.643824
3481.64, 0.643878
3483.97, 0.643718
3486.32, 0.643346
3488.66, 0.642603
3491.01, 0.641381
3493.36, 0.639787
3495.72, 0.638035
3498.08, 0.636494
3500.44, 0.635538
3502.81, 0.636176
3505.18, 0.637982
3507.55, 0.640691
3509.92, 0.643718
3512.3, 0.647064
3514.68, 0.650305
3517.06, 0.653226
3519.45, 0.655616
3521.84, 0.657369
3524.24, 0.658803
3526.64, 0.659919
3529.04, 0.660875
3531.44, 0.661725
3533.85, 0.662415
3536.26, 0.662893
3538.67, 0.663531
3541.09, 0.664062
3543.51, 0.664487
3545.93, 0.664912
3548.36, 0.665177
3550.79, 0.665655
3553.22, 0.666133
3555.66, 0.666505
3558.1, 0.666877
3560.54, 0.667196
3562.99, 0.667514
3565.44, 0.667939
3567.9, 0.668311
3570.35, 0.668577
3572.81, 0.668895
3575.28, 0.669161
3577.75, 0.669373
3580.22, 0.669745
3582.69, 0.670064
3585.17, 0.670117
3587.65, 0.670329
3590.14, 0.670595
3592.62, 0.670914
3595.11, 0.671126
3597.61, 0.671232
3600.11, 0.671445
3602.61, 0.671657
3605.11, 0.671870
3607.62, 0.671870
3610.14, 0.672082
3612.65, 0.672242
3615.17, 0.672560
3617.69, 0.672613
3620.22, 0.672613
3622.75, 0.672613
3625.28, 0.672932
3627.82, 0.673251
3630.36, 0.673251
3632.9, 0.673304
3635.45, 0.673463
3638.0, 0.673410
3640.56, 0.673516
3643.12, 0.673676
3645.68, 0.673729
3648.24, 0.673676
3650.81, 0.673835
3653.39, 0.673835
3655.96, 0.673888
3658.54, 0.674101
3661.13, 0.674313
3663.71, 0.674366
3666.3, 0.674419
3668.9, 0.674526
3671.5, 0.674791
3674.1, 0.674844
3676.7, 0.674897
3679.31, 0.675057
3681.93, 0.675216
3684.54, 0.675269
3687.17, 0.675482
3689.79, 0.675747
3692.42, 0.675960
3695.05, 0.676066
3697.69, 0.676172
3700.32, 0.676225
3702.97, 0.676491
3705.61, 0.676703
3708.27, 0.676916
3710.92, 0.677075
3713.58, 0.677288
3716.24, 0.677341
3718.91, 0.677394
3721.58, 0.677447
3724.25, 0.677660
3726.93, 0.677766
3729.61, 0.677872
3732.29, 0.678031
3734.98, 0.678297
3737.67, 0.678509
3740.37, 0.678563
3743.07, 0.678563
3745.78, 0.678722
3748.49, 0.678775
3751.2, 0.678881
3753.91, 0.678987
3756.63, 0.679094
3759.36, 0.679094
3762.09, 0.679041
3764.82, 0.678987
3767.55, 0.679094
3770.29, 0.679094
3773.04, 0.679094
3775.78, 0.678934
3778.54, 0.678934
3781.29, 0.678987
3784.05, 0.679041
3786.82, 0.679041
3789.59, 0.678934
3792.36, 0.678828
3795.13, 0.678722
3797.92, 0.678509
3800.7, 0.678403
3803.49, 0.678244
3806.28, 0.678244
3809.08, 0.678138
3811.88, 0.677978
3814.68, 0.677819
3817.49, 0.677819
3820.31, 0.677660
3823.12, 0.677606
3825.94, 0.677447
3828.77, 0.677447
3831.6, 0.677288
3834.43, 0.677128
3837.27, 0.676969
3840.11, 0.676916
3842.96, 0.676810
3845.81, 0.676650
3848.67, 0.676385
3851.53, 0.676172
3854.39, 0.676013
3857.26, 0.675907
3860.13, 0.675854
3863.01, 0.675801
3865.89, 0.675641
3868.77, 0.675588
3871.66, 0.675322
3874.55, 0.675216
3877.45, 0.675110
3880.35, 0.674738
3883.26, 0.674473
3886.17, 0.674313
3889.09, 0.674207
3892.01, 0.674101
3894.93, 0.673888
3897.86, 0.673676
3900.79, 0.673463
3903.73, 0.673304
3906.67, 0.673092
3909.62, 0.672879
3912.57, 0.672613
3915.52, 0.672454
3918.48, 0.672082
3921.45, 0.671870
3924.42, 0.671710
3927.39, 0.671604
3930.37, 0.671286
3933.35, 0.670967
3936.34, 0.670701
3939.33, 0.670648
3942.32, 0.670383
3945.32, 0.670329
3948.33, 0.670064
3951.34, 0.669798
3954.35, 0.669639
3957.37, 0.669373
3960.39, 0.669055
3963.42, 0.668948
3966.45, 0.668789
3969.49, 0.668630
3972.53, 0.668417
3975.58, 0.668311
3978.63, 0.667992
3981.68, 0.667727
3984.75, 0.667567
3987.81, 0.667355
3990.88, 0.667089
3993.95, 0.666930
3997.03, 0.666718
4000.12, 0.666452
4003.21, 0.666240
4006.3, 0.666027
4009.4, 0.665655
4012.5, 0.665390
4015.61, 0.665177
4018.72, 0.664912
4021.84, 0.664593
4024.96, 0.664434
4028.09, 0.664062
4031.22, 0.663743
4034.36, 0.663318
4037.5, 0.663159
4040.65, 0.662787
4043.8, 0.662362
4046.96, 0.661884
4050.12, 0.661565
4053.29, 0.661087
4056.46, 0.660822
4059.64, 0.660503
4062.82, 0.660184
4066.0, 0.659919
4069.19, 0.659494
4072.39, 0.658909
4075.59, 0.658538
4078.8, 0.658166
4082.01, 0.657847
4085.23, 0.657475
4088.45, 0.657103
4091.68, 0.656625
4094.91, 0.656254
4098.15, 0.655722
4101.39, 0.655298
4104.63, 0.654873
4107.89, 0.654448
4111.14, 0.654129
4114.41, 0.653757
4117.67, 0.653120
4120.95, 0.652695
4124.23, 0.652323
4127.51, 0.651951
4130.8, 0.651473
4134.09, 0.651048
4137.39, 0.650570
4140.7, 0.650039
4144.01, 0.649508
4147.32, 0.649083
4150.64, 0.648552
4153.97, 0.648074
4157.3, 0.647383
4160.64, 0.646905
4163.98, 0.646321
4167.33, 0.645683
4170.68, 0.645099
4174.04, 0.644515
4177.4, 0.643771
4180.77, 0.643187
4184.14, 0.642390
4187.52, 0.641593
4190.91, 0.640584
4194.3, 0.639363
4197.69, 0.637822
4201.1, 0.635644
4204.5, 0.632935
4207.92, 0.629855
4211.34, 0.626296
4214.76, 0.622578
4218.19, 0.618860
4221.62, 0.615354
4225.06, 0.612220
4228.51, 0.609564
4231.96, 0.607705
4235.42, 0.606537
4238.88, 0.605846
4242.35, 0.605899
4245.83, 0.606802
4249.31, 0.608821
4252.79, 0.611636
4256.28, 0.612804
4259.78, 0.609352
4263.29, 0.604146
4266.79, 0.600110
4270.31, 0.597294
4273.83, 0.595064
4277.35, 0.593098
4280.89, 0.591398
4284.42, 0.589858
4287.97, 0.588318
4291.52, 0.586830
4295.07, 0.585396
4298.63, 0.584281
4302.2, 0.583059
4305.78, 0.581997
4309.35, 0.580881
4312.94, 0.579925
4316.53, 0.578916
4320.13, 0.577801
4323.73, 0.576473
4327.34, 0.575357
4330.96, 0.574189
4334.58, 0.572861
4338.21, 0.571480
4341.84, 0.570046
4345.48, 0.568611
4349.12, 0.567284
4352.77, 0.565956
4356.43, 0.564628
4360.1, 0.563194
4363.76, 0.562078
4367.44, 0.560910
4371.12, 0.559847
4374.81, 0.558838
4378.51, 0.557935
4382.21, 0.556926
4385.92, 0.555864
4389.63, 0.554907
4393.35, 0.554164
4397.08, 0.553473
4400.81, 0.552783
4404.55, 0.552199
4408.29, 0.551720
4412.04, 0.551136
4415.8, 0.550658
4419.57, 0.550286
4423.34, 0.550021
4427.12, 0.549755
4430.9, 0.549436
4434.69, 0.549118
4438.49, 0.548852
4442.29, 0.548480
4446.1, 0.548268
4449.92, 0.547843
4453.74, 0.547418
4457.57, 0.546940
4461.41, 0.546568
4465.25, 0.546037
4469.1, 0.545346
4472.95, 0.544603
4476.82, 0.543859
4480.69, 0.543009
4484.56, 0.542106
4488.44, 0.541203
4492.33, 0.540194
4496.23, 0.538973
4500.13, 0.537910
4504.04, 0.536635
4507.96, 0.535307
4511.88, 0.533926
4515.81, 0.532545
4519.75, 0.531058
4523.69, 0.529624
4527.65, 0.528031
4531.6, 0.526437
4535.57, 0.524684
4539.54, 0.522878
4543.52, 0.521019
4547.5, 0.519107
4551.5, 0.517142
4555.5, 0.515176
4559.5, 0.513105
4563.52, 0.511086
4567.54, 0.508909
4571.56, 0.506678
4575.6, 0.504447
4579.64, 0.502163
4583.69, 0.499773
4587.75, 0.497489
4591.81, 0.495205
4595.88, 0.492921
4599.96, 0.490637
4604.04, 0.488193
4608.14, 0.485803
4612.24, 0.483306
4616.34, 0.480757
4620.46, 0.478314
4624.58, 0.475817
4628.71, 0.473480
4632.84, 0.471143
4636.99, 0.468965
4641.14, 0.466681
4645.3, 0.464556
4649.47, 0.462432
4653.64, 0.460466
4657.82, 0.458501
4662.01, 0.456642
4666.21, 0.454836
4670.41, 0.453136
4674.62, 0.451171
4678.84, 0.449418
4683.07, 0.447506
4687.3, 0.445647
4691.54, 0.443841
4695.79, 0.442088
4700.05, 0.440335
4704.31, 0.438636
4708.59, 0.436883
4712.87, 0.435130
4717.15, 0.433430
4721.45, 0.431730
4725.76, 0.430084
4730.07, 0.428543
4734.39, 0.427003
4738.72, 0.425463
4743.05, 0.423975
4747.39, 0.422488
4751.75, 0.421054
4756.1, 0.419726
4760.47, 0.418292
4764.85, 0.417017
4769.23, 0.415689
4773.62, 0.414414
4778.02, 0.413033
4782.43, 0.411812
4786.85, 0.410537
4791.27, 0.409262
4795.7, 0.407881
4800.14, 0.406500
4804.59, 0.405172
4809.05, 0.403897
4813.51, 0.402463
4817.99, 0.401029
4822.47, 0.399595
4826.96, 0.398214
4831.46, 0.396620
4835.96, 0.395080
4840.48, 0.393274
4845.0, 0.391787
4849.54, 0.390459
4854.08, 0.388865
4858.63, 0.387166
4863.18, 0.385519
4867.75, 0.383819
4872.33, 0.382173
4876.91, 0.380526
4881.5, 0.378933
4886.1, 0.377233
4890.71, 0.375480
4895.33, 0.373515
4899.96, 0.371815
4904.59, 0.370168
4909.24, 0.368416
4913.89, 0.366450
4918.55, 0.364644
4923.22, 0.362892
4927.9, 0.361086
4932.59, 0.359173
4937.29, 0.357421
4942.0, 0.355668
4946.71, 0.353862
4951.44, 0.351684
4956.17, 0.349453
4960.91, 0.347806
4965.67, 0.346319
4970.43, 0.344407
4975.2, 0.342495
4979.98, 0.340476
4984.76, 0.338617
4989.56, 0.336546
4994.37, 0.334634
4999.18, 0.332668
5004.01, 0.330756
5008.84, 0.328844
5013.69, 0.326560
5018.54, 0.323851
5023.4, 0.322311
5028.28, 0.320983
5033.16, 0.319442
5038.05, 0.317849
5042.95, 0.316202
5047.86, 0.314502
5052.78, 0.312803
5057.71, 0.311209
5062.65, 0.309669
5067.6, 0.307969
5072.56, 0.306376
5077.53, 0.304517
5082.5, 0.302551
5087.49, 0.301330
5092.49, 0.300055
5097.5, 0.298249
5102.51, 0.296655
5107.54, 0.294902
5112.58, 0.292937
5117.62, 0.291078
5122.68, 0.289219
5127.75, 0.287147
5132.82, 0.284970
5137.91, 0.282579
5143.01, 0.279711
5148.12, 0.277162
5153.23, 0.276312
5158.36, 0.274824
5163.5, 0.272806
5168.65, 0.270788
5173.81, 0.268822
5178.98, 0.266857
5184.15, 0.264892
5189.34, 0.262926
5194.54, 0.260589
5199.75, 0.258040
5204.98, 0.256606
5210.21, 0.253790
5215.45, 0.251984
5220.7, 0.251613
5225.96, 0.250178
5231.23, 0.248054
5236.52, 0.246035
5241.81, 0.244654
5247.12, 0.243220
5252.44, 0.241627
5257.76, 0.239927
5263.1, 0.238174
5268.45, 0.236315
5273.81, 0.234084
5279.18, 0.232384
5284.56, 0.230844
5289.95, 0.228241
5295.36, 0.227179
5300.77, 0.226542
5306.2, 0.225107
5311.63, 0.224045
5317.08, 0.222823
5322.54, 0.221549
5328.01, 0.220274
5333.49, 0.219158
5338.98, 0.217724
5344.49, 0.214856
5350.0, 0.211988
5355.53, 0.211881
5361.07, 0.211935
5366.62, 0.210978
5372.18, 0.209438
5377.75, 0.207792
5383.34, 0.206251
5388.93, 0.204976
5394.54, 0.203489
5400.16, 0.202214
5405.79, 0.200621
5411.44, 0.199080
5417.09, 0.196159
5422.76, 0.194087
5428.43, 0.195787
5434.12, 0.196425
5439.83, 0.195628
5445.54, 0.195203
5451.26, 0.194990
5457.0, 0.193875
5462.75, 0.191857
5468.52, 0.192547
5474.29, 0.193025
5480.08, 0.192919
5485.88, 0.194406
5491.69, 0.195044
5497.51, 0.195203
5503.35, 0.195415
5509.2, 0.196000
5515.06, 0.195681
5520.93, 0.195309
5526.82, 0.195947
5532.71, 0.196903
5538.63, 0.197274
5544.55, 0.196850
5550.49, 0.196053
5556.44, 0.196584
5562.4, 0.197806
5568.37, 0.197806
5574.36, 0.195522
5580.36, 0.194619
5586.37, 0.197274
5592.4, 0.198655
5598.44, 0.197859
5604.49, 0.197328
5610.56, 0.196850
5616.63, 0.195893
5622.73, 0.196053
5628.83, 0.194884
5634.95, 0.191857
5641.08, 0.188032
5647.23, 0.188829
5653.39, 0.189201
5659.56, 0.189413
5665.74, 0.189360
5671.94, 0.186492
5678.15, 0.185164
5684.38, 0.185058
5690.62, 0.183145
5696.87, 0.182774
5703.14, 0.180808
5709.42, 0.176825
5715.72, 0.175550
5722.03, 0.175550
5728.35, 0.175072
5734.69, 0.173478
5741.03, 0.171407
5747.4, 0.168910
5753.78, 0.168592
5760.17, 0.164448
5766.58, 0.159721
5773.0, 0.161740
5779.44, 0.162111
5785.88, 0.161421
5792.35, 0.160252
5798.83, 0.158181
5805.32, 0.156322
5811.83, 0.153082
5818.35, 0.147345
5824.89, 0.145380
5831.45, 0.146123
5838.01, 0.146495
5844.59, 0.145539
5851.19, 0.143361
5857.8, 0.140334
5864.43, 0.137997
5871.07, 0.136350
5877.73, 0.130241
5884.4, 0.128914
5891.09, 0.129232
5897.79, 0.127639
5904.5, 0.129392
5911.23, 0.128542
5917.98, 0.126470
5924.75, 0.124399
5931.53, 0.119778
5938.32, 0.116431
5945.13, 0.118556
5951.96, 0.118768
5958.8, 0.117440
5965.65, 0.113935
5972.53, 0.112979
5979.42, 0.112448
5986.32, 0.109739
5993.24, 0.109207
6000.18, 0.110163
6007.13, 0.108676
6014.1, 0.106764
6021.08, 0.106977
6028.09, 0.106923
6035.1, 0.105383
6042.14, 0.100921
6049.19, 0.0976280
6056.25, 0.101612
6063.34, 0.102196
6070.44, 0.100071
6077.55, 0.101027
6084.69, 0.102940
6091.84, 0.103099
6099.0, 0.102408
6106.19, 0.100071
6113.39, 0.0981060
6120.61, 0.100284
6127.84, 0.101824
6135.09, 0.101027
6142.36, 0.100071
6149.65, 0.0998060
6156.95, 0.0987970
6164.27, 0.0990620
6171.61, 0.0996460
6178.97, 0.0978400
6186.34, 0.0968310
6193.73, 0.0986900
6201.14, 0.0993810
6208.57, 0.0990620
6216.01, 0.0986900
6223.47, 0.0987430
6230.95, 0.0987430
6238.45, 0.0985310
6245.97, 0.0985310
6253.5, 0.0985310
6261.06, 0.0983720
6268.63, 0.0980530
6276.21, 0.0979470
6283.82, 0.0978940
6291.45, 0.0977870
6299.1, 0.0978400
6306.76, 0.0977340
6314.44, 0.0977340
6322.14, 0.0977870
6329.86, 0.0977870
6337.6, 0.0960350
6345.35, 0.0953440
6353.13, 0.0977340
6360.92, 0.0980530
6368.74, 0.0968310
6376.57, 0.0980530
6384.43, 0.0991680
6392.3, 0.0993280
6400.19, 0.0985840
6408.1, 0.0942290
6416.03, 0.0928480
6423.98, 0.0966190
6431.95, 0.0980000
6439.94, 0.0989030
6447.95, 0.0989560
6455.98, 0.0988500
6464.03, 0.0984780
6472.1, 0.0965660
6480.19, 0.0946530
6488.31, 0.0921570
6496.44, 0.0925290
6504.59, 0.0958750
6512.76, 0.0959810
6520.95, 0.0946000
6529.16, 0.0957160
6537.4, 0.0956630
6545.65, 0.0945470
6553.92, 0.0934320
6562.22, 0.0926350
6570.54, 0.0907760
6578.88, 0.0914670
6587.23, 0.0918380
6595.61, 0.0919450
6604.02, 0.0925820
6612.44, 0.0922630
6620.89, 0.0912540
6629.35, 0.0883860
6637.84, 0.0869520
6646.35, 0.0901920
6654.88, 0.0922630
6663.44, 0.0916790
6672.01, 0.0903510
6680.61, 0.0896610
6689.23, 0.0908290
6697.88, 0.0912540
6706.54, 0.0896610
6715.23, 0.0892360
6723.94, 0.0898200
6732.67, 0.0904570
6741.42, 0.0905640
6750.2, 0.0900320
6759.0, 0.0896070
6767.82, 0.0884390
6776.67, 0.0870050
6785.54, 0.0854110
6794.44, 0.0854110
6803.35, 0.0868980
6812.29, 0.0868450
6821.26, 0.0854640
6830.24, 0.0851990
6839.25, 0.0857830
6848.29, 0.0844020
6857.35, 0.0816930
6866.43, 0.0814810
6875.54, 0.0838180
6884.67, 0.0844550
6893.82, 0.0842430
6903.0, 0.0834460
6912.2, 0.0833930
6921.43, 0.0834990
6930.69, 0.0831800
6939.96, 0.0827020
6949.27, 0.0814810
6958.59, 0.0795150
6967.95, 0.0800460
6977.33, 0.0805250
6986.73, 0.0796750
6996.16, 0.0789840
7005.61, 0.0787720
7015.09, 0.0778690
7024.6, 0.0771780
7034.13, 0.0762220
7043.69, 0.0743630
7053.27, 0.0743630
7062.88, 0.0748940
7072.52, 0.0744690
7082.18, 0.0737790
7091.87, 0.0730880
7101.58, 0.0724510
7111.32, 0.0714950
7121.09, 0.0706980
7130.88, 0.0701670
7140.71, 0.0689450
7150.56, 0.0678830
7160.43, 0.0671920
7170.33, 0.0662890
7180.27, 0.0660240
7190.23, 0.0654930
7200.21, 0.0643240
7210.23, 0.0633150
7220.27, 0.0630490
7230.34, 0.0624120
7240.44, 0.0616680
7250.56, 0.0607650
7260.72, 0.0598620
7270.9, 0.0586940
7281.12, 0.0579500
7291.36, 0.0574190
7301.63, 0.0566220
7311.93, 0.0557720
7322.25, 0.0550290
7332.61, 0.0537540
7343.0, 0.0527980
7353.41, 0.0521600
7363.86, 0.0514700
7374.33, 0.0504080
7384.83, 0.0493980
7395.37, 0.0485480
7405.93, 0.0476450
7416.53, 0.0466890
7427.15, 0.0457330
7437.81, 0.0447240
7448.5, 0.0436620
7459.22, 0.0425460
7469.96, 0.0416430
7480.74, 0.0407400
7491.55, 0.0399970
7502.39, 0.0390410
7513.27, 0.0379780
7524.17, 0.0369690
7535.11, 0.0360660
7546.08, 0.0351630
7557.08, 0.0341540
7568.11, 0.0331450
7579.17, 0.0321350
7590.27, 0.0312320
7601.4, 0.0302760
7612.56, 0.0293200
7623.76, 0.0284700
7634.98, 0.0275140
7646.24, 0.0265580
7657.54, 0.0255490
7668.87, 0.0245930
7680.23, 0.0235310
7691.62, 0.0227340
7703.05, 0.0217780
7714.51, 0.0207690
7726.01, 0.0198120
7737.54, 0.0189090
7749.11, 0.0179530
7760.71, 0.0170500
7772.35, 0.0161470
7784.02, 0.0152980
7795.72, 0.0143950
7807.46, 0.0135980
7819.23, 0.0128010
7831.04, 0.0120570
7842.89, 0.0110480
7854.77, 0.0103050
7866.69, 0.00956100
7878.65, 0.00892400
7890.64, 0.00828600
7902.67, 0.00759600
7914.74, 0.00701100
7926.84, 0.00658600
7938.98, 0.00605500
7951.16, 0.00563000
7963.37, 0.00520500
7975.62, 0.00488700
7987.91, 0.00456800
8000.24, 0.00424900
8012.6, 0.00393100
8025.01, 0.00366500
8037.45, 0.00350600
8049.93, 0.00334600
8062.45, 0.00329300
8075.01, 0.00334600
8087.61, 0.00334600
8100.24, 0.00339900
8112.91, 0.00324000
8125.63, 0.00329300
8138.39, 0.00345300
8151.18, 0.00371800
8164.02, 0.00393100
8176.9, 0.00424900
8189.81, 0.00456800
8202.77, 0.00509900
8215.77, 0.00573700
8228.82, 0.00648000
8241.9, 0.00738300
8255.02, 0.00849900
8268.19, 0.00972000
8281.39, 0.0109950
8294.65, 0.0123760
8307.94, 0.0140230
8321.28, 0.0158290
8334.66, 0.0176350
8348.08, 0.0193880
8361.54, 0.0212470
8375.05, 0.0232120
8388.6, 0.0252300
8402.2, 0.0270360
8415.84, 0.0288950
8429.52, 0.0307540
8443.25, 0.0325600
8457.02, 0.0338880
8470.84, 0.0351100
8484.7, 0.0362790
8498.61, 0.0372350
8512.57, 0.0379780
8526.57, 0.0387220
8540.62, 0.0394120
8554.71, 0.0401030
8568.85, 0.0406340
8583.04, 0.0412180
8597.27, 0.0416430
8611.55, 0.0421210
8625.88, 0.0423340
8640.26, 0.0424400
8654.68, 0.0423340
8669.16, 0.0423340
8683.68, 0.0420150
8698.25, 0.0415370
8712.87, 0.0411120
8727.53, 0.0404220
8742.25, 0.0396250
8757.02, 0.0389870
8771.83, 0.0382440
8786.7, 0.0374470
8801.62, 0.0365440
8816.59, 0.0359600
8831.61, 0.0353220
8846.68, 0.0347380
8861.8, 0.0344190
8876.97, 0.0342600
8892.2, 0.0341010
8907.48, 0.0337820
8922.81, 0.0335700
8938.2, 0.0337290
8953.63, 0.0337290
8969.13, 0.0336760
8984.67, 0.0335700
9000.27, 0.0333040
9015.92, 0.0331450
9031.63, 0.0330380
9047.39, 0.0326130
9063.21, 0.0322420
9079.08, 0.0319230
9095.01, 0.0316570
9111.0, 0.0312320
9127.04, 0.0304890
9143.13, 0.0296920
9159.28, 0.0290550
9175.49, 0.0284700
9191.76, 0.0282050
9208.09, 0.0276740
9224.47, 0.0273020
9240.92, 0.0271430
9257.42, 0.0269830
9273.98, 0.0267710
9290.6, 0.0265050
9307.28, 0.0263460
9324.02, 0.0262400
9340.82, 0.0263460
9357.68, 0.0265050
9374.6, 0.0266640
9391.58, 0.0271430
9408.62, 0.0275140
9425.73, 0.0279920
9442.9, 0.0288420
9460.13, 0.0296920
9477.42, 0.0301700
9494.78, 0.0309670
9512.2, 0.0319230
9529.69, 0.0328790
9547.24, 0.0337290
9564.86, 0.0347910
9582.54, 0.0355880
9600.28, 0.0364380
9618.1, 0.0373940
9635.97, 0.0384560
9653.92, 0.0392000
9671.93, 0.0399440
9690.01, 0.0404750
9708.16, 0.0407930
9726.37, 0.0410590
9744.65, 0.0414310
9763.0, 0.0416430
9781.43, 0.0419090
9799.92, 0.0417500
9818.48, 0.0410060
9837.1, 0.0404220
9855.8, 0.0401560
9874.58, 0.0399440
9893.42, 0.0396780
9912.34, 0.0394120
9931.33, 0.0394660
9950.39, 0.0396250
9969.52, 0.0401030
9988.74, 0.0406340
10008.0, 0.0412180
10027.4, 0.0416430
10046.8, 0.0425460
10066.3, 0.0433430
10085.9, 0.0441930
10105.6, 0.0453610
10125.3, 0.0462640
10145.1, 0.0470080
10165.0, 0.0479110
10185.0, 0.0488140
10205.0, 0.0499830
10225.2, 0.0516820
10245.4, 0.0542320
10265.7, 0.0571530
10286.0, 0.0602870
10306.5, 0.0636870
10327.0, 0.0666080
10347.6, 0.0689450
10368.3, 0.0710170
10389.1, 0.0730880
10409.9, 0.0751600
10430.9, 0.0768590
10451.9, 0.0779750
10473.0, 0.0789840
10494.2, 0.0796220
10515.5, 0.0802590
10536.9, 0.0807900
10558.4, 0.0811090
10579.9, 0.0814810
10601.5, 0.0816400
10623.3, 0.0816400
10645.1, 0.0817990
10667.0, 0.0818520
10689.0, 0.0817990
10711.1, 0.0819060
10733.2, 0.0817460
10755.5, 0.0813740
10777.9, 0.0810560
10800.3, 0.0805780
10822.9, 0.0795680
10845.5, 0.0784000
10868.2, 0.0772840
10891.1, 0.0763810
10914.0, 0.0751600
10937.0, 0.0737790
10960.2, 0.0726630
10983.4, 0.0714950
11006.7, 0.0702730
11030.1, 0.0692640
11053.6, 0.0681480
11077.3, 0.0671920
11101.0, 0.0661300
11124.8, 0.0650150
11148.7, 0.0639520
11172.7, 0.0628370
11196.9, 0.0616150
11221.1, 0.0603400
11245.4, 0.0588530
11269.9, 0.0572600
11294.4, 0.0555070
11319.1, 0.0541260
11343.9, 0.0530100
11368.8, 0.0515760
11393.7, 0.0501420
11418.8, 0.0489200
11444.0, 0.0480700
11469.4, 0.0470080
11494.8, 0.0456800
11520.3, 0.0448300
11546.0, 0.0440870
11571.8, 0.0432370
11597.7, 0.0426530
11623.7, 0.0423340
11649.8, 0.0414840
11676.0, 0.0409530
11702.4, 0.0406870
11728.9, 0.0403680
11755.5, 0.0399970
11782.2, 0.0398900
11809.0, 0.0397840
11836.0, 0.0396780
11863.0, 0.0394120
11890.3, 0.0391470
11917.6, 0.0391470
11945.0, 0.0390410
11972.6, 0.0388280
12000.4, 0.0386160
12028.2, 0.0384560
12056.2, 0.0384560
12084.3, 0.0385630
12112.5, 0.0386160
12140.9, 0.0384030
12169.4, 0.0382970
12198.0, 0.0380310
12226.8, 0.0376060
12255.7, 0.0373410
12284.7, 0.0373410
12313.9, 0.0371820
12343.2, 0.0368630
12372.7, 0.0364380
12402.3, 0.0358540
12432.0, 0.0353220
12461.9, 0.0348440
12491.9, 0.0341540
12522.1, 0.0333570
12552.4, 0.0321890
12582.9, 0.0312320
12613.5, 0.0300640
12644.3, 0.0288420
12675.2, 0.0276740
12706.3, 0.0267710
12737.5, 0.0259210
12768.9, 0.0249650
12800.4, 0.0238490
12832.1, 0.0229460
12863.9, 0.0223090
12895.9, 0.0220430
12928.1, 0.0218310
12960.4, 0.0217780
12992.9, 0.0220430
13025.5, 0.0222560
13058.3, 0.0220960
13091.3, 0.0220430
13124.4, 0.0223620
13157.8, 0.0232650
13191.2, 0.0239560
13224.9, 0.0243800
13258.7, 0.0245400
13292.7, 0.0244340
13326.9, 0.0243270
13361.2, 0.0240090
13395.7, 0.0233710
13430.4, 0.0228400
13465.3, 0.0223090
13500.4, 0.0223090
13535.7, 0.0226810
13571.1, 0.0226280
13606.7, 0.0224680
13642.5, 0.0227870
13678.5, 0.0231060
13714.7, 0.0235840
13751.1, 0.0239020
13787.6, 0.0240620
13824.4, 0.0240090
13861.4, 0.0242210
13898.5, 0.0240620
13935.9, 0.0239020
13973.5, 0.0232120
14011.2, 0.0224150
14049.2, 0.0219900
14087.4, 0.0217250
14125.8, 0.0209810
14164.3, 0.0203970
14203.2, 0.0198660
14242.2, 0.0195470
14281.4, 0.0193880
14320.9, 0.0191220
14360.5, 0.0190160
14400.4, 0.0187500
14440.5, 0.0184850
14480.9, 0.0183780
14521.4, 0.0183780
14562.2, 0.0183780
14603.3, 0.0183780
14644.5, 0.0184310
14686.0, 0.0188560
14727.7, 0.0193340
14769.7, 0.0192810
14811.9, 0.0193340
14854.3, 0.0197060
14897.0, 0.0201310
14939.9, 0.0202900
14983.1, 0.0207690
15026.5, 0.0215650
15070.2, 0.0217780
15114.2, 0.0217250
15158.3, 0.0217780
15202.8, 0.0218310
15247.5, 0.0218840
15292.5, 0.0218840
15337.7, 0.0224680
15383.2, 0.0241150
15429.0, 0.0260800
15475.1, 0.0275670
15521.4, 0.0304890
15568.0, 0.0335700
15614.9, 0.0358000
15662.1, 0.0383500
15709.6, 0.0402090
15757.3, 0.0415900
15805.4, 0.0425460
15853.7, 0.0439800
15902.3, 0.0457860
15951.2, 0.0463180
16000.5, 0.0469550
16050.0, 0.0471140
16099.8, 0.0460520
16150.0, 0.0447240
16200.5, 0.0433430
16251.3, 0.0416960
16302.4, 0.0404750
16353.8, 0.0395190
16405.5, 0.0398900
16457.6, 0.0414310
16510.0, 0.0428120
16562.8, 0.0438210
16615.9, 0.0448300
16669.3, 0.0461050
16723.1, 0.0476450
16777.2, 0.0481230
16831.7, 0.0483890
16886.5, 0.0493980
16941.7, 0.0503540
16997.2, 0.0510450
17053.1, 0.0513640
17109.4, 0.0510980
17166.1, 0.0510450
17223.1, 0.0506200
17280.5, 0.0500360
17338.3, 0.0495580
17396.5, 0.0493450
17455.1, 0.0499290
17514.0, 0.0500360
17573.4, 0.0509920
17633.2, 0.0529040
17693.4, 0.0534880
17754.0, 0.0534350
17815.0, 0.0533290
17876.4, 0.0521070
17938.3, 0.0511510
18000.5, 0.0506200
18063.3, 0.0492390
18126.4, 0.0490260
18190.0, 0.0486550
18254.1, 0.0479640
18318.6, 0.0497170
18383.5, 0.0511510
18449.0, 0.0533290
18514.9, 0.0562500
18581.2, 0.0562500
18648.0, 0.0576840
18715.4, 0.0574190
18783.2, 0.0541790
18851.5, 0.0518950
18920.3, 0.0485480
18989.6, 0.0472210
19059.4, 0.0481230
19129.7, 0.0471670
19200.6, 0.0465830
19272.0, 0.0458930
19343.9, 0.0448830
19416.3, 0.0454680
19489.3, 0.0451490
19562.8, 0.0441400
19637.0, 0.0420150
19711.6, 0.0417500
19786.8, 0.0405280
19862.6, 0.0393060
19939.0, 0.0386160
20016.0, 0.0377660
20093.6, 0.0376060
20171.8, 0.0361720
20250.6, 0.0330920
20330.0, 0.0335160
20410.0, 0.0350570
20490.7, 0.0356940
20572.0, 0.0372350
20654.0, 0.0372880
20736.6, 0.0369690
20819.9, 0.0366500
20903.8, 0.0346320
20988.5, 0.0344190
21073.8, 0.0355350
21159.8, 0.0351100
21246.5, 0.0358000
21334.0, 0.0359070
21422.1, 0.0360130
21511.0, 0.0372350
21600.7, 0.0361720
21691.0, 0.0344730
21782.1, 0.0334630
21874.0, 0.0330380
21966.7, 0.0330920
22060.2, 0.0336760
22154.5, 0.0320290
22249.6, 0.0321890
22345.5, 0.0316570
22442.2, 0.0287890
22539.8, 0.0269300
22638.2, 0.0292670
22737.5, 0.0308080
22837.7, 0.0318700
22938.7, 0.0322420
23040.7, 0.0313390
23143.5, 0.0318700
23247.3, 0.0339950
23352.1, 0.0359600
23457.7, 0.0377660
23564.4, 0.0400500
23672.0, 0.0399970
23780.5, 0.0390410
23890.1, 0.0423340
24000.7, 0.0422810
24112.3, 0.0440870
24225.0, 0.0476990
24338.7, 0.0478050
24453.5, 0.0449370
24569.4, 0.0476990
