Database of Origin, USGS Spectral Database
Sample Description, See USGS database for additional info
Date Added,2016-08-10 03:01:19.388040

Data ID,USGS_hyp11          
Sample ID, hypersthene_pyx02.10657
Mineral Name, hypersthene
Material Class,Inosilicate

Wavelength
229.1, 0.0223080
236.1, 0.0270060
242.1, 0.0364310
248.1, 0.0401310
253.6, 0.0435290
258.6, 0.0529320
263.6, 0.0589880
268.6, 0.0650200
273.1, 0.0721580
277.1, 0.0755190
281.1, 0.0795490
285.1, 0.0840380
289.1, 0.0881620
293.1, 0.0923960
297.1, 0.0974560
301.1, 0.101182
305.1, 0.107929
309.1, 0.115641
313.1, 0.121145
317.1, 0.127726
321.1, 0.136059
325.1, 0.145609
329.1, 0.155433
333.1, 0.166838
337.1, 0.176242
341.1, 0.187511
345.1, 0.197654
349.1, 0.209448
353.1, 0.221492
357.1, 0.233771
360.6, 0.244298
363.6, 0.253322
366.6, 0.262027
369.6, 0.268484
372.6, 0.275906
375.6, 0.282637
378.6, 0.289801
381.1, 0.294935
383.1, 0.298538
385.1, 0.303734
387.1, 0.308222
389.1, 0.312085
391.1, 0.315820
393.1, 0.320098
395.1, 0.324326
397.1, 0.327488
399.1, 0.331935
401.1, 0.336018
403.1, 0.339966
405.1, 0.344224
407.1, 0.348056
409.1, 0.351634
411.1, 0.357199
412.8, 0.359462
415.8, 0.363634
418.8, 0.367916
421.8, 0.370820
424.8, 0.371137
427.8, 0.372206
430.8, 0.378417
433.8, 0.386720
436.8, 0.391116
439.8, 0.394948
442.8, 0.396751
445.8, 0.398514
448.8, 0.401061
451.3, 0.403977
453.3, 0.406179
455.3, 0.406713
457.3, 0.408921
459.3, 0.411310
461.3, 0.413167
463.3, 0.415216
465.3, 0.416915
467.3, 0.418488
469.3, 0.419006
471.3, 0.421343
473.3, 0.423140
475.3, 0.426037
477.3, 0.428096
479.3, 0.428342
481.3, 0.429491
483.3, 0.433015
485.3, 0.435445
487.3, 0.438203
489.3, 0.440291
491.3, 0.442210
493.3, 0.444309
495.3, 0.447243
497.3, 0.448370
499.3, 0.450100
501.3, 0.449807
503.3, 0.451025
505.3, 0.438451
507.3, 0.433788
509.3, 0.455928
511.3, 0.460150
513.3, 0.463693
515.3, 0.466524
517.3, 0.468088
519.3, 0.469988
521.3, 0.471794
523.3, 0.473048
525.3, 0.474144
527.3, 0.475130
529.3, 0.475260
531.3, 0.477004
533.3, 0.477031
535.3, 0.477106
537.3, 0.477505
539.3, 0.477099
541.3, 0.476381
543.3, 0.474779
545.3, 0.474560
547.3, 0.473594
549.3, 0.473350
551.3, 0.474804
553.3, 0.476579
555.3, 0.479584
557.3, 0.482322
559.3, 0.485103
561.3, 0.485851
563.3, 0.487577
565.3, 0.488217
567.3, 0.489298
569.3, 0.491100
571.3, 0.491742
573.3, 0.492083
575.3, 0.492955
577.3, 0.494086
579.3, 0.494281
581.3, 0.494967
583.3, 0.495487
585.3, 0.496836
587.3, 0.497071
589.3, 0.498094
591.3, 0.499117
593.3, 0.498828
595.3, 0.499531
597.3, 0.500317
599.3, 0.500850
601.1, 0.501165
602.7, 0.502498
604.3, 0.502641
605.9, 0.503127
607.5, 0.502815
609.1, 0.503100
610.7, 0.502818
612.3, 0.503657
613.9, 0.504031
615.5, 0.504303
617.1, 0.504784
618.7, 0.505142
620.3, 0.505747
621.9, 0.507054
623.5, 0.506834
625.1, 0.507299
626.7, 0.507610
628.3, 0.508309
629.9, 0.508316
631.7, 0.508740
633.7, 0.509285
635.7, 0.510193
637.7, 0.509814
639.7, 0.512051
641.7, 0.511096
643.7, 0.511153
645.7, 0.512442
647.7, 0.513583
649.7, 0.513285
651.7, 0.513802
653.7, 0.514526
655.7, 0.515416
657.7, 0.514820
659.7, 0.515345
661.7, 0.516847
663.7, 0.515965
665.7, 0.516885
667.7, 0.517764
670.2, 0.517939
673.2, 0.518824
676.2, 0.519381
679.2, 0.519715
682.2, 0.519275
685.2, 0.520828
688.2, 0.521276
691.2, 0.520578
694.2, 0.520265
697.2, 0.520092
700.2, 0.520177
702.0, 0.520663
704.0, 0.520124
706.0, 0.519969
708.0, 0.519537
710.0, 0.519147
712.0, 0.517885
714.0, 0.516640
716.0, 0.515447
718.0, 0.514753
720.0, 0.513471
722.0, 0.511724
724.0, 0.510628
726.0, 0.508916
728.0, 0.507535
730.0, 0.505258
732.0, 0.503056
734.0, 0.501029
736.0, 0.498218
738.0, 0.495800
740.0, 0.492997
742.0, 0.489467
744.0, 0.487662
746.0, 0.482842
748.0, 0.478741
750.5, 0.474116
753.5, 0.466981
756.5, 0.460128
759.5, 0.452652
762.5, 0.445553
765.5, 0.437070
768.5, 0.429070
771.5, 0.419971
774.5, 0.410837
777.5, 0.401465
781.0, 0.389298
785.0, 0.375793
789.0, 0.362747
793.0, 0.348743
797.0, 0.335759
801.5, 0.320590
806.5, 0.303363
811.5, 0.287009
816.5, 0.271722
822.0, 0.255992
828.0, 0.238892
835.0, 0.222184
843.0, 0.204653
851.0, 0.190521
859.0, 0.174578
871.0, 0.158467
883.0, 0.148706
894.0, 0.141722
904.0, 0.138438
914.0, 0.137014
924.0, 0.137567
933.0, 0.141988
941.0, 0.146634
949.0, 0.154848
957.0, 0.163167
964.0, 0.174169
970.0, 0.186372
976.0, 0.196997
982.0, 0.210927
988.0, 0.226119
994.0, 0.240826
1000.0, 0.258585
1006.0, 0.279036
1012.0, 0.299219
1018.0, 0.319577
1023.5, 0.337528
1028.5, 0.354167
1033.5, 0.369491
1038.5, 0.386595
1043.5, 0.401866
1048.5, 0.417857
1053.5, 0.433032
1058.5, 0.447566
1063.5, 0.458520
1068.5, 0.469993
1073.5, 0.480603
1078.5, 0.490192
1083.5, 0.497591
1088.5, 0.508121
1093.5, 0.513680
1098.5, 0.518878
1103.5, 0.524080
1108.5, 0.528507
1113.5, 0.532846
1118.5, 0.536887
1123.5, 0.539407
1128.5, 0.542462
1133.5, 0.544461
1138.5, 0.548527
1143.5, 0.548132
1148.5, 0.550061
1153.5, 0.551762
1158.5, 0.552706
1163.5, 0.553103
1168.5, 0.555966
1173.5, 0.556766
1178.5, 0.557866
1183.5, 0.557886
1188.5, 0.559569
1193.5, 0.559348
1198.5, 0.560440
1203.5, 0.560307
1208.5, 0.561081
1213.5, 0.562145
1218.5, 0.563407
1223.5, 0.562559
1228.5, 0.562549
1233.5, 0.564463
1238.5, 0.563607
1243.5, 0.564604
1248.5, 0.564797
1253.5, 0.565792
1258.5, 0.564845
1263.5, 0.566172
1268.5, 0.564827
1273.5, 0.565135
1278.5, 0.565711
1283.5, 0.563640
1288.5, 0.564769
1293.5, 0.563641
1298.5, 0.562493
1303.5, 0.561812
1308.5, 0.560830
1313.5, 0.560545
1318.5, 0.559531
1323.5, 0.558706
1328.5, 0.556905
1333.5, 0.556258
1338.5, 0.555115
1343.5, 0.552665
1348.5, 0.549025
1353.5, 0.549109
1358.5, 0.547122
1363.5, 0.544624
1368.5, 0.542354
1373.5, 0.538715
1378.5, 0.536774
1383.5, 0.527876
1388.5, 0.513406
1393.5, 0.506343
1398.5, 0.513033
1403.5, 0.516170
1408.5, 0.514421
1413.5, 0.511977
1418.5, 0.508536
1423.5, 0.507723
1428.5, 0.503349
1433.5, 0.500420
1438.5, 0.496703
1443.5, 0.493473
1448.5, 0.488528
1453.5, 0.485229
1458.5, 0.480635
1463.5, 0.476279
1468.5, 0.473186
1473.5, 0.468485
1478.5, 0.462568
1483.5, 0.458655
1488.5, 0.453145
1493.5, 0.449235
1498.5, 0.445322
1503.5, 0.439304
1508.5, 0.433624
1513.5, 0.429982
1518.5, 0.423223
1523.5, 0.420314
1528.5, 0.415278
1534.0, 0.409182
1540.0, 0.404020
1546.0, 0.398048
1552.0, 0.391426
1558.0, 0.385770
1564.0, 0.381411
1570.5, 0.375123
1577.5, 0.367187
1584.5, 0.360285
1591.5, 0.355136
1598.5, 0.349137
1605.5, 0.342618
1612.5, 0.335702
1619.5, 0.330004
1626.5, 0.324764
1633.5, 0.318844
1640.5, 0.314316
1647.5, 0.307258
1654.5, 0.304097
1661.5, 0.296712
1668.5, 0.292066
1676.0, 0.287766
1684.0, 0.283525
1692.0, 0.277208
1700.0, 0.275116
1708.0, 0.270046
1716.0, 0.263416
1724.0, 0.258464
1732.0, 0.258013
1740.0, 0.249762
1748.0, 0.248714
1756.0, 0.244953
1764.0, 0.242893
1772.0, 0.241380
1780.0, 0.239428
1788.0, 0.236965
1796.0, 0.236371
1805.0, 0.233042
1815.0, 0.230121
1825.0, 0.229308
1835.0, 0.228022
1845.0, 0.227883
1855.0, 0.228607
1865.0, 0.227297
1875.0, 0.228436
1885.0, 0.228976
1895.0, 0.230109
1905.0, 0.232011
1915.0, 0.233868
1925.0, 0.236773
1935.0, 0.236495
1945.0, 0.242530
1955.0, 0.244381
1965.0, 0.250657
1975.0, 0.255146
1985.0, 0.261576
1995.0, 0.263777
2005.0, 0.270770
2015.0, 0.276682
2025.0, 0.281348
2035.0, 0.291097
2045.0, 0.296784
2055.0, 0.305466
2065.0, 0.313674
2075.0, 0.320566
2085.0, 0.329892
2095.0, 0.339470
2105.0, 0.348053
2115.0, 0.357378
2125.0, 0.367088
2135.0, 0.375672
2145.0, 0.386147
2155.0, 0.393782
2165.0, 0.403720
2175.0, 0.410652
2185.0, 0.419081
2195.0, 0.425110
2205.0, 0.434567
2215.0, 0.439459
2225.0, 0.447795
2235.0, 0.452421
2245.0, 0.461865
2255.0, 0.465364
2265.0, 0.471471
2275.0, 0.472487
2285.0, 0.471719
2295.0, 0.467688
2305.0, 0.463744
2315.0, 0.464289
2325.0, 0.484316
2335.0, 0.494541
2345.0, 0.500936
2355.0, 0.504089
2365.0, 0.510925
2375.0, 0.508786
2386.0, 0.508891
2400.0, 0.511937
2418.0, 0.521357
2440.0, 0.520679
2466.0, 0.521675
2496.0, 0.526996
2528.0, 0.526027
2560.0, 0.523504
2592.0, 0.521157
2624.0, 0.522104
2656.0, 0.517005
2688.0, 0.410998
2720.0, 0.207926
2752.0, 0.211540
2784.0, 0.227441
2816.0, 0.258671
2848.0, 0.264190
2880.0, 0.285327
2912.0, 0.279140
2944.0, 0.284770
2976.0, 0.289627
