Database of Origin, USGS Spectral Database
Sample Description, See USGS database for additional info
Date Added,2017-07-03 06:06:54.068995

Data ID,USGS_oli08          
Sample ID, olivine_gds70.16416
Mineral Name, olivine
Material Class,Nesosilicate

Wavelength
1280.99, 0.287638
1281.3, 0.287795
1281.62, 0.287929
1281.94, 0.288060
1282.25, 0.288170
1282.57, 0.288398
1282.89, 0.288504
1283.21, 0.288593
1283.52, 0.288809
1283.84, 0.289010
1284.16, 0.289200
1284.48, 0.289371
1284.8, 0.289412
1285.11, 0.289579
1285.43, 0.289797
1285.75, 0.289931
1286.07, 0.290070
1286.39, 0.290191
1286.71, 0.290238
1287.03, 0.290417
1287.35, 0.290630
1287.67, 0.290804
1287.99, 0.291029
1288.31, 0.291170
1288.63, 0.291316
1288.95, 0.291506
1289.27, 0.291653
1289.59, 0.291844
1289.91, 0.292026
1290.23, 0.292147
1290.55, 0.292283
1290.88, 0.292529
1291.2, 0.292708
1291.52, 0.292818
1291.84, 0.292910
1292.16, 0.293048
1292.48, 0.293316
1292.81, 0.293533
1293.13, 0.293590
1293.45, 0.293666
1293.77, 0.293889
1294.1, 0.294122
1294.42, 0.294261
1294.74, 0.294387
1295.07, 0.294655
1295.39, 0.294921
1295.71, 0.295090
1296.04, 0.295223
1296.36, 0.295310
1296.69, 0.295438
1297.01, 0.295454
1297.34, 0.295480
1297.66, 0.295785
1297.98, 0.296006
1298.31, 0.296312
1298.64, 0.296545
1298.96, 0.296685
1299.29, 0.296883
1299.61, 0.297107
1299.94, 0.297300
1300.26, 0.297439
1300.59, 0.297623
1300.92, 0.297743
1301.24, 0.297941
1301.57, 0.298160
1301.9, 0.298335
1302.22, 0.298494
1302.55, 0.298589
1302.88, 0.298712
1303.21, 0.298972
1303.53, 0.299203
1303.86, 0.299382
1304.19, 0.299579
1304.52, 0.299747
1304.85, 0.299871
1305.17, 0.300161
1305.5, 0.300409
1305.83, 0.300538
1306.16, 0.300732
1306.49, 0.300872
1306.82, 0.301009
1307.15, 0.301279
1307.48, 0.301501
1307.81, 0.301645
1308.14, 0.301804
1308.47, 0.301908
1308.8, 0.302069
1309.13, 0.302384
1309.46, 0.302610
1309.79, 0.302803
1310.12, 0.302964
1310.45, 0.303150
1310.79, 0.303346
1311.12, 0.303569
1311.45, 0.303823
1311.78, 0.304034
1312.11, 0.304196
1312.44, 0.304366
1312.78, 0.304577
1313.11, 0.304693
1313.44, 0.304790
1313.77, 0.305054
1314.11, 0.305350
1314.44, 0.305610
1314.77, 0.305714
1315.11, 0.305730
1315.44, 0.305906
1315.78, 0.306254
1316.11, 0.306478
1316.44, 0.306650
1316.78, 0.306894
1317.11, 0.307177
1317.45, 0.307361
1317.78, 0.307506
1318.12, 0.307760
1318.45, 0.307989
1318.79, 0.308170
1319.12, 0.308464
1319.46, 0.308715
1319.8, 0.308882
1320.13, 0.309085
1320.47, 0.309220
1320.8, 0.309355
1321.14, 0.309598
1321.48, 0.309912
1321.81, 0.310131
1322.15, 0.310266
1322.49, 0.310468
1322.83, 0.310699
1323.16, 0.310909
1323.5, 0.311116
1323.84, 0.311343
1324.18, 0.311579
1324.52, 0.311762
1324.85, 0.311968
1325.19, 0.312226
1325.53, 0.312451
1325.87, 0.312659
1326.21, 0.312793
1326.55, 0.312949
1326.89, 0.313130
1327.23, 0.313406
1327.57, 0.313701
1327.91, 0.313899
1328.25, 0.314125
1328.59, 0.314383
1328.93, 0.314593
1329.27, 0.314814
1329.61, 0.315015
1329.95, 0.315207
1330.29, 0.315448
1330.64, 0.315614
1330.98, 0.315774
1331.32, 0.316083
1331.66, 0.316383
1332.0, 0.316616
1332.34, 0.316733
1332.69, 0.316920
1333.03, 0.317221
1333.37, 0.317327
1333.72, 0.317537
1334.06, 0.317951
1334.4, 0.318248
1334.75, 0.318383
1335.09, 0.318350
1335.43, 0.318559
1335.78, 0.319030
1336.12, 0.319333
1336.47, 0.319564
1336.81, 0.319831
1337.16, 0.320080
1337.5, 0.320289
1337.85, 0.320468
1338.19, 0.320613
1338.54, 0.320833
1338.88, 0.321118
1339.23, 0.321375
1339.58, 0.321551
1339.92, 0.321779
1340.27, 0.322042
1340.61, 0.322356
1340.96, 0.322635
1341.31, 0.322781
1341.66, 0.322972
1342.0, 0.323258
1342.35, 0.323480
1342.7, 0.323676
1343.05, 0.323904
1343.39, 0.324183
1343.74, 0.324498
1344.09, 0.324698
1344.44, 0.324800
1344.79, 0.325024
1345.14, 0.325349
1345.48, 0.325655
1345.83, 0.325883
1346.18, 0.326088
1346.53, 0.326255
1346.88, 0.326396
1347.23, 0.326636
1347.58, 0.326926
1347.93, 0.327176
1348.28, 0.327452
1348.64, 0.327711
1348.99, 0.327935
1349.34, 0.328158
1349.69, 0.328389
1350.04, 0.328571
1350.39, 0.328755
1350.74, 0.329020
1351.1, 0.329292
1351.45, 0.329523
1351.8, 0.329749
1352.15, 0.330045
1352.51, 0.330274
1352.86, 0.330455
1353.21, 0.330654
1353.56, 0.330960
1353.92, 0.331221
1354.27, 0.331350
1354.63, 0.331547
1354.98, 0.331839
1355.33, 0.332017
1355.69, 0.332234
1356.04, 0.332645
1356.4, 0.332985
1356.75, 0.333163
1357.11, 0.333360
1357.46, 0.333684
1357.82, 0.334055
1358.18, 0.334323
1358.53, 0.334522
1358.89, 0.334745
1359.24, 0.334974
1359.6, 0.335244
1359.96, 0.335564
1360.31, 0.335777
1360.67, 0.336020
1361.03, 0.336342
1361.39, 0.336607
1361.74, 0.336784
1362.1, 0.336945
1362.46, 0.337244
1362.82, 0.337715
1363.18, 0.338045
1363.53, 0.338331
1363.89, 0.338619
1364.25, 0.338803
1364.61, 0.338979
1364.97, 0.339373
1365.33, 0.339726
1365.69, 0.340026
1366.05, 0.340365
1366.41, 0.340618
1366.77, 0.340815
1367.13, 0.341060
1367.49, 0.341286
1367.85, 0.341596
1368.21, 0.341860
1368.57, 0.342045
1368.93, 0.342440
1369.3, 0.342860
1369.66, 0.343091
1370.02, 0.343301
1370.38, 0.343598
1370.74, 0.343765
1371.11, 0.344103
1371.47, 0.344524
1371.83, 0.344768
1372.19, 0.345073
1372.56, 0.345409
1372.92, 0.345661
1373.29, 0.345906
1373.65, 0.346250
1374.01, 0.346579
1374.38, 0.346828
1374.74, 0.347121
1375.11, 0.347458
1375.47, 0.347751
1375.84, 0.347985
1376.2, 0.348236
1376.57, 0.348583
1376.93, 0.348888
1377.3, 0.349177
1377.67, 0.349467
1378.03, 0.349776
1378.4, 0.350027
1378.76, 0.350264
1379.13, 0.350616
1379.5, 0.350985
1379.87, 0.351324
1380.23, 0.351474
1380.6, 0.351553
1380.97, 0.351912
1381.34, 0.352369
1381.7, 0.352704
1382.07, 0.352897
1382.44, 0.353055
1382.81, 0.353356
1383.18, 0.353761
1383.55, 0.354092
1383.92, 0.354480
1384.29, 0.354908
1384.66, 0.355137
1385.03, 0.355331
1385.4, 0.355693
1385.77, 0.356078
1386.14, 0.356375
1386.51, 0.356669
1386.88, 0.356976
1387.25, 0.357269
1387.62, 0.357483
1387.99, 0.357737
1388.36, 0.358136
1388.74, 0.358588
1389.11, 0.358936
1389.48, 0.359140
1389.85, 0.359411
1390.23, 0.359787
1390.6, 0.360071
1390.97, 0.360393
1391.35, 0.360766
1391.72, 0.361066
1392.09, 0.361223
1392.47, 0.361423
1392.84, 0.361903
1393.21, 0.362273
1393.59, 0.362537
1393.96, 0.362892
1394.34, 0.363205
1394.71, 0.363445
1395.09, 0.363738
1395.46, 0.364095
1395.84, 0.364433
1396.22, 0.364683
1396.59, 0.365043
1396.97, 0.365478
1397.35, 0.365800
1397.72, 0.366122
1398.1, 0.366488
1398.48, 0.366857
1398.85, 0.367103
1399.23, 0.367321
1399.61, 0.367683
1399.99, 0.368058
1400.37, 0.368283
1400.74, 0.368583
1401.12, 0.368974
1401.5, 0.369280
1401.88, 0.369631
1402.26, 0.370013
1402.64, 0.370358
1403.02, 0.370694
1403.4, 0.371028
1403.78, 0.371347
1404.16, 0.371627
1404.54, 0.371846
1404.92, 0.372088
1405.3, 0.372566
1405.68, 0.373034
1406.06, 0.373352
1406.44, 0.373657
1406.83, 0.373925
1407.21, 0.374193
1407.59, 0.374541
1407.97, 0.374913
1408.35, 0.375279
1408.74, 0.375623
1409.12, 0.375848
1409.5, 0.376153
1409.89, 0.376564
1410.27, 0.376947
1410.65, 0.377319
1411.04, 0.377661
1411.42, 0.377969
1411.81, 0.378299
1412.19, 0.378653
1412.58, 0.379018
1412.96, 0.379379
1413.35, 0.379689
1413.73, 0.379964
1414.12, 0.380274
1414.5, 0.380634
1414.89, 0.380968
1415.28, 0.381333
1415.66, 0.381699
1416.05, 0.382032
1416.44, 0.382360
1416.82, 0.382689
1417.21, 0.383006
1417.6, 0.383393
1417.98, 0.383762
1418.37, 0.384068
1418.76, 0.384420
1419.15, 0.384791
1419.54, 0.385147
1419.93, 0.385518
1420.32, 0.385845
1420.71, 0.386144
1421.09, 0.386513
1421.48, 0.386916
1421.88, 0.387256
1422.27, 0.387562
1422.66, 0.387938
1423.05, 0.388325
1423.44, 0.388613
1423.83, 0.388953
1424.22, 0.389360
1424.61, 0.389754
1425.0, 0.390100
1425.39, 0.390429
1425.78, 0.390756
1426.18, 0.391112
1426.57, 0.391465
1426.96, 0.391784
1427.36, 0.392138
1427.75, 0.392445
1428.14, 0.392783
1428.54, 0.393220
1428.93, 0.393578
1429.32, 0.393904
1429.72, 0.394283
1430.11, 0.394630
1430.51, 0.394958
1430.9, 0.395355
1431.3, 0.395725
1431.69, 0.396049
1432.09, 0.396436
1432.48, 0.396830
1432.88, 0.397196
1433.28, 0.397522
1433.67, 0.397837
1434.07, 0.398184
1434.46, 0.398548
1434.86, 0.398867
1435.26, 0.399225
1435.66, 0.399651
1436.05, 0.400004
1436.45, 0.400339
1436.85, 0.400665
1437.25, 0.400987
1437.65, 0.401312
1438.05, 0.401656
1438.44, 0.402048
1438.84, 0.402474
1439.24, 0.402830
1439.64, 0.403152
1440.04, 0.403503
1440.44, 0.403865
1440.84, 0.404254
1441.24, 0.404648
1441.65, 0.405037
1442.05, 0.405354
1442.45, 0.405662
1442.85, 0.406028
1443.25, 0.406402
1443.65, 0.406755
1444.05, 0.407121
1444.46, 0.407567
1444.86, 0.408002
1445.26, 0.408298
1445.67, 0.408577
1446.07, 0.408979
1446.47, 0.409385
1446.88, 0.409729
1447.28, 0.410066
1447.68, 0.410394
1448.09, 0.410735
1448.49, 0.411149
1448.9, 0.411550
1449.3, 0.411903
1449.71, 0.412265
1450.11, 0.412571
1450.52, 0.412880
1450.93, 0.413270
1451.33, 0.413671
1451.74, 0.414025
1452.14, 0.414364
1452.55, 0.414744
1452.96, 0.415108
1453.36, 0.415477
1453.77, 0.415928
1454.18, 0.416333
1454.59, 0.416649
1455.0, 0.416976
1455.41, 0.417324
1455.81, 0.417681
1456.22, 0.417994
1456.63, 0.418350
1457.04, 0.418748
1457.45, 0.419123
1457.86, 0.419469
1458.27, 0.419803
1458.68, 0.420208
1459.09, 0.420657
1459.5, 0.421031
1459.91, 0.421347
1460.32, 0.421701
1460.74, 0.422088
1461.15, 0.422421
1461.56, 0.422758
1461.97, 0.423127
1462.39, 0.423488
1462.8, 0.423853
1463.21, 0.424221
1463.62, 0.424581
1464.04, 0.424974
1464.45, 0.425375
1464.86, 0.425746
1465.28, 0.426112
1465.69, 0.426447
1466.11, 0.426768
1466.52, 0.427173
1466.94, 0.427585
1467.35, 0.427951
1467.77, 0.428341
1468.18, 0.428724
1468.6, 0.429062
1469.02, 0.429403
1469.43, 0.429781
1469.85, 0.430161
1470.27, 0.430477
1470.68, 0.430771
1471.1, 0.431126
1471.52, 0.431564
1471.94, 0.431958
1472.35, 0.432313
1472.77, 0.432704
1473.19, 0.433076
1473.61, 0.433441
1474.03, 0.433790
1474.45, 0.434140
1474.87, 0.434499
1475.29, 0.434864
1475.71, 0.435214
1476.13, 0.435562
1476.55, 0.435903
1476.97, 0.436261
1477.39, 0.436662
1477.81, 0.437082
1478.23, 0.437443
1478.65, 0.437782
1479.07, 0.438148
1479.5, 0.438528
1479.92, 0.438891
1480.34, 0.439258
1480.76, 0.439638
1481.19, 0.439957
1481.61, 0.440285
1482.03, 0.440701
1482.46, 0.441099
1482.88, 0.441411
1483.31, 0.441758
1483.73, 0.442159
1484.16, 0.442517
1484.58, 0.442883
1485.01, 0.443228
1485.43, 0.443556
1485.86, 0.443936
1486.28, 0.444304
1486.71, 0.444640
1487.14, 0.444992
1487.56, 0.445356
1487.99, 0.445728
1488.42, 0.446101
1488.84, 0.446486
1489.27, 0.446834
1489.7, 0.447125
1490.13, 0.447444
1490.56, 0.447820
1490.98, 0.448168
1491.41, 0.448490
1491.84, 0.448850
1492.27, 0.449240
1492.7, 0.449624
1493.13, 0.449959
1493.56, 0.450241
1493.99, 0.450621
1494.42, 0.451019
1494.85, 0.451351
1495.29, 0.451709
1495.72, 0.452058
1496.15, 0.452420
1496.58, 0.452794
1497.01, 0.453142
1497.44, 0.453486
1497.88, 0.453829
1498.31, 0.454232
1498.74, 0.454603
1499.18, 0.454872
1499.61, 0.455225
1500.04, 0.455662
1500.48, 0.456025
1500.91, 0.456312
1501.35, 0.456662
1501.78, 0.457021
1502.22, 0.457344
1502.65, 0.457660
1503.09, 0.458028
1503.53, 0.458389
1503.96, 0.458738
1504.4, 0.459100
1504.83, 0.459428
1505.27, 0.459768
1505.71, 0.460109
1506.15, 0.460429
1506.58, 0.460796
1507.02, 0.461165
1507.46, 0.461469
1507.9, 0.461810
1508.34, 0.462218
1508.78, 0.462591
1509.21, 0.462900
1509.66, 0.463194
1510.09, 0.463560
1510.53, 0.463923
1510.97, 0.464242
1511.42, 0.464592
1511.86, 0.464972
1512.3, 0.465327
1512.74, 0.465617
1513.18, 0.465914
1513.62, 0.466268
1514.06, 0.466625
1514.51, 0.466984
1514.95, 0.467355
1515.39, 0.467667
1515.83, 0.467936
1516.28, 0.468233
1516.72, 0.468584
1517.16, 0.468947
1517.61, 0.469303
1518.05, 0.469606
1518.5, 0.469918
1518.94, 0.470243
1519.39, 0.470612
1519.83, 0.470966
1520.28, 0.471290
1520.73, 0.471647
1521.17, 0.471982
1521.62, 0.472266
1522.07, 0.472598
1522.51, 0.472958
1522.96, 0.473259
1523.41, 0.473576
1523.85, 0.473927
1524.3, 0.474244
1524.75, 0.474562
1525.2, 0.474861
1525.65, 0.475145
1526.1, 0.475522
1526.55, 0.475879
1527.0, 0.476151
1527.45, 0.476476
1527.9, 0.476806
1528.35, 0.477109
1528.8, 0.477417
1529.25, 0.477748
1529.7, 0.478098
1530.15, 0.478423
1530.6, 0.478737
1531.05, 0.479047
1531.51, 0.479352
1531.96, 0.479679
1532.41, 0.480002
1532.87, 0.480347
1533.32, 0.480640
1533.77, 0.480888
1534.23, 0.481186
1534.68, 0.481522
1535.14, 0.481846
1535.59, 0.482148
1536.05, 0.482444
1536.5, 0.482764
1536.96, 0.483079
1537.41, 0.483420
1537.87, 0.483757
1538.32, 0.484042
1538.78, 0.484329
1539.24, 0.484626
1539.7, 0.484922
1540.15, 0.485176
1540.61, 0.485469
1541.07, 0.485829
1541.53, 0.486149
1541.98, 0.486428
1542.44, 0.486667
1542.9, 0.486937
1543.36, 0.487273
1543.82, 0.487621
1544.28, 0.487941
1544.74, 0.488243
1545.2, 0.488555
1545.66, 0.488826
1546.12, 0.489068
1546.59, 0.489400
1547.05, 0.489745
1547.51, 0.490027
1547.97, 0.490274
1548.43, 0.490521
1548.9, 0.490831
1549.36, 0.491157
1549.82, 0.491467
1550.29, 0.491790
1550.75, 0.492072
1551.21, 0.492278
1551.68, 0.492518
1552.14, 0.492854
1552.61, 0.493189
1553.07, 0.493420
1553.54, 0.493660
1554.0, 0.493994
1554.47, 0.494324
1554.93, 0.494607
1555.4, 0.494868
1555.87, 0.495166
1556.34, 0.495433
1556.8, 0.495695
1557.27, 0.495996
1557.74, 0.496286
1558.21, 0.496550
1558.68, 0.496829
1559.14, 0.497113
1559.61, 0.497378
1560.08, 0.497624
1560.55, 0.497915
1561.02, 0.498179
1561.49, 0.498443
1561.96, 0.498721
1562.43, 0.498976
1562.9, 0.499254
1563.38, 0.499531
1563.85, 0.499755
1564.32, 0.500021
1564.79, 0.500310
1565.26, 0.500568
1565.74, 0.500849
1566.21, 0.501126
1566.68, 0.501370
1567.16, 0.501637
1567.63, 0.501937
1568.1, 0.502190
1568.58, 0.502393
1569.05, 0.502606
1569.53, 0.502867
1570.0, 0.503119
1570.48, 0.503353
1570.96, 0.503593
1571.43, 0.503878
1571.91, 0.504177
1572.39, 0.504431
1572.86, 0.504665
1573.34, 0.504891
1573.82, 0.505112
1574.3, 0.505339
1574.77, 0.505620
1575.25, 0.505913
1575.73, 0.506171
1576.21, 0.506438
1576.69, 0.506675
1577.17, 0.506876
1577.65, 0.507062
1578.13, 0.507293
1578.61, 0.507590
1579.09, 0.507866
1579.57, 0.508090
1580.05, 0.508325
1580.54, 0.508551
1581.02, 0.508768
1581.5, 0.509017
1581.98, 0.509263
1582.47, 0.509511
1582.95, 0.509778
1583.43, 0.510002
1583.92, 0.510212
1584.4, 0.510433
1584.88, 0.510661
1585.37, 0.510901
1585.85, 0.511196
1586.34, 0.511422
1586.82, 0.511566
1587.31, 0.511787
1587.8, 0.512051
1588.28, 0.512292
1588.77, 0.512509
1589.26, 0.512701
1589.74, 0.512935
1590.23, 0.513157
1590.72, 0.513383
1591.21, 0.513646
1591.7, 0.513863
1592.19, 0.514061
1592.67, 0.514263
1593.16, 0.514469
1593.65, 0.514678
1594.14, 0.514901
1594.63, 0.515063
1595.12, 0.515246
1595.61, 0.515502
1596.11, 0.515743
1596.6, 0.515974
1597.09, 0.516203
1597.58, 0.516409
1598.08, 0.516608
1598.57, 0.516812
1599.06, 0.517038
1599.55, 0.517237
1600.05, 0.517411
1600.54, 0.517620
1601.04, 0.517806
1601.53, 0.517979
1602.03, 0.518210
1602.52, 0.518453
1603.02, 0.518644
1603.51, 0.518789
1604.01, 0.518969
1604.5, 0.519160
1605.0, 0.519366
1605.5, 0.519566
1606.0, 0.519762
1606.49, 0.520015
1606.99, 0.520214
1607.49, 0.520373
1607.99, 0.520564
1608.49, 0.520742
1608.99, 0.520901
1609.49, 0.521093
1609.99, 0.521308
1610.49, 0.521527
1610.99, 0.521731
1611.49, 0.521919
1611.99, 0.522089
1612.49, 0.522245
1612.99, 0.522422
1613.49, 0.522612
1614.0, 0.522778
1614.5, 0.522926
1615.0, 0.523127
1615.51, 0.523357
1616.01, 0.523560
1616.51, 0.523732
1617.02, 0.523907
1617.52, 0.524071
1618.03, 0.524201
1618.53, 0.524350
1619.04, 0.524595
1619.54, 0.524795
1620.05, 0.524950
1620.55, 0.525147
1621.06, 0.525308
1621.57, 0.525457
1622.08, 0.525625
1622.58, 0.525785
1623.09, 0.525955
1623.6, 0.526148
1624.11, 0.526323
1624.62, 0.526480
1625.13, 0.526653
1625.64, 0.526783
1626.15, 0.526925
1626.66, 0.527112
1627.17, 0.527296
1627.68, 0.527455
1628.19, 0.527567
1628.7, 0.527717
1629.21, 0.527915
1629.72, 0.528083
1630.24, 0.528249
1630.75, 0.528422
1631.26, 0.528573
1631.78, 0.528698
1632.29, 0.528850
1632.8, 0.529008
1633.32, 0.529173
1633.83, 0.529304
1634.35, 0.529463
1634.86, 0.529665
1635.38, 0.529772
1635.9, 0.529856
1636.41, 0.530033
1636.93, 0.530224
1637.45, 0.530378
1637.96, 0.530513
1638.48, 0.530647
1639.0, 0.530820
1639.52, 0.530961
1640.04, 0.531077
1640.56, 0.531246
1641.08, 0.531391
1641.59, 0.531515
1642.11, 0.531663
1642.63, 0.531812
1643.16, 0.531938
1643.68, 0.532033
1644.2, 0.532180
1644.72, 0.532347
1645.24, 0.532464
1645.76, 0.532567
1646.29, 0.532721
1646.81, 0.532881
1647.33, 0.532990
1647.86, 0.533120
1648.38, 0.533235
1648.9, 0.533338
1649.43, 0.533492
1649.95, 0.533681
1650.48, 0.533805
1651.0, 0.533892
1651.53, 0.534003
1652.06, 0.534122
1652.58, 0.534257
1653.11, 0.534400
1653.64, 0.534549
1654.17, 0.534648
1654.69, 0.534754
1655.22, 0.534850
1655.75, 0.534941
1656.28, 0.535088
1656.81, 0.535206
1657.34, 0.535265
1657.87, 0.535397
1658.4, 0.535597
1658.93, 0.535724
1659.46, 0.535817
1659.99, 0.535950
1660.52, 0.536058
1661.05, 0.536129
1661.59, 0.536213
1662.12, 0.536289
1662.65, 0.536411
1663.19, 0.536590
1663.72, 0.536719
1664.26, 0.536804
1664.79, 0.536924
1665.32, 0.537059
1665.86, 0.537138
1666.39, 0.537207
1666.93, 0.537319
1667.47, 0.537430
1668.0, 0.537532
1668.54, 0.537651
1669.08, 0.537779
1669.61, 0.537925
1670.15, 0.538063
1670.69, 0.538151
1671.23, 0.538213
1671.77, 0.538301
1672.31, 0.538393
1672.85, 0.538460
1673.39, 0.538526
1673.93, 0.538619
1674.47, 0.538738
1675.01, 0.538850
1675.55, 0.538953
1676.09, 0.539099
1676.64, 0.539197
1677.18, 0.539265
1677.72, 0.539357
1678.26, 0.539412
1678.81, 0.539504
1679.35, 0.539626
1679.89, 0.539690
1680.44, 0.539782
1680.98, 0.539878
1681.53, 0.539959
1682.07, 0.540036
1682.62, 0.540114
1683.17, 0.540210
1683.71, 0.540299
1684.26, 0.540390
1684.81, 0.540488
1685.36, 0.540572
1685.9, 0.540622
1686.45, 0.540704
1687.0, 0.540803
1687.55, 0.540878
1688.1, 0.540964
1688.65, 0.541016
1689.2, 0.541058
1689.75, 0.541154
1690.3, 0.541270
1690.85, 0.541346
1691.41, 0.541403
1691.96, 0.541467
1692.51, 0.541516
1693.06, 0.541583
1693.61, 0.541656
1694.17, 0.541748
1694.72, 0.541883
1695.28, 0.541998
1695.83, 0.542050
1696.39, 0.542093
1696.94, 0.542133
1697.5, 0.542173
1698.05, 0.542242
1698.61, 0.542316
1699.17, 0.542397
1699.72, 0.542538
1700.28, 0.542641
1700.84, 0.542659
1701.4, 0.542695
1701.95, 0.542757
1702.51, 0.542856
1703.07, 0.542937
1703.63, 0.543013
1704.19, 0.543115
1704.75, 0.543184
1705.31, 0.543232
1705.88, 0.543297
1706.44, 0.543390
1707.0, 0.543460
1707.56, 0.543487
1708.12, 0.543513
1708.69, 0.543579
1709.25, 0.543676
1709.81, 0.543754
1710.38, 0.543789
1710.94, 0.543805
1711.51, 0.543847
1712.07, 0.543932
1712.64, 0.544005
1713.2, 0.544046
1713.77, 0.544103
1714.34, 0.544165
1714.9, 0.544209
1715.47, 0.544263
1716.04, 0.544348
1716.61, 0.544426
1717.18, 0.544485
1717.74, 0.544529
1718.31, 0.544577
1718.88, 0.544651
1719.45, 0.544694
1720.02, 0.544699
1720.59, 0.544743
1721.17, 0.544828
1721.74, 0.544881
1722.31, 0.544940
1722.88, 0.544982
1723.45, 0.545007
1724.03, 0.545075
1724.6, 0.545137
1725.18, 0.545180
1725.75, 0.545265
1726.33, 0.545364
1726.9, 0.545445
1727.48, 0.545471
1728.05, 0.545489
1728.63, 0.545528
1729.2, 0.545570
1729.78, 0.545646
1730.36, 0.545717
1730.94, 0.545737
1731.51, 0.545750
1732.09, 0.545776
1732.67, 0.545814
1733.25, 0.545850
1733.83, 0.545890
1734.41, 0.545964
1734.99, 0.546031
1735.57, 0.546077
1736.15, 0.546128
1736.73, 0.546164
1737.32, 0.546215
1737.9, 0.546267
1738.48, 0.546317
1739.07, 0.546371
1739.65, 0.546391
1740.23, 0.546393
1740.82, 0.546451
1741.4, 0.546486
1741.99, 0.546519
1742.57, 0.546581
1743.16, 0.546630
1743.74, 0.546674
1744.33, 0.546718
1744.92, 0.546758
1745.51, 0.546784
1746.09, 0.546818
1746.68, 0.546860
1747.27, 0.546895
1747.86, 0.546916
1748.45, 0.546902
1749.04, 0.546919
1749.63, 0.546978
1750.22, 0.547023
1750.81, 0.547047
1751.4, 0.547091
1751.99, 0.547174
1752.59, 0.547243
1753.18, 0.547274
1753.77, 0.547284
1754.37, 0.547304
1754.96, 0.547345
1755.56, 0.547392
1756.15, 0.547438
1756.74, 0.547460
1757.34, 0.547489
1757.94, 0.547524
1758.53, 0.547550
1759.13, 0.547579
1759.73, 0.547597
1760.32, 0.547578
1760.92, 0.547572
1761.52, 0.547605
1762.12, 0.547635
1762.72, 0.547653
1763.32, 0.547715
1763.92, 0.547785
1764.52, 0.547829
1765.12, 0.547853
1765.72, 0.547867
1766.32, 0.547859
1766.92, 0.547870
1767.53, 0.547946
1768.13, 0.547978
1768.73, 0.547978
1769.34, 0.548035
1769.94, 0.548069
1770.55, 0.548075
1771.15, 0.548109
1771.76, 0.548160
1772.36, 0.548171
1772.97, 0.548155
1773.57, 0.548174
1774.18, 0.548193
1774.79, 0.548225
1775.4, 0.548241
1776.0, 0.548239
1776.61, 0.548309
1777.22, 0.548357
1777.83, 0.548344
1778.44, 0.548340
1779.05, 0.548356
1779.66, 0.548425
1780.27, 0.548519
1780.88, 0.548520
1781.5, 0.548491
1782.11, 0.548514
1782.72, 0.548525
1783.33, 0.548510
1783.95, 0.548520
1784.56, 0.548569
1785.18, 0.548586
1785.79, 0.548587
1786.41, 0.548616
1787.02, 0.548635
1787.64, 0.548659
1788.26, 0.548694
1788.87, 0.548712
1789.49, 0.548714
1790.11, 0.548713
1790.73, 0.548742
1791.35, 0.548777
1791.96, 0.548771
1792.58, 0.548790
1793.21, 0.548834
1793.83, 0.548857
1794.45, 0.548872
1795.07, 0.548873
1795.69, 0.548867
1796.31, 0.548883
1796.93, 0.548930
1797.56, 0.548952
1798.18, 0.548963
1798.8, 0.549013
1799.43, 0.548996
1800.05, 0.548967
1800.68, 0.548978
1801.3, 0.548962
1801.93, 0.548944
1802.56, 0.548942
1803.18, 0.548985
1803.81, 0.549061
1804.44, 0.549111
1805.07, 0.549138
1805.7, 0.549127
1806.33, 0.549136
1806.95, 0.549156
1807.58, 0.549160
1808.22, 0.549189
1808.85, 0.549210
1809.48, 0.549204
1810.11, 0.549182
1810.74, 0.549174
1811.38, 0.549213
1812.01, 0.549226
1812.64, 0.549205
1813.28, 0.549210
1813.91, 0.549271
1814.55, 0.549307
1815.18, 0.549260
1815.82, 0.549240
1816.45, 0.549291
1817.09, 0.549333
1817.73, 0.549360
1818.36, 0.549354
1819.0, 0.549375
1819.64, 0.549290
1820.28, 0.549136
1820.92, 0.549174
1821.56, 0.549249
1822.2, 0.549257
1822.84, 0.549380
1823.48, 0.549480
1824.12, 0.549505
1824.76, 0.549500
1825.41, 0.549400
1826.05, 0.549130
1826.69, 0.549159
1827.34, 0.549405
1827.98, 0.549419
1828.63, 0.549406
1829.27, 0.549451
1829.92, 0.549460
1830.56, 0.549394
1831.21, 0.549335
1831.86, 0.549419
1832.5, 0.549483
1833.15, 0.549530
1833.8, 0.549590
1834.45, 0.549521
1835.1, 0.549411
1835.75, 0.549287
1836.4, 0.549245
1837.05, 0.549331
1837.7, 0.549279
1838.35, 0.549454
1839.01, 0.549564
1839.66, 0.549243
1840.31, 0.549303
1840.96, 0.549523
1841.62, 0.549274
1842.27, 0.549216
1842.93, 0.549542
1843.58, 0.549681
1844.24, 0.549694
1844.9, 0.549706
1845.55, 0.549708
1846.21, 0.549545
1846.87, 0.549228
1847.53, 0.549211
1848.18, 0.549354
1848.84, 0.549490
1849.5, 0.549669
1850.16, 0.549684
1850.82, 0.549709
1851.48, 0.549759
1852.14, 0.549715
1852.81, 0.549604
1853.47, 0.549442
1854.13, 0.549399
1854.8, 0.549674
1855.46, 0.549783
1856.12, 0.549619
1856.79, 0.549482
1857.45, 0.549625
1858.12, 0.549811
1858.79, 0.549797
1859.45, 0.549538
1860.12, 0.549512
1860.79, 0.549768
1861.46, 0.549880
1862.12, 0.549858
1862.79, 0.549829
1863.46, 0.549776
1864.13, 0.549674
1864.8, 0.549714
1865.48, 0.549790
1866.15, 0.549819
1866.82, 0.549746
1867.49, 0.549478
1868.16, 0.549449
1868.84, 0.549671
1869.51, 0.549686
1870.19, 0.549531
1870.86, 0.549295
1871.54, 0.549485
1872.21, 0.549666
1872.89, 0.549334
1873.56, 0.549384
1874.24, 0.549711
1874.92, 0.549718
1875.6, 0.549711
1876.28, 0.549710
1876.96, 0.549527
1877.64, 0.549632
1878.32, 0.549836
1879.0, 0.549841
1879.68, 0.549862
1880.36, 0.549869
1881.04, 0.549850
1881.73, 0.549853
1882.41, 0.549868
1883.09, 0.549828
1883.78, 0.549683
1884.46, 0.549710
1885.15, 0.549873
1885.83, 0.549863
1886.52, 0.549789
1887.21, 0.549801
1887.89, 0.549868
1888.58, 0.549866
1889.27, 0.549784
1889.96, 0.549631
1890.65, 0.549673
1891.34, 0.549782
1892.03, 0.549708
1892.72, 0.549699
1893.41, 0.549722
1894.1, 0.549730
1894.79, 0.549786
1895.49, 0.549818
1896.18, 0.549817
1896.87, 0.549781
1897.57, 0.549738
1898.26, 0.549735
1898.96, 0.549555
1899.65, 0.549307
1900.35, 0.549437
1901.05, 0.549660
1901.74, 0.549691
1902.44, 0.549481
1903.14, 0.549374
1903.84, 0.549603
1904.54, 0.549555
1905.24, 0.549287
1905.94, 0.549355
1906.64, 0.549438
1907.34, 0.549500
1908.04, 0.549652
1908.75, 0.549655
1909.45, 0.549635
1910.15, 0.549599
1910.86, 0.549496
1911.56, 0.549457
1912.27, 0.549545
1912.97, 0.549462
1913.68, 0.549305
1914.39, 0.549458
1915.09, 0.549588
1915.8, 0.549506
1916.51, 0.549452
1917.22, 0.549502
1917.93, 0.549558
1918.64, 0.549568
1919.35, 0.549441
1920.06, 0.549222
1920.77, 0.549178
1921.48, 0.549390
1922.19, 0.549561
1922.91, 0.549550
1923.62, 0.549490
1924.33, 0.549476
1925.05, 0.549533
1925.76, 0.549522
1926.48, 0.549494
1927.19, 0.549506
1927.91, 0.549503
1928.63, 0.549487
1929.35, 0.549531
1930.07, 0.549521
1930.78, 0.549511
1931.5, 0.549536
1932.22, 0.549547
1932.94, 0.549545
1933.66, 0.549506
1934.39, 0.549526
1935.11, 0.549565
1935.83, 0.549526
1936.55, 0.549485
1937.28, 0.549523
1938.0, 0.549577
1938.73, 0.549552
1939.45, 0.549496
1940.18, 0.549503
1940.9, 0.549516
1941.63, 0.549541
1942.36, 0.549590
1943.09, 0.549608
1943.81, 0.549598
1944.54, 0.549599
1945.27, 0.549606
1946.0, 0.549598
1946.73, 0.549581
1947.47, 0.549578
1948.2, 0.549592
1948.93, 0.549606
1949.66, 0.549587
1950.4, 0.549565
1951.13, 0.549610
1951.86, 0.549665
1952.6, 0.549673
1953.34, 0.549636
1954.07, 0.549619
1954.81, 0.549635
1955.55, 0.549669
1956.29, 0.549655
1957.02, 0.549602
1957.76, 0.549624
1958.5, 0.549661
1959.24, 0.549654
1959.98, 0.549632
1960.72, 0.549666
1961.47, 0.549712
1962.21, 0.549687
1962.95, 0.549691
1963.7, 0.549746
1964.44, 0.549769
1965.18, 0.549734
1965.93, 0.549722
1966.67, 0.549758
1967.42, 0.549740
1968.17, 0.549707
1968.92, 0.549706
1969.66, 0.549730
1970.41, 0.549747
1971.16, 0.549713
1971.91, 0.549696
1972.66, 0.549720
1973.41, 0.549727
1974.16, 0.549760
1974.92, 0.549802
1975.67, 0.549790
1976.42, 0.549777
1977.18, 0.549776
1977.93, 0.549796
1978.69, 0.549822
1979.44, 0.549808
1980.2, 0.549785
1980.95, 0.549793
1981.71, 0.549811
1982.47, 0.549817
1983.23, 0.549819
1983.99, 0.549829
1984.74, 0.549858
1985.51, 0.549868
1986.27, 0.549848
1987.03, 0.549873
1987.79, 0.549925
1988.55, 0.549934
1989.32, 0.549907
1990.08, 0.549875
1990.84, 0.549877
1991.61, 0.549882
1992.37, 0.549892
1993.14, 0.549894
1993.9, 0.549891
1994.67, 0.549906
1995.44, 0.549939
1996.21, 0.549958
1996.98, 0.549951
1997.75, 0.549949
1998.52, 0.549958
1999.29, 0.549976
2000.06, 0.549978
2000.83, 0.549985
2001.6, 0.550025
2002.38, 0.550030
2003.15, 0.550025
2003.93, 0.550050
2004.7, 0.550051
2005.48, 0.550061
2006.25, 0.550087
2007.03, 0.550102
2007.81, 0.550114
2008.58, 0.550115
2009.36, 0.550136
2010.14, 0.550168
2010.92, 0.550162
2011.7, 0.550150
2012.48, 0.550175
2013.26, 0.550219
2014.05, 0.550241
2014.83, 0.550246
2015.61, 0.550254
2016.4, 0.550248
2017.18, 0.550247
2017.97, 0.550253
2018.75, 0.550256
2019.54, 0.550308
2020.32, 0.550375
2021.11, 0.550367
2021.9, 0.550355
2022.69, 0.550390
2023.48, 0.550377
2024.27, 0.550348
2025.06, 0.550369
2025.85, 0.550394
2026.64, 0.550402
2027.44, 0.550420
2028.23, 0.550435
2029.02, 0.550460
2029.82, 0.550491
2030.61, 0.550504
2031.41, 0.550525
2032.2, 0.550529
2033.0, 0.550511
2033.8, 0.550501
2034.6, 0.550508
2035.4, 0.550536
2036.2, 0.550561
2037.0, 0.550550
2037.8, 0.550564
2038.6, 0.550608
2039.4, 0.550633
2040.2, 0.550645
2041.01, 0.550633
2041.81, 0.550634
2042.61, 0.550673
2043.42, 0.550700
2044.22, 0.550690
2045.03, 0.550707
2045.84, 0.550743
2046.65, 0.550750
2047.46, 0.550741
2048.26, 0.550780
2049.07, 0.550815
2049.88, 0.550791
2050.69, 0.550777
2051.51, 0.550780
2052.32, 0.550789
2053.13, 0.550836
2053.94, 0.550877
2054.76, 0.550866
2055.57, 0.550862
2056.39, 0.550884
2057.2, 0.550892
2058.02, 0.550920
2058.84, 0.550933
2059.66, 0.550941
2060.48, 0.550963
2061.29, 0.550942
2062.11, 0.550934
2062.94, 0.550962
2063.76, 0.550981
2064.58, 0.550965
2065.4, 0.550959
2066.22, 0.551010
2067.05, 0.551065
2067.87, 0.551092
2068.7, 0.551093
2069.52, 0.551103
2070.35, 0.551121
2071.18, 0.551121
2072.0, 0.551143
2072.83, 0.551163
2073.66, 0.551182
2074.49, 0.551193
2075.32, 0.551195
2076.15, 0.551222
2076.98, 0.551233
2077.82, 0.551243
2078.65, 0.551237
2079.48, 0.551211
2080.32, 0.551221
2081.15, 0.551237
2081.99, 0.551238
2082.83, 0.551259
2083.66, 0.551262
2084.5, 0.551257
2085.34, 0.551301
2086.18, 0.551321
2087.02, 0.551312
2087.86, 0.551331
2088.7, 0.551360
2089.54, 0.551385
2090.39, 0.551399
2091.23, 0.551383
2092.07, 0.551354
2092.92, 0.551352
2093.76, 0.551386
2094.61, 0.551411
2095.45, 0.551441
2096.3, 0.551475
2097.15, 0.551493
2098.0, 0.551531
2098.85, 0.551547
2099.7, 0.551543
2100.55, 0.551551
2101.4, 0.551582
2102.25, 0.551600
2103.1, 0.551590
2103.96, 0.551577
2104.81, 0.551593
2105.67, 0.551611
2106.52, 0.551596
2107.38, 0.551573
2108.24, 0.551593
2109.09, 0.551621
2109.95, 0.551604
2110.81, 0.551616
2111.67, 0.551670
2112.53, 0.551709
2113.39, 0.551699
2114.25, 0.551684
2115.12, 0.551735
2115.98, 0.551770
2116.84, 0.551757
2117.71, 0.551743
2118.58, 0.551749
2119.44, 0.551795
2120.31, 0.551820
2121.18, 0.551778
2122.04, 0.551762
2122.91, 0.551802
2123.78, 0.551836
2124.65, 0.551823
2125.52, 0.551817
2126.4, 0.551825
2127.27, 0.551864
2128.14, 0.551922
2129.02, 0.551914
2129.89, 0.551896
2130.77, 0.551935
2131.64, 0.551983
2132.52, 0.551969
2133.4, 0.551947
2134.27, 0.551979
2135.15, 0.551982
2136.03, 0.551953
2136.91, 0.551975
2137.79, 0.552022
2138.68, 0.552030
2139.56, 0.552024
2140.44, 0.552035
2141.33, 0.552035
2142.21, 0.552015
2143.1, 0.552013
2143.99, 0.552054
2144.87, 0.552089
2145.76, 0.552087
2146.65, 0.552053
2147.54, 0.552059
2148.43, 0.552118
2149.32, 0.552139
2150.21, 0.552137
2151.1, 0.552140
2151.99, 0.552143
2152.89, 0.552162
2153.78, 0.552205
2154.68, 0.552211
2155.57, 0.552190
2156.47, 0.552182
2157.37, 0.552169
2158.27, 0.552192
2159.16, 0.552232
2160.06, 0.552244
2160.96, 0.552278
2161.86, 0.552299
2162.77, 0.552304
2163.67, 0.552323
2164.57, 0.552346
2165.48, 0.552348
2166.38, 0.552336
2167.29, 0.552352
2168.2, 0.552368
2169.1, 0.552385
2170.01, 0.552416
2170.92, 0.552447
2171.83, 0.552458
2172.74, 0.552458
2173.65, 0.552460
2174.56, 0.552459
2175.47, 0.552476
2176.39, 0.552489
2177.3, 0.552480
2178.22, 0.552461
2179.13, 0.552422
2180.05, 0.552416
2180.96, 0.552454
2181.88, 0.552485
2182.8, 0.552506
2183.72, 0.552497
2184.64, 0.552483
2185.56, 0.552511
2186.48, 0.552498
2187.41, 0.552457
2188.33, 0.552463
2189.25, 0.552471
2190.18, 0.552510
2191.1, 0.552557
2192.03, 0.552557
2192.96, 0.552542
2193.89, 0.552573
2194.82, 0.552569
2195.74, 0.552513
2196.68, 0.552511
2197.61, 0.552552
2198.54, 0.552586
2199.47, 0.552603
2200.4, 0.552587
2201.34, 0.552568
2202.28, 0.552569
2203.21, 0.552579
2204.15, 0.552567
2205.08, 0.552534
2206.02, 0.552537
2206.96, 0.552579
2207.9, 0.552603
2208.84, 0.552606
2209.78, 0.552624
2210.73, 0.552654
2211.67, 0.552655
2212.61, 0.552640
2213.56, 0.552632
2214.5, 0.552639
2215.45, 0.552653
2216.4, 0.552662
2217.35, 0.552686
2218.3, 0.552687
2219.24, 0.552679
2220.2, 0.552714
2221.15, 0.552746
2222.1, 0.552723
2223.05, 0.552688
2224.0, 0.552698
2224.96, 0.552715
2225.91, 0.552739
2226.87, 0.552765
2227.83, 0.552772
2228.79, 0.552770
2229.74, 0.552765
2230.7, 0.552771
2231.66, 0.552794
2232.63, 0.552805
2233.59, 0.552828
2234.55, 0.552833
2235.51, 0.552758
2236.48, 0.552711
2237.44, 0.552706
2238.41, 0.552687
2239.38, 0.552709
2240.34, 0.552731
2241.31, 0.552726
2242.28, 0.552767
2243.25, 0.552810
2244.22, 0.552817
2245.19, 0.552839
2246.17, 0.552841
2247.14, 0.552808
2248.12, 0.552795
2249.09, 0.552839
2250.07, 0.552847
2251.04, 0.552812
2252.02, 0.552829
2253.0, 0.552864
2253.98, 0.552868
2254.96, 0.552869
2255.94, 0.552869
2256.92, 0.552839
2257.91, 0.552804
2258.89, 0.552808
2259.88, 0.552797
2260.86, 0.552769
2261.85, 0.552778
2262.83, 0.552810
2263.82, 0.552829
2264.81, 0.552833
2265.8, 0.552838
2266.79, 0.552834
2267.78, 0.552825
2268.78, 0.552807
2269.77, 0.552782
2270.76, 0.552789
2271.76, 0.552823
2272.75, 0.552856
2273.75, 0.552852
2274.75, 0.552817
2275.75, 0.552788
2276.75, 0.552780
2277.75, 0.552796
2278.75, 0.552817
2279.75, 0.552809
2280.75, 0.552770
2281.76, 0.552767
2282.76, 0.552797
2283.77, 0.552802
2284.77, 0.552797
2285.78, 0.552785
2286.79, 0.552790
2287.8, 0.552793
2288.81, 0.552781
2289.82, 0.552760
2290.83, 0.552749
2291.84, 0.552727
2292.86, 0.552709
2293.87, 0.552736
2294.89, 0.552766
2295.91, 0.552783
2296.92, 0.552775
2297.94, 0.552763
2298.96, 0.552760
2299.98, 0.552739
2301.0, 0.552737
2302.02, 0.552760
2303.04, 0.552754
2304.07, 0.552723
2305.09, 0.552732
2306.12, 0.552786
2307.15, 0.552837
2308.17, 0.552862
2309.2, 0.552834
2310.23, 0.552778
2311.26, 0.552776
2312.29, 0.552797
2313.32, 0.552795
2314.35, 0.552787
2315.39, 0.552824
2316.42, 0.552848
2317.46, 0.552812
2318.5, 0.552788
2319.53, 0.552764
2320.57, 0.552784
2321.61, 0.552848
2322.65, 0.552871
2323.69, 0.552887
2324.73, 0.552873
2325.78, 0.552857
2326.82, 0.552885
2327.86, 0.552881
2328.91, 0.552865
2329.96, 0.552882
2331.01, 0.552899
2332.05, 0.552888
2333.1, 0.552862
2334.15, 0.552871
2335.21, 0.552875
2336.26, 0.552831
2337.31, 0.552800
2338.36, 0.552823
2339.42, 0.552839
2340.48, 0.552832
2341.53, 0.552827
2342.59, 0.552807
2343.65, 0.552810
2344.71, 0.552843
2345.77, 0.552820
2346.83, 0.552787
2347.9, 0.552806
2348.96, 0.552800
2350.02, 0.552759
2351.09, 0.552772
2352.16, 0.552830
2353.23, 0.552826
2354.29, 0.552772
2355.36, 0.552758
2356.43, 0.552762
2357.51, 0.552771
2358.58, 0.552776
2359.65, 0.552770
2360.73, 0.552758
2361.8, 0.552759
2362.88, 0.552773
2363.96, 0.552783
2365.03, 0.552803
2366.11, 0.552789
2367.19, 0.552767
2368.27, 0.552747
2369.36, 0.552717
2370.44, 0.552717
2371.53, 0.552699
2372.61, 0.552684
2373.7, 0.552684
2374.78, 0.552669
2375.87, 0.552659
2376.96, 0.552666
2378.05, 0.552702
2379.14, 0.552749
2380.24, 0.552747
2381.33, 0.552712
2382.42, 0.552716
2383.52, 0.552743
2384.61, 0.552764
2385.71, 0.552781
2386.81, 0.552773
2387.91, 0.552766
2389.01, 0.552770
2390.11, 0.552763
2391.22, 0.552715
2392.32, 0.552664
2393.42, 0.552694
2394.53, 0.552733
2395.64, 0.552703
2396.74, 0.552672
2397.85, 0.552662
2398.96, 0.552662
2400.07, 0.552669
2401.18, 0.552683
2402.3, 0.552681
2403.41, 0.552638
2404.52, 0.552627
2405.64, 0.552664
2406.76, 0.552663
2407.88, 0.552660
2408.99, 0.552680
2410.11, 0.552658
2411.23, 0.552626
2412.36, 0.552643
2413.48, 0.552654
2414.6, 0.552623
2415.73, 0.552605
2416.85, 0.552593
2417.98, 0.552578
2419.11, 0.552596
2420.24, 0.552632
2421.37, 0.552620
2422.5, 0.552592
2423.64, 0.552593
2424.77, 0.552593
2425.9, 0.552567
2427.04, 0.552549
2428.18, 0.552584
2429.31, 0.552614
2430.45, 0.552599
2431.59, 0.552575
2432.73, 0.552584
2433.88, 0.552578
2435.02, 0.552534
2436.16, 0.552534
2437.31, 0.552532
2438.45, 0.552480
2439.6, 0.552431
2440.75, 0.552426
2441.9, 0.552436
2443.05, 0.552414
2444.2, 0.552409
2445.35, 0.552427
2446.51, 0.552440
2447.67, 0.552422
2448.82, 0.552363
2449.98, 0.552292
2451.14, 0.552261
2452.3, 0.552274
2453.46, 0.552264
2454.62, 0.552248
2455.78, 0.552234
2456.94, 0.552237
2458.11, 0.552246
2459.28, 0.552214
2460.44, 0.552201
2461.61, 0.552217
2462.78, 0.552215
2463.95, 0.552213
2465.12, 0.552182
2466.3, 0.552121
2467.47, 0.552091
2468.65, 0.552102
2469.82, 0.552114
2471.0, 0.552082
2472.18, 0.552024
2473.36, 0.552025
2474.54, 0.552064
2475.72, 0.552062
2476.9, 0.552047
2478.08, 0.552051
2479.27, 0.552057
2480.46, 0.552054
2481.64, 0.552055
2482.83, 0.552046
2484.02, 0.551979
2485.21, 0.551952
2486.4, 0.551984
2487.6, 0.551964
2488.79, 0.551937
2489.99, 0.551934
2491.18, 0.551910
2492.38, 0.551890
2493.58, 0.551897
2494.78, 0.551902
2495.98, 0.551924
2497.18, 0.551917
2498.39, 0.551890
2499.59, 0.551871
2500.8, 0.551834
2502.01, 0.551809
2503.21, 0.551799
2504.42, 0.551784
2505.63, 0.551763
2506.84, 0.551769
2508.06, 0.551769
2509.27, 0.551725
2510.49, 0.551677
2511.7, 0.551685
2512.92, 0.551709
2514.14, 0.551714
2515.36, 0.551678
2516.58, 0.551627
2517.8, 0.551651
2519.03, 0.551685
2520.25, 0.551691
2521.48, 0.551674
2522.7, 0.551595
2523.93, 0.551531
2525.16, 0.551548
2526.39, 0.551551
2527.62, 0.551502
2528.86, 0.551468
2530.09, 0.551423
2531.33, 0.551273
2532.56, 0.551187
2533.8, 0.551320
2535.04, 0.551285
2536.28, 0.551166
2537.52, 0.551374
2538.76, 0.551525
2540.01, 0.551539
2541.25, 0.551384
2542.5, 0.550958
2543.75, 0.550844
2544.99, 0.551134
2546.24, 0.551227
2547.49, 0.551005
2548.75, 0.551062
2550.0, 0.551098
2551.26, 0.550813
2552.51, 0.550593
2553.77, 0.550875
2555.03, 0.551331
2556.29, 0.551374
2557.55, 0.551345
2558.81, 0.551193
2560.08, 0.550278
2561.34, 0.549218
2562.61, 0.549099
2563.88, 0.549397
2565.14, 0.550120
2566.41, 0.551065
2567.68, 0.551045
2568.96, 0.549986
2570.23, 0.549845
2571.51, 0.550523
2572.78, 0.549424
2574.06, 0.549177
2575.34, 0.550152
2576.62, 0.549756
2577.9, 0.550038
2579.18, 0.550763
2580.47, 0.550212
2581.75, 0.549850
2583.04, 0.548672
2584.32, 0.548105
2585.61, 0.549397
2586.9, 0.549286
2588.2, 0.549147
2589.49, 0.549873
2590.78, 0.550421
2592.08, 0.550342
2593.37, 0.547115
2594.67, 0.543245
2595.97, 0.545173
2597.27, 0.549264
2598.57, 0.550602
2599.88, 0.550416
2601.18, 0.549767
2602.49, 0.549403
2603.79, 0.548511
2605.1, 0.546719
2606.41, 0.547067
2607.72, 0.548783
2609.03, 0.549111
2610.35, 0.549377
2611.66, 0.549874
2612.98, 0.549726
2614.3, 0.549734
2615.62, 0.548515
2616.94, 0.547195
2618.26, 0.548247
2619.58, 0.547480
2620.91, 0.546983
2622.23, 0.549289
2623.56, 0.550262
2624.89, 0.549434
2626.22, 0.547747
2627.55, 0.548140
2628.88, 0.548369
2630.21, 0.546299
2631.55, 0.547225
2632.89, 0.548911
2634.22, 0.548882
2635.56, 0.549407
2636.9, 0.549741
2638.25, 0.549609
2639.59, 0.549473
2640.93, 0.549242
2642.28, 0.549134
2643.63, 0.549205
2644.98, 0.548685
2646.33, 0.548480
2647.68, 0.549042
2649.03, 0.549309
2650.39, 0.549029
2651.74, 0.548058
2653.1, 0.547748
2654.46, 0.548097
2655.82, 0.548163
2657.18, 0.548545
2658.54, 0.548137
2659.9, 0.547454
2661.27, 0.547633
2662.64, 0.547737
2664.01, 0.545711
2665.38, 0.543187
2666.74, 0.543075
2668.12, 0.544920
2669.49, 0.543317
2670.87, 0.541968
2672.24, 0.545487
2673.62, 0.547160
2675.0, 0.545740
2676.38, 0.544295
2677.76, 0.544199
2679.15, 0.544409
2680.54, 0.545433
2681.92, 0.546012
2683.31, 0.545164
2684.7, 0.544690
2686.09, 0.544338
2687.48, 0.544012
2688.88, 0.543715
2690.27, 0.543303
2691.67, 0.542191
2693.07, 0.539702
2694.47, 0.538106
2695.87, 0.538156
2697.27, 0.538117
2698.67, 0.537229
2700.08, 0.535363
2701.49, 0.533634
2702.9, 0.532911
2704.31, 0.531980
2705.72, 0.530694
2707.13, 0.529236
2708.54, 0.527163
2709.96, 0.524417
2711.38, 0.523363
2712.8, 0.525034
2714.22, 0.525847
2715.64, 0.525407
2717.06, 0.524875
2718.49, 0.523705
2719.91, 0.521143
2721.34, 0.521226
2722.77, 0.522482
2724.2, 0.521225
2725.63, 0.521779
2727.07, 0.523498
2728.5, 0.523711
2729.94, 0.523305
2731.38, 0.522923
2732.82, 0.522182
2734.26, 0.520618
2735.7, 0.520229
2737.15, 0.520370
2738.59, 0.518230
2740.04, 0.516164
2741.49, 0.516700
2742.94, 0.518149
2744.39, 0.518517
2745.84, 0.518082
2747.3, 0.517561
2748.76, 0.517063
2750.21, 0.516435
2751.67, 0.515688
2753.14, 0.514652
2754.6, 0.511962
2756.06, 0.510890
2757.53, 0.512571
2759.0, 0.513149
2760.46, 0.512188
2761.94, 0.510482
2763.41, 0.509617
2764.88, 0.510050
2766.36, 0.509838
2767.83, 0.509120
2769.31, 0.508383
2770.79, 0.507383
2772.27, 0.507088
2773.76, 0.507197
2775.24, 0.506918
2776.73, 0.506447
2778.22, 0.506097
2779.71, 0.505694
2781.2, 0.505167
2782.69, 0.504970
2784.18, 0.504815
2785.68, 0.503727
2787.18, 0.502572
2788.68, 0.502565
2790.18, 0.502762
2791.68, 0.502479
2793.19, 0.502099
2794.69, 0.501739
2796.2, 0.501282
2797.71, 0.500831
2799.22, 0.500524
2800.73, 0.499989
2802.24, 0.498970
2803.76, 0.498457
2805.28, 0.498731
2806.8, 0.498827
2808.32, 0.498595
2809.84, 0.498381
2811.36, 0.498254
2812.89, 0.498062
2814.42, 0.497665
2815.94, 0.497344
2817.48, 0.497034
2819.01, 0.496502
2820.54, 0.496198
2822.08, 0.496241
2823.61, 0.496223
2825.15, 0.496049
2826.69, 0.495769
2828.23, 0.495520
2829.78, 0.495343
2831.32, 0.495035
2832.87, 0.494587
2834.42, 0.494117
2835.97, 0.493743
2837.52, 0.493423
2839.08, 0.493222
2840.63, 0.493140
2842.19, 0.492986
2843.75, 0.492778
2845.31, 0.492551
2846.87, 0.492273
2848.44, 0.491935
2850.0, 0.491692
2851.57, 0.491549
2853.14, 0.491264
2854.71, 0.490963
2856.28, 0.490853
2857.86, 0.490763
2859.43, 0.490559
2861.01, 0.490371
2862.59, 0.490183
2864.17, 0.489947
2865.76, 0.489689
2867.34, 0.489461
2868.93, 0.489260
2870.52, 0.488973
2872.11, 0.488711
2873.7, 0.488562
2875.29, 0.488433
2876.89, 0.488274
2878.49, 0.488092
2880.08, 0.487920
2881.69, 0.487764
2883.29, 0.487568
2884.89, 0.487383
2886.5, 0.487245
2888.11, 0.487069
2889.72, 0.486912
2891.33, 0.486777
2892.94, 0.486625
2894.56, 0.486444
2896.17, 0.486237
2897.79, 0.486111
2899.42, 0.485913
2901.04, 0.485634
2902.66, 0.485479
2904.29, 0.485357
2905.92, 0.485283
2907.55, 0.485218
2909.18, 0.485078
2910.81, 0.484949
2912.45, 0.484814
2914.08, 0.484652
2915.72, 0.484516
2917.36, 0.484388
2919.01, 0.484244
2920.65, 0.484071
2922.3, 0.483896
2923.94, 0.483824
2925.59, 0.483781
2927.25, 0.483654
2928.9, 0.483532
2930.56, 0.483491
2932.21, 0.483471
2933.87, 0.483391
2935.53, 0.483287
2937.2, 0.483194
2938.86, 0.483126
2940.53, 0.483082
2942.2, 0.482998
2943.87, 0.482919
2945.54, 0.482857
2947.22, 0.482750
2948.89, 0.482686
2950.57, 0.482675
2952.25, 0.482644
2953.93, 0.482627
2955.62, 0.482671
2957.3, 0.482660
2958.99, 0.482530
2960.68, 0.482461
2962.37, 0.482487
2964.07, 0.482470
2965.76, 0.482400
2967.46, 0.482338
2969.16, 0.482317
2970.86, 0.482300
2972.56, 0.482307
2974.27, 0.482320
2975.98, 0.482343
2977.69, 0.482367
2979.4, 0.482366
2981.11, 0.482372
2982.83, 0.482404
2984.54, 0.482462
2986.26, 0.482516
2987.98, 0.482570
2989.71, 0.482652
2991.43, 0.482708
2993.16, 0.482739
2994.89, 0.482759
2996.62, 0.482759
2998.35, 0.482775
3000.09, 0.482821
3001.83, 0.482875
3003.57, 0.482917
3005.31, 0.482942
3007.05, 0.483001
3008.79, 0.483091
3010.54, 0.483184
3012.29, 0.483231
3014.04, 0.483232
3015.8, 0.483277
3017.55, 0.483343
3019.31, 0.483434
3021.07, 0.483548
3022.83, 0.483619
3024.59, 0.483683
3026.36, 0.483745
3028.13, 0.483780
3029.9, 0.483849
3031.67, 0.483908
3033.44, 0.483953
3035.22, 0.484028
3037.0, 0.484097
3038.78, 0.484100
3040.56, 0.484115
3042.34, 0.484219
3044.13, 0.484324
3045.92, 0.484404
3047.71, 0.484474
3049.5, 0.484529
3051.3, 0.484586
3053.09, 0.484642
3054.89, 0.484678
3056.69, 0.484731
3058.5, 0.484816
3060.3, 0.484938
3062.11, 0.485038
3063.92, 0.485076
3065.73, 0.485142
3067.55, 0.485250
3069.36, 0.485293
3071.18, 0.485288
3073.0, 0.485349
3074.82, 0.485508
3076.65, 0.485658
3078.48, 0.485739
3080.31, 0.485781
3082.14, 0.485842
3083.97, 0.485930
3085.8, 0.486019
3087.64, 0.486110
3089.48, 0.486198
3091.33, 0.486281
3093.17, 0.486388
3095.02, 0.486506
3096.87, 0.486575
3098.72, 0.486678
3100.57, 0.486828
3102.43, 0.486931
3104.28, 0.486967
3106.14, 0.487001
3108.01, 0.487106
3109.87, 0.487261
3111.74, 0.487407
3113.61, 0.487506
3115.48, 0.487636
3117.35, 0.487815
3119.23, 0.487918
3121.1, 0.487972
3122.98, 0.488097
3124.87, 0.488182
3126.75, 0.488246
3128.64, 0.488403
3130.53, 0.488606
3132.42, 0.488774
3134.31, 0.488927
3136.21, 0.489046
3138.11, 0.489127
3140.01, 0.489264
3141.91, 0.489391
3143.82, 0.489465
3145.73, 0.489532
3147.64, 0.489624
3149.55, 0.489748
3151.46, 0.489935
3153.38, 0.490127
3155.3, 0.490248
3157.22, 0.490352
3159.14, 0.490463
3161.07, 0.490583
3163.0, 0.490674
3164.93, 0.490788
3166.86, 0.490940
3168.8, 0.491086
3170.74, 0.491165
3172.68, 0.491208
3174.62, 0.491318
3176.56, 0.491453
3178.51, 0.491570
3180.46, 0.491637
3182.42, 0.491737
3184.37, 0.491804
3186.33, 0.491841
3188.29, 0.491989
3190.25, 0.492133
3192.21, 0.492236
3194.18, 0.492351
3196.15, 0.492467
3198.12, 0.492525
3200.09, 0.492571
3202.07, 0.492638
3204.05, 0.492699
3206.03, 0.492762
3208.02, 0.492849
3210.0, 0.492958
3211.99, 0.493059
3213.98, 0.493127
3215.98, 0.493208
3217.97, 0.493251
3219.97, 0.493288
3221.97, 0.493347
3223.98, 0.493404
3225.98, 0.493483
3227.99, 0.493519
3230.0, 0.493498
3232.02, 0.493571
3234.03, 0.493697
3236.05, 0.493755
3238.07, 0.493763
3240.1, 0.493756
3242.12, 0.493781
3244.15, 0.493831
3246.18, 0.493851
3248.22, 0.493869
3250.25, 0.493857
3252.29, 0.493813
3254.33, 0.493839
3256.38, 0.493891
3258.43, 0.493889
3260.47, 0.493850
3262.53, 0.493812
3264.58, 0.493852
3266.64, 0.493879
3268.7, 0.493873
3270.76, 0.493878
3272.82, 0.493913
3274.89, 0.493950
3276.96, 0.493920
3279.04, 0.493898
3281.11, 0.493904
3283.19, 0.493857
3285.27, 0.493782
3287.35, 0.493721
3289.44, 0.493707
3291.53, 0.493696
3293.62, 0.493610
3295.71, 0.493530
3297.81, 0.493460
3299.91, 0.493397
3302.01, 0.493360
3304.11, 0.493333
3306.22, 0.493285
3308.33, 0.493180
3310.44, 0.493082
3312.56, 0.492991
3314.68, 0.492832
3316.8, 0.492635
3318.92, 0.492466
3321.05, 0.492272
3323.18, 0.492078
3325.31, 0.491902
3327.44, 0.491711
3329.58, 0.491535
3331.72, 0.491363
3333.86, 0.491079
3336.01, 0.490760
3338.16, 0.490486
3340.31, 0.490221
3342.46, 0.489948
3344.61, 0.489600
3346.77, 0.489245
3348.94, 0.488996
3351.1, 0.488715
3353.27, 0.488385
3355.44, 0.488075
3357.61, 0.487678
3359.79, 0.487220
3361.97, 0.486703
3364.15, 0.486108
3366.33, 0.485549
3368.52, 0.485019
3370.71, 0.484578
3372.9, 0.484246
3375.1, 0.483980
3377.3, 0.483841
3379.5, 0.483890
3381.71, 0.484141
3383.91, 0.484449
3386.12, 0.484688
3388.34, 0.484764
3390.55, 0.484727
3392.77, 0.484584
3394.99, 0.484342
3397.22, 0.484033
3399.45, 0.483613
3401.68, 0.483132
3403.91, 0.482654
3406.15, 0.482171
3408.39, 0.481742
3410.63, 0.481325
3412.87, 0.480909
3415.12, 0.480626
3417.37, 0.480562
3419.63, 0.480723
3421.88, 0.481004
3424.14, 0.481326
3426.41, 0.481669
3428.67, 0.482102
3430.94, 0.482675
3433.21, 0.483257
3435.49, 0.483677
3437.77, 0.483896
3440.05, 0.484030
3442.33, 0.484173
3444.62, 0.484329
3446.91, 0.484427
3449.2, 0.484452
3451.5, 0.484429
3453.8, 0.484366
3456.1, 0.484299
3458.41, 0.484236
3460.72, 0.484156
3463.03, 0.484037
3465.34, 0.483853
3467.66, 0.483618
3469.98, 0.483347
3472.31, 0.483074
3474.63, 0.482819
3476.96, 0.482628
3479.3, 0.482433
3481.64, 0.482174
3483.97, 0.481885
3486.32, 0.481602
3488.66, 0.481349
3491.01, 0.481099
3493.36, 0.480772
3495.72, 0.480402
3498.08, 0.480107
3500.44, 0.479873
3502.81, 0.479749
3505.18, 0.479789
3507.55, 0.479982
3509.92, 0.480309
3512.3, 0.480794
3514.68, 0.481332
3517.06, 0.481737
3519.45, 0.482025
3521.84, 0.482227
3524.24, 0.482311
3526.64, 0.482333
3529.04, 0.482364
3531.44, 0.482383
3533.85, 0.482255
3536.26, 0.482089
3538.67, 0.481979
3541.09, 0.481917
3543.51, 0.482016
3545.93, 0.482170
3548.36, 0.482189
3550.79, 0.482129
3553.22, 0.482030
3555.66, 0.481890
3558.1, 0.481818
3560.54, 0.481749
3562.99, 0.481657
3565.44, 0.481578
3567.9, 0.481461
3570.35, 0.481307
3572.81, 0.481213
3575.28, 0.481093
3577.75, 0.480834
3580.22, 0.480628
3582.69, 0.480576
3585.17, 0.480491
3587.65, 0.480399
3590.14, 0.480131
3592.62, 0.479866
3595.11, 0.479725
3597.61, 0.479474
3600.11, 0.479215
3602.61, 0.478928
3605.11, 0.478700
3607.62, 0.478572
3610.14, 0.478320
3612.65, 0.477993
3615.17, 0.477695
3617.69, 0.477456
3620.22, 0.477226
3622.75, 0.476903
3625.28, 0.476553
3627.82, 0.476219
3630.36, 0.475917
3632.9, 0.475615
3635.45, 0.475297
3638.0, 0.475010
3640.56, 0.474739
3643.12, 0.474454
3645.68, 0.474116
3648.24, 0.473756
3650.81, 0.473480
3653.39, 0.473231
3655.96, 0.472976
3658.54, 0.472766
3661.13, 0.472556
3663.71, 0.472387
3666.3, 0.472219
3668.9, 0.472037
3671.5, 0.471846
3674.1, 0.471642
3676.7, 0.471432
3679.31, 0.471195
3681.93, 0.470958
3684.54, 0.470710
3687.17, 0.470450
3689.79, 0.470188
3692.42, 0.469937
3695.05, 0.469666
3697.69, 0.469385
3700.32, 0.469095
3702.97, 0.468815
3705.61, 0.468526
3708.27, 0.468229
3710.92, 0.467910
3713.58, 0.467585
3716.24, 0.467275
3718.91, 0.466976
3721.58, 0.466668
3724.25, 0.466374
3726.93, 0.466096
3729.61, 0.465829
3732.29, 0.465547
3734.98, 0.465259
3737.67, 0.464960
3740.37, 0.464648
3743.07, 0.464331
3745.78, 0.464036
3748.49, 0.463736
3751.2, 0.463426
3753.91, 0.463108
3756.63, 0.462790
3759.36, 0.462450
3762.09, 0.462122
3764.82, 0.461800
3767.55, 0.461472
3770.29, 0.461141
3773.04, 0.460825
3775.78, 0.460503
3778.54, 0.460180
3781.29, 0.459845
3784.05, 0.459506
3786.82, 0.459178
3789.59, 0.458871
3792.36, 0.458553
3795.13, 0.458234
3797.92, 0.457915
3800.7, 0.457582
3803.49, 0.457247
3806.28, 0.456954
3809.08, 0.456664
3811.88, 0.456361
3814.68, 0.456070
3817.49, 0.455796
3820.31, 0.455521
3823.12, 0.455254
3825.94, 0.454987
3828.77, 0.454727
3831.6, 0.454481
3834.43, 0.454285
3837.27, 0.454117
3840.11, 0.453972
3842.96, 0.453819
3845.81, 0.453666
3848.67, 0.453519
3851.53, 0.453375
3854.39, 0.453220
3857.26, 0.453074
3860.13, 0.452918
3863.01, 0.452758
3865.89, 0.452597
3868.77, 0.452449
3871.66, 0.452287
3874.55, 0.452140
3877.45, 0.451999
3880.35, 0.451854
3883.26, 0.451708
3886.17, 0.451562
3889.09, 0.451404
3892.01, 0.451245
3894.93, 0.451073
3897.86, 0.450899
3900.79, 0.450709
3903.73, 0.450507
3906.67, 0.450289
3909.62, 0.450088
3912.57, 0.449882
3915.52, 0.449652
3918.48, 0.449413
3921.45, 0.449179
3924.42, 0.448945
3927.39, 0.448713
3930.37, 0.448466
3933.35, 0.448218
3936.34, 0.447945
3939.33, 0.447649
3942.32, 0.447344
3945.32, 0.447026
3948.33, 0.446681
3951.34, 0.446329
3954.35, 0.445937
3957.37, 0.445546
3960.39, 0.445150
3963.42, 0.444726
3966.45, 0.444277
3969.49, 0.443804
3972.53, 0.443267
3975.58, 0.442709
3978.63, 0.442135
3981.68, 0.441532
3984.75, 0.440909
3987.81, 0.440288
3990.88, 0.439633
3993.95, 0.438981
3997.03, 0.438340
4000.12, 0.437727
4003.21, 0.437142
4006.3, 0.436608
4009.4, 0.436134
4012.5, 0.435740
4015.61, 0.435428
4018.72, 0.435217
4021.84, 0.435086
4024.96, 0.435056
4028.09, 0.435096
4031.22, 0.435172
4034.36, 0.435287
4037.5, 0.435416
4040.65, 0.435512
4043.8, 0.435605
4046.96, 0.435685
4050.12, 0.435731
4053.29, 0.435726
4056.46, 0.435703
4059.64, 0.435650
4062.82, 0.435563
4066.0, 0.435429
4069.19, 0.435266
4072.39, 0.435059
4075.59, 0.434830
4078.8, 0.434599
4082.01, 0.434346
4085.23, 0.434054
4088.45, 0.433768
4091.68, 0.433455
4094.91, 0.433115
4098.15, 0.432769
4101.39, 0.432415
4104.63, 0.432051
4107.89, 0.431693
4111.14, 0.431319
4114.41, 0.430944
4117.67, 0.430556
4120.95, 0.430182
4124.23, 0.429791
4127.51, 0.429373
4130.8, 0.428944
4134.09, 0.428526
4137.39, 0.428095
4140.7, 0.427664
4144.01, 0.427234
4147.32, 0.426800
4150.64, 0.426340
4153.97, 0.425894
4157.3, 0.425462
4160.64, 0.425038
4163.98, 0.424585
4167.33, 0.424115
4170.68, 0.423645
4174.04, 0.423206
4177.4, 0.422761
4180.77, 0.422310
4184.14, 0.421866
4187.52, 0.421422
4190.91, 0.420947
4194.3, 0.420479
4197.69, 0.420034
4201.1, 0.419614
4204.5, 0.419183
4207.92, 0.418780
4211.34, 0.418404
4214.76, 0.418031
4218.19, 0.417659
4221.62, 0.417299
4225.06, 0.416926
4228.51, 0.416536
4231.96, 0.416097
4235.42, 0.415648
4238.88, 0.415150
4242.35, 0.414597
4245.83, 0.414028
4249.31, 0.413453
4252.79, 0.412836
4256.28, 0.412255
4259.78, 0.411799
4263.29, 0.411428
4266.79, 0.411034
4270.31, 0.410618
4273.83, 0.410161
4277.35, 0.409691
4280.89, 0.409200
4284.42, 0.408694
4287.97, 0.408187
4291.52, 0.407683
4295.07, 0.407157
4298.63, 0.406612
4302.2, 0.406053
4305.78, 0.405491
4309.35, 0.404917
4312.94, 0.404368
4316.53, 0.403828
4320.13, 0.403306
4323.73, 0.402767
4327.34, 0.402220
4330.96, 0.401673
4334.58, 0.401126
4338.21, 0.400565
4341.84, 0.400018
4345.48, 0.399460
4349.12, 0.398907
4352.77, 0.398350
4356.43, 0.397818
4360.1, 0.397287
4363.76, 0.396749
4367.44, 0.396218
4371.12, 0.395698
4374.81, 0.395154
4378.51, 0.394618
4382.21, 0.394076
4385.92, 0.393542
4389.63, 0.393008
4393.35, 0.392480
4397.08, 0.391954
4400.81, 0.391441
4404.55, 0.390928
4408.29, 0.390411
4412.04, 0.389879
4415.8, 0.389363
4419.57, 0.388848
4423.34, 0.388332
4427.12, 0.387796
4430.9, 0.387258
4434.69, 0.386712
4438.49, 0.386165
4442.29, 0.385603
4446.1, 0.385054
4449.92, 0.384499
4453.74, 0.383955
4457.57, 0.383402
4461.41, 0.382848
4465.25, 0.382287
4469.1, 0.381732
4472.95, 0.381172
4476.82, 0.380625
4480.69, 0.380070
4484.56, 0.379522
4488.44, 0.378985
4492.33, 0.378456
4496.23, 0.377887
4500.13, 0.377321
4504.04, 0.376759
4507.96, 0.376188
4511.88, 0.375607
4515.81, 0.375020
4519.75, 0.374398
4523.69, 0.373784
4527.65, 0.373169
4531.6, 0.372565
4535.57, 0.371950
4539.54, 0.371310
4543.52, 0.370645
4547.5, 0.369994
4551.5, 0.369337
4555.5, 0.368694
4559.5, 0.368053
4563.52, 0.367417
4567.54, 0.366779
4571.56, 0.366165
4575.6, 0.365535
4579.64, 0.364886
4583.69, 0.364243
4587.75, 0.363632
4591.81, 0.363023
4595.88, 0.362419
4599.96, 0.361822
4604.04, 0.361242
4608.14, 0.360648
4612.24, 0.360073
4616.34, 0.359516
4620.46, 0.358970
4624.58, 0.358407
4628.71, 0.357850
4632.84, 0.357305
4636.99, 0.356772
4641.14, 0.356226
4645.3, 0.355689
4649.47, 0.355149
4653.64, 0.354619
4657.82, 0.354082
4662.01, 0.353553
4666.21, 0.353019
4670.41, 0.352492
4674.62, 0.351952
4678.84, 0.351405
4683.07, 0.350840
4687.3, 0.350274
4691.54, 0.349683
4695.79, 0.349099
4700.05, 0.348512
4704.31, 0.347908
4708.59, 0.347285
4712.87, 0.346642
4717.15, 0.345976
4721.45, 0.345297
4725.76, 0.344635
4730.07, 0.343953
4734.39, 0.343258
4738.72, 0.342555
4743.05, 0.341804
4747.39, 0.341040
4751.75, 0.340271
4756.1, 0.339480
4760.47, 0.338649
4764.85, 0.337793
4769.23, 0.336890
4773.62, 0.335965
4778.02, 0.334986
4782.43, 0.333958
4786.85, 0.332849
4791.27, 0.331700
4795.7, 0.330478
4800.14, 0.329195
4804.59, 0.327847
4809.05, 0.326437
4813.51, 0.324936
4817.99, 0.323338
4822.47, 0.321621
4826.96, 0.319757
4831.46, 0.317720
4835.96, 0.315471
4840.48, 0.312927
4845.0, 0.310062
4849.54, 0.306803
4854.08, 0.303091
4858.63, 0.298838
4863.18, 0.294005
4867.75, 0.288556
4872.33, 0.282532
4876.91, 0.276041
4881.5, 0.269266
4886.1, 0.262396
4890.71, 0.255643
4895.33, 0.249202
4899.96, 0.243227
4904.59, 0.237741
4909.24, 0.232696
4913.89, 0.228024
4918.55, 0.223660
4923.22, 0.219530
4927.9, 0.215628
4932.59, 0.212045
4937.29, 0.208973
4942.0, 0.206613
4946.71, 0.205169
4951.44, 0.204701
4956.17, 0.205078
4960.91, 0.206061
4965.67, 0.207428
4970.43, 0.208997
4975.2, 0.210660
4979.98, 0.212308
4984.76, 0.213907
4989.56, 0.215450
4994.37, 0.216896
4999.18, 0.218228
5004.01, 0.219468
5008.84, 0.220600
5013.69, 0.221636
5018.54, 0.222533
5023.4, 0.223305
5028.28, 0.223961
5033.16, 0.224503
5038.05, 0.224903
5042.95, 0.225166
5047.86, 0.225276
5052.78, 0.225239
5057.71, 0.225061
5062.65, 0.224736
5067.6, 0.224257
5072.56, 0.223626
5077.53, 0.222819
5082.5, 0.221850
5087.49, 0.220755
5092.49, 0.219561
5097.5, 0.218263
5102.51, 0.216840
5107.54, 0.215341
5112.58, 0.213807
5117.62, 0.212194
5122.68, 0.210493
5127.75, 0.208679
5132.82, 0.206739
5137.91, 0.204664
5143.01, 0.202508
5148.12, 0.200352
5153.23, 0.198288
5158.36, 0.196267
5163.5, 0.194263
5168.65, 0.192258
5173.81, 0.190244
5178.98, 0.188192
5184.15, 0.186068
5189.34, 0.183827
5194.54, 0.181531
5199.75, 0.179294
5204.98, 0.177255
5210.21, 0.175440
5215.45, 0.173953
5220.7, 0.172881
5225.96, 0.172177
5231.23, 0.171768
5236.52, 0.171603
5241.81, 0.171628
5247.12, 0.171752
5252.44, 0.171911
5257.76, 0.172088
5263.1, 0.172273
5268.45, 0.172436
5273.81, 0.172526
5279.18, 0.172527
5284.56, 0.172416
5289.95, 0.172156
5295.36, 0.171783
5300.77, 0.171330
5306.2, 0.170830
5311.63, 0.170319
5317.08, 0.169808
5322.54, 0.169279
5328.01, 0.168659
5333.49, 0.167853
5338.98, 0.166777
5344.49, 0.165363
5350.0, 0.163644
5355.53, 0.161803
5361.07, 0.159913
5366.62, 0.158052
5372.18, 0.156290
5377.75, 0.154642
5383.34, 0.153031
5388.93, 0.151365
5394.54, 0.149560
5400.16, 0.147608
5405.79, 0.145553
5411.44, 0.143505
5417.09, 0.141504
5422.76, 0.139630
5428.43, 0.138049
5434.12, 0.136663
5439.83, 0.135442
5445.54, 0.134484
5451.26, 0.133829
5457.0, 0.133432
5462.75, 0.133265
5468.52, 0.133342
5474.29, 0.133560
5480.08, 0.133833
5485.88, 0.134145
5491.69, 0.134417
5497.51, 0.134604
5503.35, 0.134661
5509.2, 0.134580
5515.06, 0.134319
5520.93, 0.133882
5526.82, 0.133289
5532.71, 0.132500
5538.63, 0.131427
5544.55, 0.130000
5550.49, 0.128124
5556.44, 0.125722
5562.4, 0.122739
5568.37, 0.119191
5574.36, 0.115160
5580.36, 0.110925
5586.37, 0.106853
5592.4, 0.103148
5598.44, 0.0999720
5604.49, 0.0975550
5610.56, 0.0959410
5616.63, 0.0950690
5622.73, 0.0947890
5628.83, 0.0950020
5634.95, 0.0956130
5641.08, 0.0966540
5647.23, 0.0982050
5653.39, 0.100182
5659.56, 0.102531
5665.74, 0.105234
5671.94, 0.108162
5678.15, 0.111338
5684.38, 0.114595
5690.62, 0.117810
5696.87, 0.121045
5703.14, 0.124246
5709.42, 0.127396
5715.72, 0.130584
5722.03, 0.133672
5728.35, 0.136574
5734.69, 0.139198
5741.03, 0.141452
5747.4, 0.143246
5753.78, 0.144592
5760.17, 0.145222
5766.58, 0.145276
5773.0, 0.145141
5779.44, 0.144702
5785.88, 0.143958
5792.35, 0.143066
5798.83, 0.142097
5805.32, 0.141152
5811.83, 0.140245
5818.35, 0.139316
5824.89, 0.138589
5831.45, 0.138080
5838.01, 0.137493
5844.59, 0.136768
5851.19, 0.135947
5857.8, 0.135150
5864.43, 0.134467
5871.07, 0.134000
5877.73, 0.133528
5884.4, 0.133410
5891.09, 0.133536
5897.79, 0.133718
5904.5, 0.134111
5911.23, 0.134365
5917.98, 0.134348
5924.75, 0.134035
5931.53, 0.133248
5938.32, 0.132282
5945.13, 0.131404
5951.96, 0.130334
5958.8, 0.129081
5965.65, 0.127692
5972.53, 0.126393
5979.42, 0.125322
5986.32, 0.124496
5993.24, 0.124284
6000.18, 0.124904
6007.13, 0.126394
6014.1, 0.129031
6021.08, 0.133102
6028.09, 0.138568
6035.1, 0.145300
6042.14, 0.152662
6049.19, 0.160764
6056.25, 0.169535
6063.34, 0.177780
6070.44, 0.185256
6077.55, 0.192297
6084.69, 0.198643
6091.84, 0.204099
6099.0, 0.208741
6106.19, 0.212546
6113.39, 0.215682
6120.61, 0.218620
6127.84, 0.221062
6135.09, 0.222912
6142.36, 0.224321
6149.65, 0.225469
6156.95, 0.226247
6164.27, 0.226856
6171.61, 0.227299
6178.97, 0.227311
6186.34, 0.227144
6193.73, 0.227227
6201.14, 0.227084
6208.57, 0.226670
6216.01, 0.226135
6223.47, 0.225607
6230.95, 0.225001
6238.45, 0.224380
6245.97, 0.223806
6253.5, 0.223358
6261.06, 0.222999
6268.63, 0.222838
6276.21, 0.222921
6283.82, 0.223299
6291.45, 0.223942
6299.1, 0.224893
6306.76, 0.226054
6314.44, 0.227349
6322.14, 0.228633
6329.86, 0.229890
6337.6, 0.230784
6345.35, 0.231511
6353.13, 0.232391
6360.92, 0.232886
6368.74, 0.232920
6376.57, 0.232979
6384.43, 0.232995
6392.3, 0.232963
6400.19, 0.232900
6408.1, 0.232544
6416.03, 0.232511
6423.98, 0.233061
6431.95, 0.233409
6439.94, 0.233635
6447.95, 0.233743
6455.98, 0.233755
6464.03, 0.233630
6472.1, 0.233310
6480.19, 0.232892
6488.31, 0.232343
6496.44, 0.231971
6504.59, 0.232084
6512.76, 0.232064
6520.95, 0.231861
6529.16, 0.231900
6537.4, 0.232017
6545.65, 0.232097
6553.92, 0.232214
6562.22, 0.232375
6570.54, 0.232384
6578.88, 0.232610
6587.23, 0.232831
6595.61, 0.232858
6604.02, 0.232767
6612.44, 0.232428
6620.89, 0.231883
6629.35, 0.230919
6637.84, 0.229732
6646.35, 0.228860
6654.88, 0.227865
6663.44, 0.226466
6672.01, 0.224847
6680.61, 0.223103
6689.23, 0.221430
6697.88, 0.219670
6706.54, 0.217606
6715.23, 0.215455
6723.94, 0.213281
6732.67, 0.211009
6741.42, 0.208630
6750.2, 0.206172
6759.0, 0.203759
6767.82, 0.201447
6776.67, 0.199333
6785.54, 0.197485
6794.44, 0.196148
6803.35, 0.195361
6812.29, 0.194863
6821.26, 0.194550
6830.24, 0.194524
6839.25, 0.194734
6848.29, 0.194882
6857.35, 0.194760
6866.43, 0.194640
6875.54, 0.194594
6884.67, 0.194108
6893.82, 0.193191
6903.0, 0.191934
6912.2, 0.190444
6921.43, 0.188751
6930.69, 0.186890
6939.96, 0.184868
6949.27, 0.182683
6958.59, 0.180322
6967.95, 0.178066
6977.33, 0.175717
6986.73, 0.173126
6996.16, 0.170394
7005.61, 0.167648
7015.09, 0.164937
7024.6, 0.162441
7034.13, 0.160262
7043.69, 0.158492
7053.27, 0.157357
7062.88, 0.156720
7072.52, 0.156313
7082.18, 0.156082
7091.87, 0.155923
7101.58, 0.155714
7111.32, 0.155308
7121.09, 0.154690
7130.88, 0.153853
7140.71, 0.152749
7150.56, 0.151462
7160.43, 0.150103
7170.33, 0.148663
7180.27, 0.147316
7190.23, 0.146059
7200.21, 0.144902
7210.23, 0.143939
7220.27, 0.143268
7230.34, 0.142811
7240.44, 0.142521
7250.56, 0.142275
7260.72, 0.142015
7270.9, 0.141603
7281.12, 0.141009
7291.36, 0.140190
7301.63, 0.139071
7311.93, 0.137627
7322.25, 0.135958
7332.61, 0.134096
7343.0, 0.132190
7353.41, 0.130334
7363.86, 0.128583
7374.33, 0.126926
7384.83, 0.125368
7395.37, 0.123850
7405.93, 0.122363
7416.53, 0.120851
7427.15, 0.119299
7437.81, 0.117694
7448.5, 0.116084
7459.22, 0.114468
7469.96, 0.112947
7480.74, 0.111503
7491.55, 0.110123
7502.39, 0.108814
7513.27, 0.107603
7524.17, 0.106459
7535.11, 0.105479
7546.08, 0.104675
7557.08, 0.104114
7568.11, 0.103815
7579.17, 0.103781
7590.27, 0.103939
7601.4, 0.104240
7612.56, 0.104589
7623.76, 0.104956
7634.98, 0.105287
7646.24, 0.105579
7657.54, 0.105772
7668.87, 0.105857
7680.23, 0.105815
7691.62, 0.105674
7703.05, 0.105389
7714.51, 0.104995
7726.01, 0.104493
7737.54, 0.103885
7749.11, 0.103171
7760.71, 0.102452
7772.35, 0.101763
7784.02, 0.101135
7795.72, 0.100613
7807.46, 0.100279
7819.23, 0.100094
7831.04, 0.100010
7842.89, 0.0999620
7854.77, 0.0999280
7866.69, 0.0998390
7878.65, 0.0996600
7890.64, 0.0993770
7902.67, 0.0989700
7914.74, 0.0984570
7926.84, 0.0979080
7938.98, 0.0972810
7951.16, 0.0965460
7963.37, 0.0956700
7975.62, 0.0946810
7987.91, 0.0935330
8000.24, 0.0922270
8012.6, 0.0907690
8025.01, 0.0892360
8037.45, 0.0876730
8049.93, 0.0861340
8062.45, 0.0846350
8075.01, 0.0831620
8087.61, 0.0816330
8100.24, 0.0800780
8112.91, 0.0784670
8125.63, 0.0767870
8138.39, 0.0750250
8151.18, 0.0732580
8164.02, 0.0715020
8176.9, 0.0698620
8189.81, 0.0684090
8202.77, 0.0671530
8215.77, 0.0660830
8228.82, 0.0652070
8241.9, 0.0644190
8255.02, 0.0636900
8268.19, 0.0630120
8281.39, 0.0623550
8294.65, 0.0616560
8307.94, 0.0609280
8321.28, 0.0601090
8334.66, 0.0592040
8348.08, 0.0582190
8361.54, 0.0571810
8375.05, 0.0560400
8388.6, 0.0548550
8402.2, 0.0536750
8415.84, 0.0525490
8429.52, 0.0514600
8443.25, 0.0504790
8457.02, 0.0496030
8470.84, 0.0488420
8484.7, 0.0481390
8498.61, 0.0474640
8512.57, 0.0467610
8526.57, 0.0460550
8540.62, 0.0453010
8554.71, 0.0444950
8568.85, 0.0436210
8583.04, 0.0427130
8597.27, 0.0417620
8611.55, 0.0408100
8625.88, 0.0398440
8640.26, 0.0389020
8654.68, 0.0379530
8669.16, 0.0370080
8683.68, 0.0360430
8698.25, 0.0351110
8712.87, 0.0342100
8727.53, 0.0333360
8742.25, 0.0324430
8757.02, 0.0315540
8771.83, 0.0306740
8786.7, 0.0298340
8801.62, 0.0290390
8816.59, 0.0283330
8831.61, 0.0276760
8846.68, 0.0270180
8861.8, 0.0262920
8876.97, 0.0255900
8892.2, 0.0248950
8907.48, 0.0245280
8922.81, 0.0249500
8938.2, 0.0261410
8953.63, 0.0276580
8969.13, 0.0291890
8984.67, 0.0307590
9000.27, 0.0326020
9015.92, 0.0347980
9031.63, 0.0374030
9047.39, 0.0404560
9063.21, 0.0440380
9079.08, 0.0481180
9095.01, 0.0527610
9111.0, 0.0580220
9127.04, 0.0639800
9143.13, 0.0705970
9159.28, 0.0779580
9175.49, 0.0861220
9191.76, 0.0951760
9208.09, 0.105069
9224.47, 0.115792
9240.92, 0.127355
9257.42, 0.139806
9273.98, 0.153095
9290.6, 0.167145
9307.28, 0.181675
9324.02, 0.195932
9340.82, 0.208477
9357.68, 0.217848
9374.6, 0.223757
9391.58, 0.227043
9408.62, 0.228738
9425.73, 0.229681
9442.9, 0.230333
9460.13, 0.230809
9477.42, 0.231182
9494.78, 0.231399
9512.2, 0.231474
9529.69, 0.231397
9547.24, 0.231116
9564.86, 0.230605
9582.54, 0.230002
9600.28, 0.229389
9618.1, 0.228784
9635.97, 0.228197
9653.92, 0.227670
9671.93, 0.227169
9690.01, 0.226682
9708.16, 0.226223
9726.37, 0.225815
9744.65, 0.225444
9763.0, 0.225123
9781.43, 0.224855
9799.92, 0.224707
9818.48, 0.224707
9837.1, 0.224834
9855.8, 0.225001
9874.58, 0.225205
9893.42, 0.225411
9912.34, 0.225532
9931.33, 0.225478
9950.39, 0.225290
9969.52, 0.225075
9988.74, 0.225084
10008.0, 0.225769
10027.4, 0.227516
10046.8, 0.230622
10066.3, 0.235878
10085.9, 0.244722
10105.6, 0.258352
10125.3, 0.275271
10145.1, 0.290232
10165.0, 0.297895
10185.0, 0.296821
10205.0, 0.289047
10225.2, 0.278084
10245.4, 0.267057
10265.7, 0.257632
10286.0, 0.250050
10306.5, 0.244299
10327.0, 0.240651
10347.6, 0.239712
10368.3, 0.241601
10389.1, 0.245969
10409.9, 0.254738
10430.9, 0.276474
10451.9, 0.314741
10473.0, 0.355951
10494.2, 0.386339
10515.5, 0.404008
10536.9, 0.412486
10558.4, 0.415503
10579.9, 0.415472
10601.5, 0.413812
10623.3, 0.411168
10645.1, 0.407943
10667.0, 0.404276
10689.0, 0.400258
10711.1, 0.395885
10733.2, 0.391135
10755.5, 0.386033
10777.9, 0.380729
10800.3, 0.375251
10822.9, 0.369726
10845.5, 0.364263
10868.2, 0.359013
10891.1, 0.354088
10914.0, 0.349596
10937.0, 0.345457
10960.2, 0.341525
10983.4, 0.337664
11006.7, 0.333827
11030.1, 0.329969
11053.6, 0.326105
11077.3, 0.322190
11101.0, 0.318262
11124.8, 0.314414
11148.7, 0.310758
11172.7, 0.307168
11196.9, 0.303455
11221.1, 0.299361
11245.4, 0.294734
11269.9, 0.289475
11294.4, 0.283592
11319.1, 0.277034
11343.9, 0.269782
11368.8, 0.261640
11393.7, 0.252227
11418.8, 0.240973
11444.0, 0.227331
11469.4, 0.211304
11494.8, 0.193962
11520.3, 0.177144
11546.0, 0.162266
11571.8, 0.149732
11597.7, 0.139401
11623.7, 0.130947
11649.8, 0.123929
11676.0, 0.117890
11702.4, 0.112411
11728.9, 0.107193
11755.5, 0.102077
11782.2, 0.0972590
11809.0, 0.0935970
11836.0, 0.0926850
11863.0, 0.0952380
11890.3, 0.0997140
11917.6, 0.103276
11945.0, 0.104079
11972.6, 0.102220
12000.4, 0.0989730
12028.2, 0.0954580
12056.2, 0.0922030
12084.3, 0.0892870
12112.5, 0.0866810
12140.9, 0.0843520
12169.4, 0.0822340
12198.0, 0.0802880
12226.8, 0.0785270
12255.7, 0.0769290
12284.7, 0.0754740
12313.9, 0.0741380
12343.2, 0.0729050
12372.7, 0.0717660
12402.3, 0.0707550
12432.0, 0.0698440
12461.9, 0.0690420
12491.9, 0.0683500
12522.1, 0.0677300
12552.4, 0.0671180
12582.9, 0.0665200
12613.5, 0.0659270
12644.3, 0.0653660
12675.2, 0.0648150
12706.3, 0.0642850
12737.5, 0.0637820
12768.9, 0.0633400
12800.4, 0.0629030
12832.1, 0.0624590
12863.9, 0.0620040
12895.9, 0.0615520
12928.1, 0.0609980
12960.4, 0.0603440
12992.9, 0.0596090
13025.5, 0.0588160
13058.3, 0.0579700
13091.3, 0.0570520
13124.4, 0.0560780
13157.8, 0.0551410
13191.2, 0.0541790
13224.9, 0.0532250
13258.7, 0.0525400
13292.7, 0.0520360
13326.9, 0.0514810
13361.2, 0.0509700
13395.7, 0.0504480
13430.4, 0.0498840
13465.3, 0.0493340
13500.4, 0.0488080
13535.7, 0.0482900
13571.1, 0.0477390
13606.7, 0.0470550
13642.5, 0.0463470
13678.5, 0.0456070
13714.7, 0.0448290
13751.1, 0.0439930
13787.6, 0.0431760
13824.4, 0.0423560
13861.4, 0.0415660
13898.5, 0.0407860
13935.9, 0.0400140
13973.5, 0.0392310
14011.2, 0.0384750
14049.2, 0.0377160
14087.4, 0.0369520
14125.8, 0.0361150
14164.3, 0.0353220
14203.2, 0.0346390
14242.2, 0.0339640
14281.4, 0.0333440
14320.9, 0.0327520
14360.5, 0.0321440
14400.4, 0.0315170
14440.5, 0.0309060
14480.9, 0.0302950
14521.4, 0.0294170
14562.2, 0.0284640
14603.3, 0.0274510
14644.5, 0.0264790
14686.0, 0.0258110
14727.7, 0.0254590
14769.7, 0.0249770
14811.9, 0.0242540
14854.3, 0.0236580
14897.0, 0.0233460
14939.9, 0.0230160
14983.1, 0.0231890
15026.5, 0.0237630
15070.2, 0.0246450
15114.2, 0.0260130
15158.3, 0.0281210
15202.8, 0.0310450
15247.5, 0.0347590
15292.5, 0.0394320
15337.7, 0.0453630
15383.2, 0.0525240
15429.0, 0.0609130
15475.1, 0.0701310
15521.4, 0.0799870
15568.0, 0.0895420
15614.9, 0.0986620
15662.1, 0.107054
15709.6, 0.114317
15757.3, 0.120342
15805.4, 0.125079
15853.7, 0.128039
15902.3, 0.128935
15951.2, 0.127971
16000.5, 0.126258
16050.0, 0.124357
16099.8, 0.122410
16150.0, 0.120557
16200.5, 0.118056
16251.3, 0.114677
16302.4, 0.110987
16353.8, 0.106843
16405.5, 0.102770
16457.6, 0.0990470
16510.0, 0.0955690
16562.8, 0.0921330
16615.9, 0.0885500
16669.3, 0.0847490
16723.1, 0.0804020
16777.2, 0.0752190
16831.7, 0.0700070
16886.5, 0.0654270
16941.7, 0.0619160
16997.2, 0.0596340
17053.1, 0.0587450
17109.4, 0.0593050
17166.1, 0.0613740
17223.1, 0.0651470
17280.5, 0.0701690
17338.3, 0.0763210
17396.5, 0.0837600
17455.1, 0.0924240
17514.0, 0.102213
17573.4, 0.112623
17633.2, 0.123451
17693.4, 0.134173
17754.0, 0.144126
17815.0, 0.152942
17876.4, 0.161017
17938.3, 0.168530
18000.5, 0.176206
18063.3, 0.184766
18126.4, 0.194330
18190.0, 0.203870
18254.1, 0.211449
18318.6, 0.215219
18383.5, 0.215663
18449.0, 0.215211
18514.9, 0.216191
18581.2, 0.220316
18648.0, 0.229241
18715.4, 0.242960
18783.2, 0.259880
18851.5, 0.275902
18920.3, 0.286807
18989.6, 0.290331
19059.4, 0.287591
19129.7, 0.280827
19200.6, 0.272516
19272.0, 0.264322
19343.9, 0.256496
19416.3, 0.248811
19489.3, 0.241572
19562.8, 0.235037
19637.0, 0.229787
19711.6, 0.227096
19786.8, 0.226602
19862.6, 0.224519
19939.0, 0.217358
20016.0, 0.204813
20093.6, 0.188519
20171.8, 0.170777
20250.6, 0.153062
20330.0, 0.135964
20410.0, 0.120350
20490.7, 0.106474
20572.0, 0.0945850
20654.0, 0.0856420
20736.6, 0.0809590
20819.9, 0.0814750
20903.8, 0.0862810
20988.5, 0.0934100
21073.8, 0.100456
21159.8, 0.106902
21246.5, 0.111862
21334.0, 0.113881
21422.1, 0.112348
21511.0, 0.107984
21600.7, 0.102517
21691.0, 0.0986560
21782.1, 0.0987390
21874.0, 0.105517
21966.7, 0.119257
22060.2, 0.138120
22154.5, 0.160755
22249.6, 0.185567
22345.5, 0.209347
22442.2, 0.228387
22539.8, 0.241532
22638.2, 0.250289
22737.5, 0.257000
22837.7, 0.263744
22938.7, 0.273778
23040.7, 0.289584
23143.5, 0.309746
23247.3, 0.330760
23352.1, 0.349525
23457.7, 0.364472
23564.4, 0.375407
23672.0, 0.383162
23780.5, 0.386944
23890.1, 0.389257
24000.7, 0.391072
24112.3, 0.386104
24225.0, 0.372096
24338.7, 0.350554
24453.5, 0.325179
24569.4, 0.301237
24686.4, 0.282048
24804.5, 0.267820
24923.8, 0.257982
25044.2, 0.250894
25165.8, 0.244615
25288.6, 0.236152
25412.5, 0.223859
25537.7, 0.208983
25664.1, 0.192602
25791.8, 0.176544
25920.8, 0.163052
26051.1, 0.154974
26182.6, 0.154324
26315.5, 0.159382
26449.8, 0.164470
26585.4, 0.166089
26722.5, 0.166109
26860.9, 0.166576
27000.8, 0.168254
27142.1, 0.172901
27285.0, 0.178947
27429.4, 0.184027
27575.3, 0.187764
27722.7, 0.189748
27871.8, 0.189903
28022.4, 0.188552
28174.7, 0.185440
28328.7, 0.181036
28484.4, 0.176464
28641.7, 0.172243
28800.9, 0.168174
28961.8, 0.162919
29124.5, 0.157297
29289.0, 0.151958
29455.4, 0.147061
29623.8, 0.141916
29794.0, 0.136219
29966.3, 0.131209
30140.5, 0.126662
30316.7, 0.121080
30495.1, 0.115272
30675.5, 0.110470
30858.1, 0.105658
31042.8, 0.101799
31229.8, 0.0986420
31419.1, 0.0949980
31610.7, 0.0922980
31804.6, 0.0906950
32000.9, 0.0905320
32199.7, 0.0914390
32400.9, 0.0948870
32604.8, 0.101346
32811.1, 0.109928
33020.1, 0.122045
33231.8, 0.137620
33446.2, 0.149620
33663.4, 0.158932
33883.4, 0.166042
34106.3, 0.171343
34332.1, 0.173897
34561.0, 0.174328
34792.9, 0.173745
35028.0, 0.170247
35266.3, 0.163832
35507.8, 0.156396
35752.7, 0.150700
36001.0, 0.146591
36252.8, 0.145022
36508.1, 0.143226
36767.0, 0.141248
37029.7, 0.139324
37296.1, 0.136993
37566.3, 0.134104
37840.5, 0.132298
38118.8, 0.130074
38401.2, 0.127703
38687.8, 0.125598
38978.6, 0.123527
39273.9, 0.120559
39573.7, 0.119526
39878.1, 0.118767
40187.3, 0.116272
40501.2, 0.113942
40820.0, 0.113118
41144.0, 0.113459
41473.2, 0.112939
41807.6, 0.112112
42147.5, 0.111311
42493.0, 0.110321
42844.2, 0.109154
43201.2, 0.108134
43564.3, 0.107308
43933.5, 0.105429
44309.0, 0.105066
44691.0, 0.104651
45079.6, 0.103838
45475.0, 0.103740
45877.5, 0.103395
46287.1, 0.102316
46704.2, 0.100861
47128.7, 0.100876
47561.1, 0.100806
48001.5, 0.0986600
48450.1, 0.0979640
48907.2, 0.0979920
49373.0, 0.0969440
49847.7, 0.0977300
50331.5, 0.0973540
50825.0, 0.0962120
51328.2, 0.0966670
51841.5, 0.0985600
52365.1, 0.100015
52899.4, 0.0999690
53444.8, 0.100226
54001.5, 0.100690
54570.1, 0.100173
55150.6, 0.0997160
55743.6, 0.0993150
56349.5, 0.0990170
56968.7, 0.0995990
57601.7, 0.0998020
58248.9, 0.0994850
58910.9, 0.0999990
59588.1, 0.100306
60281.0, 0.100098
60990.2, 0.100447
61716.3, 0.100575
62459.8, 0.100609
63221.6, 0.100678
64002.1, 0.102251
64802.1, 0.102907
65622.1, 0.102715
66463.4, 0.102681
67326.6, 0.104754
68212.4, 0.109115
69121.9, 0.108897
70056.0, 0.105775
71015.7, 0.102253
72002.0, 0.0981050
73016.3, 0.0972050
74059.4, 0.0989040
75132.7, 0.104091
76237.6, 0.113690
77375.5, 0.121871
78547.9, 0.128622
79756.3, 0.133238
81002.5, 0.133738
82288.5, 0.134543
83615.7, 0.138783
84986.5, 0.142306
86402.9, 0.145427
87867.4, 0.148977
89382.4, 0.149390
90950.5, 0.152265
92574.6, 0.156584
94257.2, 0.158374
96002.7, 0.161422
97814.1, 0.160727
99695.1, 0.159825
101650.0, 0.164696
103683.0, 0.165694
105799.0, 0.164681
108003.0, 0.166287
110301.0, 0.169193
112699.0, 0.175971
115204.0, 0.172762
117822.0, 0.163822
120562.0, 0.166480
123433.0, 0.162524
126443.0, 0.151363
129604.0, 0.148424
132926.0, 0.147780
136424.0, 0.136197
140111.0, 0.122140
144003.0, 0.106705
148118.0, 0.0880780
152474.0, 0.0917530
157095.0, 0.0918420
162004.0, 0.0918420
167231.0, 0.0918420
172805.0, 0.0918420
178764.0, 0.0918420
185148.0, 0.0918420
192005.0, 0.0918420
199390.0, 0.0918420
207366.0, 0.0918420
216006.0, 0.0918420
