Database of Origin, USGS Spectral Database
Sample Description, See USGS database for additional info
Date Added,2016-08-03 21:09:02.718387

Data ID,USGS_bro02          
Sample ID, bronzite_hs9.3768
Mineral Name, bronzite
Material Class,Inosilicate

Wavelength
1622.58, 0.259335
1623.09, 0.259404
1623.6, 0.259198
1624.11, 0.259473
1624.62, 0.259061
1625.13, 0.258923
1625.64, 0.258648
1626.15, 0.258374
1626.66, 0.258168
1627.17, 0.258786
1627.68, 0.258717
1628.19, 0.258648
1628.7, 0.258580
1629.21, 0.258511
1629.72, 0.258305
1630.24, 0.258717
1630.75, 0.258442
1631.26, 0.258030
1631.78, 0.257549
1632.29, 0.257206
1632.8, 0.257000
1633.32, 0.257343
1633.83, 0.257618
1634.35, 0.257687
1634.86, 0.257343
1635.38, 0.257687
1635.9, 0.257481
1636.41, 0.257000
1636.93, 0.256725
1637.45, 0.256450
1637.96, 0.256244
1638.48, 0.256725
1639.0, 0.256450
1639.52, 0.256107
1640.04, 0.255694
1640.56, 0.255832
1641.08, 0.255900
1641.59, 0.256107
1642.11, 0.255626
1642.63, 0.255351
1643.16, 0.255420
1643.68, 0.255626
1644.2, 0.255900
1644.72, 0.255900
1645.24, 0.255351
1645.76, 0.255763
1646.29, 0.255488
1646.81, 0.254801
1647.33, 0.254389
1647.86, 0.254733
1648.38, 0.254526
1648.9, 0.254389
1649.43, 0.254183
1649.95, 0.254114
1650.48, 0.253908
1651.0, 0.253840
1651.53, 0.253565
1652.06, 0.253427
1652.58, 0.253633
1653.11, 0.253771
1653.64, 0.253565
1654.17, 0.253565
1654.69, 0.253015
1655.22, 0.252740
1655.75, 0.252878
1656.28, 0.252809
1656.81, 0.252534
1657.34, 0.252809
1657.87, 0.252672
1658.4, 0.252740
1658.93, 0.252328
1659.46, 0.252259
1659.99, 0.252053
1660.52, 0.252259
1661.05, 0.251985
1661.59, 0.251504
1662.12, 0.251366
1662.65, 0.251847
1663.19, 0.251641
1663.72, 0.251298
1664.26, 0.251092
1664.79, 0.251435
1665.32, 0.251366
1665.86, 0.251092
1666.39, 0.250817
1666.93, 0.250817
1667.47, 0.250611
1668.0, 0.250405
1668.54, 0.250336
1669.08, 0.250199
1669.61, 0.249580
1670.15, 0.249580
1670.69, 0.249786
1671.23, 0.249924
1671.77, 0.249649
1672.31, 0.249580
1672.85, 0.249649
1673.39, 0.249237
1673.93, 0.249099
1674.47, 0.249443
1675.01, 0.249099
1675.55, 0.248825
1676.09, 0.248687
1676.64, 0.248618
1677.18, 0.248275
1677.72, 0.248618
1678.26, 0.248756
1678.81, 0.248412
1679.35, 0.248069
1679.89, 0.248138
1680.44, 0.247931
1680.98, 0.247794
1681.53, 0.247313
1682.07, 0.247107
1682.62, 0.247107
1683.17, 0.247451
1683.71, 0.247245
1684.26, 0.247107
1684.81, 0.246901
1685.36, 0.246695
1685.9, 0.246351
1686.45, 0.246626
1687.0, 0.246351
1687.55, 0.246008
1688.1, 0.245664
1688.65, 0.245664
1689.2, 0.245664
1689.75, 0.245596
1690.3, 0.244977
1690.85, 0.244977
1691.41, 0.245252
1691.96, 0.245527
1692.51, 0.245252
1693.06, 0.244840
1693.61, 0.244634
1694.17, 0.244840
1694.72, 0.244909
1695.28, 0.244703
1695.83, 0.244291
1696.39, 0.244359
1696.94, 0.244222
1697.5, 0.244084
1698.05, 0.243741
1698.61, 0.243741
1699.17, 0.243741
1699.72, 0.243604
1700.28, 0.243535
1700.84, 0.243535
1701.4, 0.243054
1701.95, 0.243123
1702.51, 0.242848
1703.07, 0.242436
1703.63, 0.241955
1704.19, 0.242161
1704.75, 0.242298
1705.31, 0.242367
1705.88, 0.242092
1706.44, 0.242230
1707.0, 0.242092
1707.56, 0.242023
1708.12, 0.241955
1708.69, 0.242023
1709.25, 0.241405
1709.81, 0.241336
1710.38, 0.241611
1710.94, 0.241611
1711.51, 0.241474
1712.07, 0.241749
1712.64, 0.241268
1713.2, 0.241130
1713.77, 0.240649
1714.34, 0.240718
1714.9, 0.240649
1715.47, 0.240375
1716.04, 0.240375
1716.61, 0.240581
1717.18, 0.240512
1717.74, 0.240581
1718.31, 0.240443
1718.88, 0.240306
1719.45, 0.240237
1720.02, 0.239825
1720.59, 0.239344
1721.17, 0.239207
1721.74, 0.239413
1722.31, 0.239894
1722.88, 0.239619
1723.45, 0.239482
1724.03, 0.239069
1724.6, 0.238932
1725.18, 0.239138
1725.75, 0.238932
1726.33, 0.238382
1726.9, 0.238520
1727.48, 0.238382
1728.05, 0.238451
1728.63, 0.238589
1729.2, 0.238589
1729.78, 0.238520
1730.36, 0.238245
1730.94, 0.237902
1731.51, 0.237833
1732.09, 0.237627
1732.67, 0.237902
1733.25, 0.237833
1733.83, 0.237695
1734.41, 0.237489
1734.99, 0.237558
1735.57, 0.237421
1736.15, 0.237146
1736.73, 0.237077
1737.32, 0.237352
1737.9, 0.237352
1738.48, 0.237215
1739.07, 0.236459
1739.65, 0.236459
1740.23, 0.236871
1740.82, 0.236734
1741.4, 0.236253
1741.99, 0.236253
1742.57, 0.236390
1743.16, 0.236665
1743.74, 0.236322
1744.33, 0.236253
1744.92, 0.236459
1745.51, 0.236596
1746.09, 0.236047
1746.68, 0.235978
1747.27, 0.236253
1747.86, 0.236322
1748.45, 0.235909
1749.04, 0.235841
1749.63, 0.235428
1750.22, 0.235016
1750.81, 0.234879
1751.4, 0.235222
1751.99, 0.235291
1752.59, 0.235154
1753.18, 0.235016
1753.77, 0.234879
1754.37, 0.235016
1754.96, 0.235154
1755.56, 0.234741
1756.15, 0.234810
1756.74, 0.234535
1757.34, 0.234329
1757.94, 0.234192
1758.53, 0.234535
1759.13, 0.234329
1759.73, 0.233917
1760.32, 0.233780
1760.92, 0.234192
1761.52, 0.234329
1762.12, 0.234329
1762.72, 0.233986
1763.32, 0.233986
1763.92, 0.233986
1764.52, 0.233711
1765.12, 0.233505
1765.72, 0.233505
1766.32, 0.233368
1766.92, 0.233299
1767.53, 0.233299
1768.13, 0.233299
1768.73, 0.233230
1769.34, 0.233161
1769.94, 0.233093
1770.55, 0.233161
1771.15, 0.233024
1771.76, 0.233093
1772.36, 0.232749
1772.97, 0.233093
1773.57, 0.233230
1774.18, 0.232955
1774.79, 0.232612
1775.4, 0.232406
1776.0, 0.232062
1776.61, 0.232612
1777.22, 0.232749
1777.83, 0.232474
1778.44, 0.232131
1779.05, 0.232200
1779.66, 0.232474
1780.27, 0.232406
1780.88, 0.232062
1781.5, 0.232062
1782.11, 0.231994
1782.72, 0.231994
1783.33, 0.231719
1783.95, 0.231375
1784.56, 0.231581
1785.18, 0.231925
1785.79, 0.231787
1786.41, 0.231925
1787.02, 0.231925
1787.64, 0.231719
1788.26, 0.231650
1788.87, 0.231650
1789.49, 0.231307
1790.11, 0.231375
1790.73, 0.231444
1791.35, 0.231238
1791.96, 0.231169
1792.58, 0.231444
1793.21, 0.231169
1793.83, 0.231169
1794.45, 0.231238
1795.07, 0.231513
1795.69, 0.231513
1796.31, 0.231513
1796.93, 0.231375
1797.56, 0.231444
1798.18, 0.231169
1798.8, 0.231169
1799.43, 0.231169
1800.05, 0.231169
1800.68, 0.230963
1801.3, 0.231169
1801.93, 0.231238
1802.56, 0.231307
1803.18, 0.231650
1803.81, 0.231719
1804.44, 0.231444
1805.07, 0.231307
1805.7, 0.231032
1806.33, 0.231307
1806.95, 0.231169
1807.58, 0.231169
1808.22, 0.231169
1808.85, 0.231032
1809.48, 0.230757
1810.11, 0.231307
1810.74, 0.231581
1811.38, 0.231719
1812.01, 0.231444
1812.64, 0.231169
1813.28, 0.231032
1813.91, 0.231100
1814.55, 0.231100
1815.18, 0.231375
1815.82, 0.231375
1816.45, 0.231375
1817.09, 0.231307
1817.73, 0.231375
1818.36, 0.231375
1819.0, 0.231375
1819.64, 0.231375
1820.28, 0.231513
1820.92, 0.231444
1821.56, 0.231375
1822.2, 0.231307
1822.84, 0.231513
1823.48, 0.231444
1824.12, 0.231444
1824.76, 0.231238
1825.41, 0.231307
1826.05, 0.231444
1826.69, 0.231169
1827.34, 0.231307
1827.98, 0.231719
1828.63, 0.231787
1829.27, 0.231719
1829.92, 0.231581
1830.56, 0.231650
1831.21, 0.231581
1831.86, 0.231787
1832.5, 0.231581
1833.15, 0.231650
1833.8, 0.231444
1834.45, 0.231650
1835.1, 0.231650
1835.75, 0.231856
1836.4, 0.231719
1837.05, 0.231650
1837.7, 0.231650
1838.35, 0.231719
1839.01, 0.231513
1839.66, 0.231513
1840.31, 0.231513
1840.96, 0.231650
1841.62, 0.231650
1842.27, 0.231581
1842.93, 0.231856
1843.58, 0.231994
1844.24, 0.231856
1844.9, 0.231787
1845.55, 0.231444
1846.21, 0.231856
1846.87, 0.232131
1847.53, 0.232200
1848.18, 0.232062
1848.84, 0.232268
1849.5, 0.232268
1850.16, 0.232474
1850.82, 0.232268
1851.48, 0.232200
1852.14, 0.232474
1852.81, 0.232887
1853.47, 0.232612
1854.13, 0.232474
1854.8, 0.232406
1855.46, 0.232200
1856.12, 0.232131
1856.79, 0.232612
1857.45, 0.232474
1858.12, 0.232200
1858.79, 0.232268
1859.45, 0.232543
1860.12, 0.232887
1860.79, 0.233093
1861.46, 0.232955
1862.12, 0.233161
1862.79, 0.233161
1863.46, 0.233436
1864.13, 0.233368
1864.8, 0.233230
1865.48, 0.233230
1866.15, 0.233505
1866.82, 0.233436
1867.49, 0.233368
1868.16, 0.233161
1868.84, 0.233505
1869.51, 0.233986
1870.19, 0.234123
1870.86, 0.234054
1871.54, 0.234054
1872.21, 0.233848
1872.89, 0.234192
1873.56, 0.234329
1874.24, 0.234261
1874.92, 0.234398
1875.6, 0.234535
1876.28, 0.234535
1876.96, 0.234948
1877.64, 0.234948
1878.32, 0.235085
1879.0, 0.234948
1879.68, 0.235085
1880.36, 0.235360
1881.04, 0.235497
1881.73, 0.235360
1882.41, 0.235291
1883.09, 0.235291
1883.78, 0.235703
1884.46, 0.235772
1885.15, 0.236047
1885.83, 0.236322
1886.52, 0.236184
1887.21, 0.236047
1887.89, 0.236115
1888.58, 0.236322
1889.27, 0.236528
1889.96, 0.236390
1890.65, 0.236940
1891.34, 0.237077
1892.03, 0.237008
1892.72, 0.237008
1893.41, 0.237215
1894.1, 0.237558
1894.79, 0.237627
1895.49, 0.237489
1896.18, 0.237627
1896.87, 0.237695
1897.57, 0.237627
1898.26, 0.237627
1898.96, 0.237902
1899.65, 0.238176
1900.35, 0.238451
1901.05, 0.238382
1901.74, 0.238314
1902.44, 0.238451
1903.14, 0.238932
1903.84, 0.238795
1904.54, 0.238932
1905.24, 0.239001
1905.94, 0.239276
1906.64, 0.239276
1907.34, 0.239276
1908.04, 0.239550
1908.75, 0.239756
1909.45, 0.239756
1910.15, 0.240237
1910.86, 0.240443
1911.56, 0.240649
1912.27, 0.240924
1912.97, 0.241199
1913.68, 0.241130
1914.39, 0.241268
1915.09, 0.241474
1915.8, 0.241817
1916.51, 0.241886
1917.22, 0.241886
1917.93, 0.242023
1918.64, 0.242230
1919.35, 0.242367
1920.06, 0.242436
1920.77, 0.242504
1921.48, 0.242779
1922.19, 0.243260
1922.91, 0.243535
1923.62, 0.243329
1924.33, 0.243535
1925.05, 0.243604
1925.76, 0.243672
1926.48, 0.243672
1927.19, 0.244153
1927.91, 0.244565
1928.63, 0.244634
1929.35, 0.244634
1930.07, 0.244909
1930.78, 0.245115
1931.5, 0.245390
1932.22, 0.245527
1932.94, 0.245733
1933.66, 0.245871
1934.39, 0.245871
1935.11, 0.245871
1935.83, 0.246283
1936.55, 0.246489
1937.28, 0.246832
1938.0, 0.247176
1938.73, 0.247176
1939.45, 0.247382
1940.18, 0.247657
1940.9, 0.247725
1941.63, 0.247863
1942.36, 0.247931
1943.09, 0.248344
1943.81, 0.248756
1944.54, 0.248756
1945.27, 0.248825
1946.0, 0.249031
1946.73, 0.249031
1947.47, 0.249305
1948.2, 0.249374
1948.93, 0.249924
1949.66, 0.250199
1950.4, 0.250542
1951.13, 0.250542
1951.86, 0.250748
1952.6, 0.250817
1953.34, 0.251092
1954.07, 0.251298
1954.81, 0.251572
1955.55, 0.251710
1956.29, 0.252053
1957.02, 0.252328
1957.76, 0.252672
1958.5, 0.252672
1959.24, 0.252603
1959.98, 0.252740
1960.72, 0.253084
1961.47, 0.253290
1962.21, 0.253633
1962.95, 0.254046
1963.7, 0.254252
1964.44, 0.254320
1965.18, 0.254526
1965.93, 0.254664
1966.67, 0.255076
1967.42, 0.255145
1968.17, 0.255557
1968.92, 0.255694
1969.66, 0.255832
1970.41, 0.255969
1971.16, 0.256450
1971.91, 0.256656
1972.66, 0.257000
1973.41, 0.257412
1974.16, 0.257824
1974.92, 0.257824
1975.67, 0.257961
1976.42, 0.258168
1977.18, 0.258580
1977.93, 0.258855
1978.69, 0.259198
1979.44, 0.259541
1980.2, 0.259748
1980.95, 0.259816
1981.71, 0.260228
1982.47, 0.260709
1983.23, 0.260984
1983.99, 0.261053
1984.74, 0.261259
1985.51, 0.261740
1986.27, 0.262015
1987.03, 0.262358
1987.79, 0.262839
1988.55, 0.262976
1989.32, 0.263320
1990.08, 0.263389
1990.84, 0.263732
1991.61, 0.264144
1992.37, 0.264763
1993.14, 0.265106
1993.9, 0.265450
1994.67, 0.265656
1995.44, 0.265999
1996.21, 0.266274
1996.98, 0.266480
1997.75, 0.266549
1998.52, 0.266892
1999.29, 0.267167
2000.06, 0.267373
2000.83, 0.267785
2001.6, 0.268472
2002.38, 0.268747
2003.15, 0.269022
2003.93, 0.269091
2004.7, 0.269503
2005.48, 0.269984
2006.25, 0.270533
2007.03, 0.270464
2007.81, 0.270671
2008.58, 0.271014
2009.36, 0.271495
2010.14, 0.271770
2010.92, 0.272388
2011.7, 0.272869
2012.48, 0.273144
2013.26, 0.273487
2014.05, 0.274037
2014.83, 0.274174
2015.61, 0.274449
2016.4, 0.274930
2017.18, 0.275273
2017.97, 0.275273
2018.75, 0.275823
2019.54, 0.276235
2020.32, 0.276510
2021.11, 0.276991
2021.9, 0.277197
2022.69, 0.277197
2023.48, 0.277815
2024.27, 0.278159
2025.06, 0.278640
2025.85, 0.279052
2026.64, 0.279464
2027.44, 0.279601
2028.23, 0.279945
2029.02, 0.280426
2029.82, 0.281044
2030.61, 0.281250
2031.41, 0.281662
2032.2, 0.281937
2033.0, 0.282281
2033.8, 0.282418
2034.6, 0.282899
2035.4, 0.283311
2036.2, 0.283586
2037.0, 0.283998
2037.8, 0.284616
2038.6, 0.284754
2039.4, 0.285166
2040.2, 0.285509
2041.01, 0.285715
2041.81, 0.286196
2042.61, 0.286746
2043.42, 0.286883
2044.22, 0.287295
2045.03, 0.287708
2045.84, 0.288120
2046.65, 0.288326
2047.46, 0.288669
2048.26, 0.288944
2049.07, 0.289563
2049.88, 0.289975
2050.69, 0.290387
2051.51, 0.290524
2052.32, 0.291005
2053.13, 0.291417
2053.94, 0.291967
2054.76, 0.292517
2055.57, 0.292791
2056.39, 0.292860
2057.2, 0.293272
2058.02, 0.293478
2058.84, 0.294028
2059.66, 0.294509
2060.48, 0.294784
2061.29, 0.294990
2062.11, 0.295471
2062.94, 0.295883
2063.76, 0.296226
2064.58, 0.296501
2065.4, 0.297188
2066.22, 0.297532
2067.05, 0.297806
2067.87, 0.298081
2068.7, 0.298768
2069.52, 0.299386
2070.35, 0.299592
2071.18, 0.299730
2072.0, 0.300073
2072.83, 0.300417
2073.66, 0.300898
2074.49, 0.301173
2075.32, 0.301585
2076.15, 0.301928
2076.98, 0.302409
2077.82, 0.302890
2078.65, 0.303508
2079.48, 0.304058
2080.32, 0.304607
2081.15, 0.305088
2081.99, 0.305363
2082.83, 0.305501
2083.66, 0.306119
2084.5, 0.306531
2085.34, 0.306806
2086.18, 0.307081
2087.02, 0.307561
2087.86, 0.308111
2088.7, 0.308592
2089.54, 0.309142
2090.39, 0.309760
2091.23, 0.310035
2092.07, 0.310378
2092.92, 0.310859
2093.76, 0.311409
2094.61, 0.311615
2095.45, 0.312027
2096.3, 0.312714
2097.15, 0.313126
2098.0, 0.313538
2098.85, 0.313950
2099.7, 0.314156
2100.55, 0.314775
2101.4, 0.315256
2102.25, 0.315737
2103.1, 0.316080
2103.96, 0.316698
2104.81, 0.317110
2105.67, 0.317660
2106.52, 0.318004
2107.38, 0.318484
2108.24, 0.318828
2109.09, 0.319378
2109.95, 0.319515
2110.81, 0.319927
2111.67, 0.320683
2112.53, 0.321301
2113.39, 0.321645
2114.25, 0.322194
2115.12, 0.322469
2115.98, 0.322675
2116.84, 0.323156
2117.71, 0.323912
2118.58, 0.324392
2119.44, 0.324942
2120.31, 0.325148
2121.18, 0.325766
2122.04, 0.326041
2122.91, 0.326316
2123.78, 0.326797
2124.65, 0.327484
2125.52, 0.327965
2126.4, 0.328377
2127.27, 0.328789
2128.14, 0.329339
2129.02, 0.329614
2129.89, 0.330094
2130.77, 0.330575
2131.64, 0.331125
2132.52, 0.331674
2133.4, 0.332224
2134.27, 0.332636
2135.15, 0.332911
2136.03, 0.333186
2136.91, 0.333529
2137.79, 0.334010
2138.68, 0.334560
2139.56, 0.334835
2140.44, 0.335384
2141.33, 0.335796
2142.21, 0.336346
2143.1, 0.336758
2143.99, 0.337376
2144.87, 0.337926
2145.76, 0.338132
2146.65, 0.338270
2147.54, 0.338750
2148.43, 0.339369
2149.32, 0.339712
2150.21, 0.339987
2151.1, 0.340674
2151.99, 0.341155
2152.89, 0.341567
2153.78, 0.341704
2154.68, 0.342117
2155.57, 0.342666
2156.47, 0.342941
2157.37, 0.343216
2158.27, 0.343697
2159.16, 0.343903
2160.06, 0.344315
2160.96, 0.344727
2161.86, 0.345208
2162.77, 0.345483
2163.67, 0.345964
2164.57, 0.346513
2165.48, 0.346857
2166.38, 0.346994
2167.29, 0.347406
2168.2, 0.347887
2169.1, 0.348505
2170.01, 0.348643
2170.92, 0.348986
2171.83, 0.349399
2172.74, 0.349742
2173.65, 0.350017
2174.56, 0.350429
2175.47, 0.350773
2176.39, 0.351047
2177.3, 0.351185
2178.22, 0.351528
2179.13, 0.352009
2180.05, 0.352627
2180.96, 0.353177
2181.88, 0.353589
2182.8, 0.353727
2183.72, 0.354139
2184.64, 0.354482
2185.56, 0.354688
2186.48, 0.354688
2187.41, 0.355169
2188.33, 0.355856
2189.25, 0.356268
2190.18, 0.356543
2191.1, 0.356887
2192.03, 0.357368
2192.96, 0.357848
2193.89, 0.357917
2194.82, 0.358123
2195.74, 0.358604
2196.68, 0.359016
2197.61, 0.359154
2198.54, 0.359497
2199.47, 0.359978
2200.4, 0.360528
2201.34, 0.360803
2202.28, 0.361077
2203.21, 0.361352
2204.15, 0.361764
2205.08, 0.362039
2206.02, 0.362520
2206.96, 0.362863
2207.9, 0.363344
2208.84, 0.363619
2209.78, 0.363963
2210.73, 0.364306
2211.67, 0.364718
2212.61, 0.365062
2213.56, 0.365611
2214.5, 0.366092
2215.45, 0.366230
2216.4, 0.366504
2217.35, 0.367123
2218.3, 0.367260
2219.24, 0.367672
2220.2, 0.368016
2221.15, 0.368153
2222.1, 0.368428
2223.05, 0.368909
2224.0, 0.369458
2224.96, 0.369802
2225.91, 0.369939
2226.87, 0.370352
2227.83, 0.370420
2228.79, 0.371039
2229.74, 0.371519
2230.7, 0.371794
2231.66, 0.372069
2232.63, 0.372550
2233.59, 0.372825
2234.55, 0.373237
2235.51, 0.373512
2236.48, 0.373512
2237.44, 0.373855
2238.41, 0.374199
2239.38, 0.374473
2240.34, 0.374954
2241.31, 0.375160
2242.28, 0.375504
2243.25, 0.375847
2244.22, 0.376191
2245.19, 0.376328
2246.17, 0.376672
2247.14, 0.377015
2248.12, 0.377359
2249.09, 0.377359
2250.07, 0.377565
2251.04, 0.377840
2252.02, 0.378114
2253.0, 0.378458
2253.98, 0.378801
2254.96, 0.379076
2255.94, 0.379420
2256.92, 0.379694
2257.91, 0.380038
2258.89, 0.380381
2259.88, 0.380725
2260.86, 0.380931
2261.85, 0.381137
2262.83, 0.381481
2263.82, 0.381687
2264.81, 0.381430
2265.8, 0.381558
2266.79, 0.381943
2267.78, 0.382200
2268.78, 0.382264
2269.77, 0.382520
2270.76, 0.382777
2271.76, 0.383097
2272.75, 0.383290
2273.75, 0.383610
2274.75, 0.383867
2275.75, 0.384188
2276.75, 0.384380
2277.75, 0.384637
2278.75, 0.384957
2279.75, 0.384957
2280.75, 0.385150
2281.76, 0.385534
2282.76, 0.385470
2283.77, 0.385470
2284.77, 0.385406
2285.78, 0.385855
2286.79, 0.385919
2287.8, 0.385534
2288.81, 0.385470
2289.82, 0.385342
2290.83, 0.384957
2291.84, 0.385342
2292.86, 0.385534
2293.87, 0.385791
2294.89, 0.385855
2295.91, 0.386047
2296.92, 0.386368
2297.94, 0.386047
2298.96, 0.386240
2299.98, 0.386560
2301.0, 0.386496
2302.02, 0.386432
2303.04, 0.386496
2304.07, 0.386881
2305.09, 0.386945
2306.12, 0.386753
2307.15, 0.386368
2308.17, 0.386432
2309.2, 0.386047
2310.23, 0.385855
2311.26, 0.385791
2312.29, 0.385791
2313.32, 0.386111
2314.35, 0.386560
2315.39, 0.386624
2316.42, 0.387009
2317.46, 0.387586
2318.5, 0.388420
2319.53, 0.388869
2320.57, 0.389125
2321.61, 0.389318
2322.65, 0.389767
2323.69, 0.390152
2324.73, 0.390600
2325.78, 0.391113
2326.82, 0.391755
2327.86, 0.392139
2328.91, 0.392524
2329.96, 0.392652
2331.01, 0.393037
2332.05, 0.393807
2333.1, 0.394256
2334.15, 0.394512
2335.21, 0.394961
2336.26, 0.395410
2337.31, 0.395859
2338.36, 0.395859
2339.42, 0.395987
2340.48, 0.396372
2341.53, 0.396628
2342.59, 0.396564
2343.65, 0.396821
2344.71, 0.397270
2345.77, 0.397719
2346.83, 0.397975
2347.9, 0.397975
2348.96, 0.398167
2350.02, 0.398873
2351.09, 0.399001
2352.16, 0.399001
2353.23, 0.399129
2354.29, 0.399514
2355.36, 0.399578
2356.43, 0.399899
2357.51, 0.400348
2358.58, 0.400668
2359.65, 0.400797
2360.73, 0.401053
2361.8, 0.401053
2362.88, 0.401117
2363.96, 0.401181
2365.03, 0.401374
2366.11, 0.401438
2367.19, 0.401502
2368.27, 0.401438
2369.36, 0.401566
2370.44, 0.401887
2371.53, 0.402143
2372.61, 0.401951
2373.7, 0.401823
2374.78, 0.401759
2375.87, 0.401759
2376.96, 0.401759
2378.05, 0.401951
2379.14, 0.401887
2380.24, 0.401887
2381.33, 0.402272
2382.42, 0.402592
2383.52, 0.402400
2384.61, 0.402592
2385.71, 0.402785
2386.81, 0.402849
2387.91, 0.403105
2389.01, 0.403426
2390.11, 0.403746
2391.22, 0.404260
2392.32, 0.404452
2393.42, 0.404901
2394.53, 0.405350
2395.64, 0.405286
2396.74, 0.405734
2397.85, 0.406183
2398.96, 0.406440
2400.07, 0.407145
2401.18, 0.407530
2402.3, 0.407915
2403.41, 0.408107
2404.52, 0.408556
2405.64, 0.408877
2406.76, 0.409133
2407.88, 0.409390
2408.99, 0.409646
2410.11, 0.409839
2411.23, 0.410095
2412.36, 0.410223
2413.48, 0.410031
2414.6, 0.410223
2415.73, 0.410800
2416.85, 0.410800
2417.98, 0.410736
2419.11, 0.410736
2420.24, 0.410993
2421.37, 0.410929
2422.5, 0.411057
2423.64, 0.410993
2424.77, 0.411185
2425.9, 0.411442
2427.04, 0.411762
2428.18, 0.411955
2429.31, 0.412019
2430.45, 0.411955
2431.59, 0.412211
2432.73, 0.412340
2433.88, 0.412275
2435.02, 0.412147
2436.16, 0.412340
2437.31, 0.412404
2438.45, 0.412468
2439.6, 0.412211
2440.75, 0.412211
2441.9, 0.412275
2443.05, 0.412340
2444.2, 0.412468
2445.35, 0.412660
2446.51, 0.412788
2447.67, 0.413173
2448.82, 0.413173
2449.98, 0.413237
2451.14, 0.413366
2452.3, 0.413301
2453.46, 0.413109
2454.62, 0.413237
2455.78, 0.413173
2456.94, 0.413173
2458.11, 0.413237
2459.28, 0.413366
2460.44, 0.413366
2461.61, 0.413173
2462.78, 0.412981
2463.95, 0.413173
2465.12, 0.413301
2466.3, 0.413430
2467.47, 0.413366
2468.65, 0.413237
2469.82, 0.413430
2471.0, 0.413879
2472.18, 0.413815
2473.36, 0.413622
2474.54, 0.413815
2475.72, 0.413943
2476.9, 0.413879
2478.08, 0.414135
2479.27, 0.414392
2480.46, 0.414392
2481.64, 0.414392
2482.83, 0.414328
2484.02, 0.414263
2485.21, 0.414392
2486.4, 0.414584
2487.6, 0.414392
2488.79, 0.414328
2489.99, 0.414520
2491.18, 0.414520
2492.38, 0.414584
2493.58, 0.414841
2494.78, 0.415097
2495.98, 0.414969
2497.18, 0.414776
2498.39, 0.414776
2499.59, 0.414841
2500.8, 0.414969
2502.01, 0.415161
2503.21, 0.415097
2504.42, 0.415161
2505.63, 0.415674
2506.84, 0.415546
2508.06, 0.415354
2509.27, 0.415418
2510.49, 0.415610
2511.7, 0.415931
2512.92, 0.415995
2514.14, 0.416251
2515.36, 0.416315
2516.58, 0.416315
2517.8, 0.416444
2519.03, 0.416508
2520.25, 0.416572
2521.48, 0.416636
2522.7, 0.416636
2523.93, 0.416828
2525.16, 0.417342
2526.39, 0.417406
2527.62, 0.417213
2528.86, 0.417534
2530.09, 0.417919
2531.33, 0.417983
2532.56, 0.417855
2533.8, 0.417855
2535.04, 0.418368
2536.28, 0.418496
2537.52, 0.418239
2538.76, 0.418624
2540.01, 0.418624
2541.25, 0.418945
2542.5, 0.419329
2543.75, 0.419329
2544.99, 0.419201
2546.24, 0.419522
2547.49, 0.419714
2548.75, 0.419586
2550.0, 0.419458
2551.26, 0.419714
2552.51, 0.419778
2553.77, 0.419586
2555.03, 0.419458
2556.29, 0.419329
2557.55, 0.419394
2558.81, 0.419971
2560.08, 0.421125
2561.34, 0.421702
2562.61, 0.421382
2563.88, 0.421125
2565.14, 0.420356
2566.41, 0.420163
2567.68, 0.420869
2568.96, 0.421766
2570.23, 0.421189
2571.51, 0.420612
2572.78, 0.421895
2574.06, 0.421382
2575.34, 0.420804
2576.62, 0.421253
2577.9, 0.420676
2579.18, 0.420676
2580.47, 0.421317
2581.75, 0.421638
2583.04, 0.422921
2584.32, 0.422408
2585.61, 0.421382
2586.9, 0.422343
2588.2, 0.421959
2589.49, 0.421574
2590.78, 0.421061
2592.08, 0.421638
2593.37, 0.424716
2594.67, 0.426704
2595.97, 0.423305
2597.27, 0.421317
2598.57, 0.420869
2599.88, 0.421125
2601.18, 0.421317
2602.49, 0.421702
2603.79, 0.422664
2605.1, 0.423690
2606.41, 0.422536
2607.72, 0.421766
2609.03, 0.421382
2610.35, 0.420804
2611.66, 0.420484
2612.98, 0.420804
2614.3, 0.420612
2615.62, 0.422343
2616.94, 0.422472
2618.26, 0.420997
2619.58, 0.422279
2620.91, 0.421638
2622.23, 0.419778
2623.56, 0.419714
2624.89, 0.420420
2626.22, 0.421574
2627.55, 0.420227
2628.88, 0.420933
2630.21, 0.422087
2631.55, 0.420035
2632.89, 0.419458
2634.22, 0.419394
2635.56, 0.418432
2636.9, 0.418239
2638.25, 0.418111
2639.59, 0.418047
2640.93, 0.417983
2642.28, 0.417662
2643.63, 0.417406
2644.98, 0.418175
2646.33, 0.417598
2647.68, 0.417021
2649.03, 0.416764
2650.39, 0.417277
2651.74, 0.417855
2653.1, 0.417470
2654.46, 0.417085
2655.82, 0.416828
2657.18, 0.415867
2658.54, 0.416315
2659.9, 0.416315
2661.27, 0.415867
2662.64, 0.415546
2664.01, 0.417470
2665.38, 0.418303
2666.74, 0.417213
2668.12, 0.415097
2669.49, 0.416893
2670.87, 0.415097
2672.24, 0.410800
2673.62, 0.409582
2675.0, 0.409261
2676.38, 0.408107
2677.76, 0.405286
2679.15, 0.402272
2680.54, 0.398232
2681.92, 0.395218
2683.31, 0.392075
2684.7, 0.388164
2686.09, 0.384637
2687.48, 0.380468
2688.88, 0.376043
2690.27, 0.371683
2691.67, 0.367963
2693.07, 0.364821
2694.47, 0.360204
2695.87, 0.354304
2697.27, 0.347956
2698.67, 0.341286
2700.08, 0.335900
2701.49, 0.330898
2702.9, 0.325254
2704.31, 0.319547
2705.72, 0.313968
2707.13, 0.309223
2708.54, 0.305824
2709.96, 0.303066
2711.38, 0.299603
2712.8, 0.295499
2714.22, 0.293255
2715.64, 0.291588
2717.06, 0.289535
2718.49, 0.285816
2719.91, 0.283379
2721.34, 0.282994
2722.77, 0.285624
2724.2, 0.289343
2725.63, 0.291139
2727.07, 0.292357
2728.5, 0.293447
2729.94, 0.293960
2731.38, 0.294217
2732.82, 0.295499
2734.26, 0.297487
2735.7, 0.298064
2737.15, 0.298642
2738.59, 0.300181
2740.04, 0.301143
2741.49, 0.300822
2742.94, 0.299988
2744.39, 0.299860
2745.84, 0.299924
2747.3, 0.299924
2748.76, 0.300437
2750.21, 0.300630
2751.67, 0.300694
2753.14, 0.301143
2754.6, 0.302746
2756.06, 0.302297
2757.53, 0.300886
2759.0, 0.300565
2760.46, 0.300822
2761.94, 0.301463
2763.41, 0.301335
2764.88, 0.300886
2766.36, 0.301207
2767.83, 0.301143
2769.31, 0.300822
2770.79, 0.300758
2772.27, 0.300309
2773.76, 0.299732
2775.24, 0.299539
2776.73, 0.299603
2778.22, 0.299603
2779.71, 0.299347
2781.2, 0.299283
2782.69, 0.299090
2784.18, 0.299090
2785.68, 0.299539
2787.18, 0.299283
2788.68, 0.298257
2790.18, 0.297808
2791.68, 0.297616
2793.19, 0.297167
2794.69, 0.296782
2796.2, 0.296525
2797.71, 0.296269
2799.22, 0.295884
2800.73, 0.295499
2802.24, 0.295243
2803.76, 0.294281
2805.28, 0.292870
2806.8, 0.291780
2808.32, 0.291203
2809.84, 0.290882
2811.36, 0.290882
2812.89, 0.291075
2814.42, 0.291588
2815.94, 0.291652
2817.48, 0.291780
2819.01, 0.292036
2820.54, 0.292357
2822.08, 0.292357
2823.61, 0.292742
2825.15, 0.293127
2826.69, 0.293319
2828.23, 0.293191
2829.78, 0.293191
2831.32, 0.292934
2832.87, 0.292101
2834.42, 0.290946
2835.97, 0.289856
2837.52, 0.288766
2839.08, 0.287612
2840.63, 0.286650
2842.19, 0.286073
2843.75, 0.285816
2845.31, 0.286137
2846.87, 0.286714
2848.44, 0.287868
2850.0, 0.289022
2851.57, 0.290562
2853.14, 0.292165
2854.71, 0.293511
2856.28, 0.294345
2857.86, 0.295115
2859.43, 0.295884
2861.01, 0.296461
2862.59, 0.296910
2864.17, 0.297295
2865.76, 0.297231
2867.34, 0.297359
2868.93, 0.297616
2870.52, 0.297808
2872.11, 0.297744
2873.7, 0.297744
2875.29, 0.297551
2876.89, 0.297616
2878.49, 0.297551
2880.08, 0.297423
2881.69, 0.297231
2883.29, 0.296910
2884.89, 0.296782
2886.5, 0.296654
2888.11, 0.296525
2889.72, 0.296461
2891.33, 0.296397
2892.94, 0.296461
2894.56, 0.296269
2896.17, 0.296076
2897.79, 0.295884
2899.42, 0.295820
2901.04, 0.295499
2902.66, 0.295179
2904.29, 0.295115
2905.92, 0.294858
2907.55, 0.294537
2909.18, 0.294281
2910.81, 0.293960
2912.45, 0.293832
2914.08, 0.293640
2915.72, 0.293383
2917.36, 0.292934
2919.01, 0.292678
2920.65, 0.292549
2922.3, 0.292549
2923.94, 0.292357
2925.59, 0.292036
2927.25, 0.292101
2928.9, 0.292357
2930.56, 0.292549
2932.21, 0.292614
2933.87, 0.292678
2935.53, 0.293127
2937.2, 0.293576
2938.86, 0.293960
2940.53, 0.294345
2942.2, 0.294730
2943.87, 0.295115
2945.54, 0.295563
2947.22, 0.296141
2948.89, 0.296525
2950.57, 0.296974
2952.25, 0.297551
2953.93, 0.297808
2955.62, 0.298129
2957.3, 0.298577
2958.99, 0.298898
2960.68, 0.299155
2962.37, 0.299475
2964.07, 0.299732
2965.76, 0.300181
2967.46, 0.300501
2969.16, 0.300501
2970.86, 0.300501
2972.56, 0.300822
2974.27, 0.301143
2975.98, 0.301271
2977.69, 0.301399
2979.4, 0.301399
2981.11, 0.301335
2982.83, 0.301527
2984.54, 0.301591
2986.26, 0.301656
2987.98, 0.301720
2989.71, 0.301848
2991.43, 0.301784
2993.16, 0.301848
2994.89, 0.301848
2996.62, 0.301976
2998.35, 0.302104
3000.09, 0.301976
3001.83, 0.301976
3003.57, 0.302104
3005.31, 0.302040
3007.05, 0.302169
3008.79, 0.302297
3010.54, 0.302233
3012.29, 0.301976
3014.04, 0.302040
3015.8, 0.302233
3017.55, 0.302297
3019.31, 0.302233
3021.07, 0.302425
3022.83, 0.302425
3024.59, 0.302297
3026.36, 0.302169
3028.13, 0.302233
3029.9, 0.302297
3031.67, 0.302361
3033.44, 0.302425
3035.22, 0.302553
3037.0, 0.302553
3038.78, 0.302617
3040.56, 0.302553
3042.34, 0.302617
3044.13, 0.302746
3045.92, 0.302874
3047.71, 0.303066
3049.5, 0.303131
3051.3, 0.302938
3053.09, 0.303002
3054.89, 0.303066
3056.69, 0.303002
3058.5, 0.302810
3060.3, 0.303002
3062.11, 0.303002
3063.92, 0.303002
3065.73, 0.302938
3067.55, 0.302938
3069.36, 0.303002
3071.18, 0.303259
3073.0, 0.303259
3074.82, 0.303259
3076.65, 0.303387
3078.48, 0.303515
3080.31, 0.303387
3082.14, 0.303451
3083.97, 0.303579
3085.8, 0.303579
3087.64, 0.303579
3089.48, 0.303900
3091.33, 0.303964
3093.17, 0.304028
3095.02, 0.303772
3096.87, 0.303900
3098.72, 0.304092
3100.57, 0.304285
3102.43, 0.304413
3104.28, 0.304541
3106.14, 0.304605
3108.01, 0.304734
3109.87, 0.304990
3111.74, 0.305247
3113.61, 0.305375
3115.48, 0.305631
3117.35, 0.305760
3119.23, 0.305824
3121.1, 0.305888
3122.98, 0.306209
3124.87, 0.306465
3126.75, 0.306722
3128.64, 0.306914
3130.53, 0.307235
3132.42, 0.307427
3134.31, 0.307555
3136.21, 0.307555
3138.11, 0.307812
3140.01, 0.308132
3141.91, 0.308453
3143.82, 0.308581
3145.73, 0.308838
3147.64, 0.309158
3149.55, 0.309287
3151.46, 0.309543
3153.38, 0.309928
3155.3, 0.310056
3157.22, 0.310249
3159.14, 0.310441
3161.07, 0.310762
3163.0, 0.311211
3164.93, 0.311531
3166.86, 0.311659
3168.8, 0.311980
3170.74, 0.312301
3172.68, 0.312621
3174.62, 0.312750
3176.56, 0.312942
3178.51, 0.313134
3180.46, 0.313391
3182.42, 0.313647
3184.37, 0.313968
3186.33, 0.314160
3188.29, 0.314353
3190.25, 0.314609
3192.21, 0.314866
3194.18, 0.314994
3196.15, 0.315186
3198.12, 0.315443
3200.09, 0.315828
3202.07, 0.316084
3204.05, 0.316213
3206.03, 0.316277
3208.02, 0.316533
3210.0, 0.316918
3211.99, 0.317110
3213.98, 0.317239
3215.98, 0.317367
3217.97, 0.317495
3219.97, 0.317752
3221.97, 0.317944
3223.98, 0.318072
3225.98, 0.318200
3227.99, 0.318393
3230.0, 0.318713
3232.02, 0.318970
3234.03, 0.318970
3236.05, 0.319034
3238.07, 0.319226
3240.1, 0.319419
3242.12, 0.319611
3244.15, 0.319804
3246.18, 0.319932
3248.22, 0.320060
3250.25, 0.320188
3252.29, 0.320445
3254.33, 0.320573
3256.38, 0.320701
3258.43, 0.320958
3260.47, 0.321214
3262.53, 0.321343
3264.58, 0.321471
3266.64, 0.321599
3268.7, 0.321920
3270.76, 0.322112
3272.82, 0.322240
3274.89, 0.322433
3276.96, 0.322433
3279.04, 0.322561
3281.11, 0.322946
3283.19, 0.323074
3285.27, 0.323267
3287.35, 0.323459
3289.44, 0.323651
3291.53, 0.323715
3293.62, 0.323908
3295.71, 0.324036
3297.81, 0.324228
3299.91, 0.324293
3302.01, 0.324485
3304.11, 0.324549
3306.22, 0.324677
3308.33, 0.324998
3310.44, 0.325319
3312.56, 0.325319
3314.68, 0.325511
3316.8, 0.325703
3318.92, 0.326024
3321.05, 0.326088
3323.18, 0.326216
3325.31, 0.326473
3327.44, 0.326665
3329.58, 0.326665
3331.72, 0.326986
3333.86, 0.327114
3336.01, 0.327178
3338.16, 0.327242
3340.31, 0.327307
3342.46, 0.327307
3344.61, 0.327242
3346.77, 0.327050
3348.94, 0.326794
3351.1, 0.326601
3353.27, 0.326537
3355.44, 0.326345
3357.61, 0.325832
3359.79, 0.325254
3361.97, 0.324806
3364.15, 0.324164
3366.33, 0.323651
3368.52, 0.323138
3370.71, 0.322561
3372.9, 0.322048
3375.1, 0.321599
3377.3, 0.321086
3379.5, 0.320573
3381.71, 0.320381
3383.91, 0.320445
3386.12, 0.320573
3388.34, 0.320766
3390.55, 0.320894
3392.77, 0.320958
3394.99, 0.320958
3397.22, 0.320830
3399.45, 0.320509
3401.68, 0.320124
3403.91, 0.319547
3406.15, 0.318906
3408.39, 0.318072
3410.63, 0.317623
3412.87, 0.317239
3415.12, 0.317110
3417.37, 0.317110
3419.63, 0.317559
3421.88, 0.318393
3424.14, 0.319547
3426.41, 0.320637
3428.67, 0.321663
3430.94, 0.322625
3433.21, 0.323587
3435.49, 0.324228
3437.77, 0.324870
3440.05, 0.325703
3442.33, 0.326537
3444.62, 0.326986
3446.91, 0.327371
3449.2, 0.327948
3451.5, 0.328589
3453.8, 0.329038
3456.1, 0.329615
3458.41, 0.330000
3460.72, 0.330321
3463.03, 0.330641
3465.34, 0.330834
3467.66, 0.330834
3469.98, 0.330769
3472.31, 0.330577
3474.63, 0.330513
3476.96, 0.330192
3479.3, 0.329872
3481.64, 0.329615
3483.97, 0.329615
3486.32, 0.329487
3488.66, 0.329295
3491.01, 0.329166
3493.36, 0.329038
3495.72, 0.328781
3498.08, 0.328589
3500.44, 0.328525
3502.81, 0.328781
3505.18, 0.329295
3507.55, 0.330000
3509.92, 0.330641
3512.3, 0.331347
3514.68, 0.332052
3517.06, 0.332950
3519.45, 0.333719
3521.84, 0.334425
3524.24, 0.335130
3526.64, 0.335771
3529.04, 0.336413
3531.44, 0.337118
3533.85, 0.337567
3536.26, 0.337888
3538.67, 0.338144
3541.09, 0.338593
3543.51, 0.338721
3545.93, 0.338785
3548.36, 0.338978
3550.79, 0.339234
3553.22, 0.339234
3555.66, 0.339491
3558.1, 0.339619
3560.54, 0.339683
3562.99, 0.339683
3565.44, 0.339747
3567.9, 0.339619
3570.35, 0.339619
3572.81, 0.339747
3575.28, 0.339811
3577.75, 0.339683
3580.22, 0.339683
3582.69, 0.339811
3585.17, 0.339811
3587.65, 0.339747
3590.14, 0.339940
3592.62, 0.339940
3595.11, 0.339876
3597.61, 0.339811
3600.11, 0.339811
3602.61, 0.339811
3605.11, 0.339811
3607.62, 0.339683
3610.14, 0.339683
3612.65, 0.339619
3615.17, 0.339619
3617.69, 0.339491
3620.22, 0.339555
3622.75, 0.339491
3625.28, 0.339427
3627.82, 0.339491
3630.36, 0.339491
3632.9, 0.339363
3635.45, 0.339298
3638.0, 0.339298
3640.56, 0.339298
3643.12, 0.339106
3645.68, 0.339106
3648.24, 0.339042
3650.81, 0.339042
3653.39, 0.339106
3655.96, 0.339042
3658.54, 0.338914
3661.13, 0.338849
3663.71, 0.338785
3666.3, 0.338849
3668.9, 0.338914
3671.5, 0.338914
3674.1, 0.338849
3676.7, 0.338978
3679.31, 0.338978
3681.93, 0.338978
3684.54, 0.338914
3687.17, 0.338978
3689.79, 0.338914
3692.42, 0.338849
3695.05, 0.338849
3697.69, 0.338914
3700.32, 0.338914
3702.97, 0.338978
3705.61, 0.338978
3708.27, 0.339042
3710.92, 0.339042
3713.58, 0.339106
3716.24, 0.338978
3718.91, 0.338914
3721.58, 0.338978
3724.25, 0.339042
3726.93, 0.339042
3729.61, 0.338978
3732.29, 0.338914
3734.98, 0.338849
3737.67, 0.338785
3740.37, 0.338785
3743.07, 0.338849
3745.78, 0.338849
3748.49, 0.338721
3751.2, 0.338721
3753.91, 0.338785
3756.63, 0.338721
3759.36, 0.338593
3762.09, 0.338721
3764.82, 0.338721
3767.55, 0.338721
3770.29, 0.338593
3773.04, 0.338465
3775.78, 0.338336
3778.54, 0.338208
3781.29, 0.338272
3784.05, 0.338465
3786.82, 0.338336
3789.59, 0.338144
3792.36, 0.337952
3795.13, 0.338016
3797.92, 0.337888
3800.7, 0.337695
3803.49, 0.337567
3806.28, 0.337439
3809.08, 0.337182
3811.88, 0.337118
3814.68, 0.337054
3817.49, 0.336926
3820.31, 0.336733
3823.12, 0.336797
3825.94, 0.336733
3828.77, 0.336541
3831.6, 0.336413
3834.43, 0.336349
3837.27, 0.336284
3840.11, 0.336092
3842.96, 0.335835
3845.81, 0.335771
3848.67, 0.335771
3851.53, 0.335643
3854.39, 0.335387
3857.26, 0.335194
3860.13, 0.334938
3863.01, 0.334809
3865.89, 0.334745
3868.77, 0.334681
3871.66, 0.334489
3874.55, 0.334361
3877.45, 0.334168
3880.35, 0.333976
3883.26, 0.333719
3886.17, 0.333591
3889.09, 0.333463
3892.01, 0.333335
3894.93, 0.333206
3897.86, 0.333014
3900.79, 0.332757
3903.73, 0.332565
3906.67, 0.332437
3909.62, 0.332309
3912.57, 0.332180
3915.52, 0.332052
3918.48, 0.331731
3921.45, 0.331667
3924.42, 0.331475
3927.39, 0.331411
3930.37, 0.331154
3933.35, 0.331090
3936.34, 0.330834
3939.33, 0.330577
3942.32, 0.330321
3945.32, 0.330192
3948.33, 0.330064
3951.34, 0.329936
3954.35, 0.329808
3957.37, 0.329551
3960.39, 0.329423
3963.42, 0.329230
3966.45, 0.329038
3969.49, 0.328910
3972.53, 0.328846
3975.58, 0.328781
3978.63, 0.328589
3981.68, 0.328397
3984.75, 0.328140
3987.81, 0.328012
3990.88, 0.327948
3993.95, 0.327820
3997.03, 0.327563
4000.12, 0.327307
4003.21, 0.327114
4006.3, 0.326986
4009.4, 0.326858
4012.5, 0.326729
4015.61, 0.326409
4018.72, 0.326216
4021.84, 0.326152
4024.96, 0.325960
4028.09, 0.325703
4031.22, 0.325575
4034.36, 0.325319
4037.5, 0.325190
4040.65, 0.324934
4043.8, 0.324870
4046.96, 0.324677
4050.12, 0.324613
4053.29, 0.324421
4056.46, 0.324228
4059.64, 0.323908
4062.82, 0.323715
4066.0, 0.323459
4069.19, 0.323267
4072.39, 0.322946
4075.59, 0.322818
4078.8, 0.322625
4082.01, 0.322305
4085.23, 0.321984
4088.45, 0.321663
4091.68, 0.321471
4094.91, 0.321214
4098.15, 0.320958
4101.39, 0.320830
4104.63, 0.320509
4107.89, 0.320253
4111.14, 0.319996
4114.41, 0.319675
4117.67, 0.319355
4120.95, 0.319226
4124.23, 0.318906
4127.51, 0.318649
4130.8, 0.318329
4134.09, 0.318008
4137.39, 0.317752
4140.7, 0.317559
4144.01, 0.317239
4147.32, 0.317046
4150.64, 0.316790
4153.97, 0.316533
4157.3, 0.316213
4160.64, 0.315828
4163.98, 0.315571
4167.33, 0.315379
4170.68, 0.315058
4174.04, 0.314866
4177.4, 0.314545
4180.77, 0.314353
4184.14, 0.314096
4187.52, 0.313840
4190.91, 0.313455
4194.3, 0.313327
4197.69, 0.313134
4201.1, 0.313006
4204.5, 0.312814
4207.92, 0.312878
4211.34, 0.313070
4214.76, 0.313327
4218.19, 0.313519
4221.62, 0.313840
4225.06, 0.313968
4228.51, 0.314032
4231.96, 0.313904
4235.42, 0.313647
4238.88, 0.313134
4242.35, 0.312493
4245.83, 0.311724
4249.31, 0.310762
4252.79, 0.309671
4256.28, 0.309030
4259.78, 0.309094
4263.29, 0.309351
4266.79, 0.309351
4270.31, 0.309287
4273.83, 0.309158
4277.35, 0.309094
4280.89, 0.308838
4284.42, 0.308389
4287.97, 0.307940
4291.52, 0.307555
4295.07, 0.307106
4298.63, 0.306593
4302.2, 0.306144
4305.78, 0.305631
4309.35, 0.305054
4312.94, 0.304734
4316.53, 0.304413
4320.13, 0.304092
4323.73, 0.303644
4327.34, 0.303387
4330.96, 0.303066
4334.58, 0.302682
4338.21, 0.302361
4341.84, 0.302169
4345.48, 0.301848
4349.12, 0.301656
4352.77, 0.301399
4356.43, 0.301271
4360.1, 0.301014
4363.76, 0.300822
4367.44, 0.300630
4371.12, 0.300501
4374.81, 0.300052
4378.51, 0.299860
4382.21, 0.299732
4385.92, 0.299668
4389.63, 0.299347
4393.35, 0.298962
4397.08, 0.298642
4400.81, 0.298513
4404.55, 0.298321
4408.29, 0.298129
4412.04, 0.297872
4415.8, 0.297616
4419.57, 0.297359
4423.34, 0.297103
4427.12, 0.296910
4430.9, 0.296718
4434.69, 0.296269
4438.49, 0.295948
4442.29, 0.295692
4446.1, 0.295435
4449.92, 0.295115
4453.74, 0.294858
4457.57, 0.294537
4461.41, 0.294217
4465.25, 0.293704
4469.1, 0.293447
4472.95, 0.293062
4476.82, 0.292678
4480.69, 0.292293
4484.56, 0.291844
4488.44, 0.291267
4492.33, 0.290754
4496.23, 0.290177
4500.13, 0.289535
4504.04, 0.288702
4507.96, 0.287868
4511.88, 0.286970
4515.81, 0.285944
4519.75, 0.284790
4523.69, 0.283507
4527.65, 0.281968
4531.6, 0.280365
4535.57, 0.278698
4539.54, 0.276967
4543.52, 0.275171
4547.5, 0.273311
4551.5, 0.271452
4555.5, 0.269720
4559.5, 0.267925
4563.52, 0.266065
4567.54, 0.264141
4571.56, 0.262217
4575.6, 0.260165
4579.64, 0.258113
4583.69, 0.255997
4587.75, 0.253752
4591.81, 0.251316
4595.88, 0.249007
4599.96, 0.246570
4604.04, 0.244005
4608.14, 0.241376
4612.24, 0.238811
4616.34, 0.236310
4620.46, 0.233937
4624.58, 0.231500
4628.71, 0.229127
4632.84, 0.226947
4636.99, 0.225023
4641.14, 0.222971
4645.3, 0.221047
4649.47, 0.219124
4653.64, 0.217520
4657.82, 0.215917
4662.01, 0.214442
4666.21, 0.213224
4670.41, 0.212198
4674.62, 0.211236
4678.84, 0.210466
4683.07, 0.209569
4687.3, 0.208607
4691.54, 0.207645
4695.79, 0.206747
4700.05, 0.205721
4704.31, 0.204759
4708.59, 0.203605
4712.87, 0.202579
4717.15, 0.201360
4721.45, 0.200142
4725.76, 0.198923
4730.07, 0.197513
4734.39, 0.195974
4738.72, 0.194499
4743.05, 0.192831
4747.39, 0.191164
4751.75, 0.189368
4756.1, 0.187573
4760.47, 0.185841
4764.85, 0.184046
4769.23, 0.182250
4773.62, 0.180519
4778.02, 0.178787
4782.43, 0.176928
4786.85, 0.175068
4791.27, 0.173208
4795.7, 0.171284
4800.14, 0.169617
4804.59, 0.168142
4809.05, 0.166860
4813.51, 0.165449
4817.99, 0.164166
4822.47, 0.163204
4826.96, 0.162499
4831.46, 0.161601
4835.96, 0.160896
4840.48, 0.160447
4845.0, 0.160126
4849.54, 0.159742
4854.08, 0.159421
4858.63, 0.159164
4863.18, 0.159036
4867.75, 0.158780
4872.33, 0.158587
4876.91, 0.158267
4881.5, 0.158074
4886.1, 0.157818
4890.71, 0.157561
4895.33, 0.157241
4899.96, 0.156984
4904.59, 0.156535
4909.24, 0.156086
4913.89, 0.155766
4918.55, 0.155445
4923.22, 0.155060
4927.9, 0.154611
4932.59, 0.154227
4937.29, 0.153906
4942.0, 0.153585
4946.71, 0.153265
4951.44, 0.153008
4956.17, 0.152816
4960.91, 0.152623
4965.67, 0.152367
4970.43, 0.151982
4975.2, 0.151726
4979.98, 0.151213
4984.76, 0.150635
4989.56, 0.150122
4994.37, 0.149545
4999.18, 0.148840
5004.01, 0.148070
5008.84, 0.147108
5013.69, 0.146211
5018.54, 0.145441
5023.4, 0.144479
5028.28, 0.143261
5033.16, 0.142106
5038.05, 0.140824
5042.95, 0.139605
5047.86, 0.138195
5052.78, 0.136720
5057.71, 0.135437
5062.65, 0.134283
5067.6, 0.133000
5072.56, 0.131846
5077.53, 0.130692
5082.5, 0.129602
5087.49, 0.128383
5092.49, 0.127229
5097.5, 0.126075
5102.51, 0.124856
5107.54, 0.123766
5112.58, 0.122804
5117.62, 0.121778
5122.68, 0.120752
5127.75, 0.119854
5132.82, 0.119085
5137.91, 0.118572
5143.01, 0.118379
5148.12, 0.118379
5153.23, 0.118636
5158.36, 0.119277
5163.5, 0.120239
5168.65, 0.121265
5173.81, 0.122676
5178.98, 0.124087
5184.15, 0.125562
5189.34, 0.127036
5194.54, 0.128576
5199.75, 0.130115
5204.98, 0.131461
5210.21, 0.132744
5215.45, 0.133898
5220.7, 0.134860
5225.96, 0.135950
5231.23, 0.136848
5236.52, 0.137489
5241.81, 0.138131
5247.12, 0.138708
5252.44, 0.139157
5257.76, 0.139798
5263.1, 0.140311
5268.45, 0.141080
5273.81, 0.141850
5279.18, 0.142812
5284.56, 0.143838
5289.95, 0.144864
5295.36, 0.145569
5300.77, 0.146339
5306.2, 0.147044
5311.63, 0.147686
5317.08, 0.148199
5322.54, 0.148712
5328.01, 0.148968
5333.49, 0.149225
5338.98, 0.149289
5344.49, 0.149481
5350.0, 0.149353
5355.53, 0.148840
5361.07, 0.148199
5366.62, 0.147493
5372.18, 0.146659
5377.75, 0.145762
5383.34, 0.144736
5388.93, 0.143517
5394.54, 0.142106
5400.16, 0.140503
5405.79, 0.138964
5411.44, 0.137618
5417.09, 0.136527
5422.76, 0.135309
5428.43, 0.133834
5434.12, 0.132808
5439.83, 0.132103
5445.54, 0.131654
5451.26, 0.131205
5457.0, 0.131077
5462.75, 0.131269
5468.52, 0.131461
5474.29, 0.131782
5480.08, 0.132231
5485.88, 0.132423
5491.69, 0.133000
5497.51, 0.133513
5503.35, 0.134026
5509.2, 0.134475
5515.06, 0.134924
5520.93, 0.135181
5526.82, 0.135117
5532.71, 0.134732
5538.63, 0.133962
5544.55, 0.132808
5550.49, 0.131461
5556.44, 0.129666
5562.4, 0.127614
5568.37, 0.125626
5574.36, 0.124023
5580.36, 0.122291
5586.37, 0.120495
5592.4, 0.119085
5598.44, 0.118059
5604.49, 0.117097
5610.56, 0.116263
5616.63, 0.115622
5622.73, 0.114916
5628.83, 0.114468
5634.95, 0.114403
5641.08, 0.114403
5647.23, 0.113826
5653.39, 0.113377
5659.56, 0.113057
5665.74, 0.112864
5671.94, 0.113185
5678.15, 0.113249
5684.38, 0.113057
5690.62, 0.113121
5696.87, 0.113121
5703.14, 0.113121
5709.42, 0.113377
5715.72, 0.113185
5722.03, 0.112993
5728.35, 0.112736
5734.69, 0.112544
5741.03, 0.112415
5747.4, 0.112351
5753.78, 0.112031
5760.17, 0.112415
5766.58, 0.112864
5773.0, 0.112351
5779.44, 0.111838
5785.88, 0.111646
5792.35, 0.111454
5798.83, 0.111389
5805.32, 0.111325
5811.83, 0.111325
5818.35, 0.111710
5824.89, 0.111710
5831.45, 0.111261
5838.01, 0.111005
5844.59, 0.110941
5851.19, 0.111197
5857.8, 0.111646
5864.43, 0.111838
5871.07, 0.112031
5877.73, 0.113057
5884.4, 0.112928
5891.09, 0.112351
5897.79, 0.111838
5904.5, 0.110556
5911.23, 0.109401
5917.98, 0.108247
5924.75, 0.106965
5931.53, 0.106003
5938.32, 0.104143
5945.13, 0.101386
5951.96, 0.0989490
5958.8, 0.0967040
5965.65, 0.0947800
5972.53, 0.0924080
5979.42, 0.0901630
5986.32, 0.0884960
5993.24, 0.0867000
6000.18, 0.0852250
6007.13, 0.0843920
6014.1, 0.0838790
6021.08, 0.0833660
6028.09, 0.0831730
6035.1, 0.0834300
6042.14, 0.0845200
6049.19, 0.0857380
6056.25, 0.0856100
6063.34, 0.0858030
6070.44, 0.0867640
6077.55, 0.0872770
6084.69, 0.0874060
6091.84, 0.0877900
6099.0, 0.0882390
6106.19, 0.0887520
6113.39, 0.0892010
6120.61, 0.0888170
6127.84, 0.0883680
6135.09, 0.0879190
6142.36, 0.0874700
6149.65, 0.0867640
6156.95, 0.0861870
6164.27, 0.0854180
6171.61, 0.0845200
6178.97, 0.0840710
6186.34, 0.0834940
6193.73, 0.0824680
6201.14, 0.0818910
6208.57, 0.0816340
6216.01, 0.0815700
6223.47, 0.0815060
6230.95, 0.0814420
6238.45, 0.0813780
6245.97, 0.0813140
6253.5, 0.0811850
6261.06, 0.0811850
6268.63, 0.0811210
6276.21, 0.0810570
6283.82, 0.0809290
6291.45, 0.0807360
6299.1, 0.0805440
6306.76, 0.0805440
6314.44, 0.0807360
6322.14, 0.0811210
6329.86, 0.0816980
6337.6, 0.0827240
6345.35, 0.0837500
6353.13, 0.0843920
6360.92, 0.0854820
6368.74, 0.0867640
6376.57, 0.0877900
6384.43, 0.0889450
6392.3, 0.0900350
6400.19, 0.0911890
6408.1, 0.0930490
6416.03, 0.0943960
6423.98, 0.0944600
6431.95, 0.0947800
6439.94, 0.0951010
6447.95, 0.0956140
6455.98, 0.0959990
6464.03, 0.0964480
6472.1, 0.0970250
6480.19, 0.0976660
6488.31, 0.0985000
6496.44, 0.0986280
6504.59, 0.0979870
6512.76, 0.0978590
6520.95, 0.0978590
6529.16, 0.0974740
6537.4, 0.0970250
6545.65, 0.0967040
6553.92, 0.0962550
6562.22, 0.0955500
6570.54, 0.0950370
6578.88, 0.0938830
6587.23, 0.0927920
6595.61, 0.0917660
6604.02, 0.0908690
6612.44, 0.0901630
6620.89, 0.0896500
6629.35, 0.0896500
6637.84, 0.0896500
6646.35, 0.0888810
6654.88, 0.0885600
6663.44, 0.0888170
6672.01, 0.0893940
6680.61, 0.0898430
6689.23, 0.0899070
6697.88, 0.0901630
6706.54, 0.0907400
6715.23, 0.0909330
6723.94, 0.0908690
6732.67, 0.0906120
6741.42, 0.0905480
6750.2, 0.0904840
6759.0, 0.0901630
6767.82, 0.0899070
6776.67, 0.0898430
6785.54, 0.0898430
6794.44, 0.0894580
6803.35, 0.0887520
6812.29, 0.0884320
6821.26, 0.0884960
6830.24, 0.0882390
6839.25, 0.0876620
6848.29, 0.0874060
6857.35, 0.0875980
6866.43, 0.0872770
6875.54, 0.0862510
6884.67, 0.0856100
6893.82, 0.0850970
6903.0, 0.0846480
6912.2, 0.0841350
6921.43, 0.0835580
6930.69, 0.0829170
6939.96, 0.0822760
6949.27, 0.0818270
6958.59, 0.0815060
6967.95, 0.0806720
6977.33, 0.0799670
6986.73, 0.0795820
6996.16, 0.0790050
7005.61, 0.0783640
7015.09, 0.0779150
7024.6, 0.0775300
7034.13, 0.0772740
7043.69, 0.0772740
7053.27, 0.0768250
7062.88, 0.0763760
7072.52, 0.0761190
7082.18, 0.0759910
7091.87, 0.0757990
7101.58, 0.0755420
7111.32, 0.0752220
7121.09, 0.0748370
7130.88, 0.0743880
7140.71, 0.0739390
7150.56, 0.0732340
7160.43, 0.0725280
7170.33, 0.0717590
7180.27, 0.0707970
7190.23, 0.0698350
7200.21, 0.0691290
7210.23, 0.0683600
7220.27, 0.0675900
7230.34, 0.0668210
7240.44, 0.0660510
7250.56, 0.0653460
7260.72, 0.0648330
7270.9, 0.0641920
7281.12, 0.0634860
7291.36, 0.0625880
7301.63, 0.0617550
7311.93, 0.0607930
7322.25, 0.0599590
7332.61, 0.0591900
7343.0, 0.0582920
7353.41, 0.0573940
7363.86, 0.0566250
7374.33, 0.0559830
7384.83, 0.0554060
7395.37, 0.0547650
7405.93, 0.0542520
7416.53, 0.0536750
7427.15, 0.0530980
7437.81, 0.0523920
7448.5, 0.0516870
7459.22, 0.0509810
7469.96, 0.0503400
7480.74, 0.0496350
7491.55, 0.0489290
7502.39, 0.0481600
7513.27, 0.0473900
7524.17, 0.0466850
7535.11, 0.0460440
7546.08, 0.0454020
7557.08, 0.0447610
7568.11, 0.0441840
7579.17, 0.0436070
7590.27, 0.0429650
7601.4, 0.0423880
7612.56, 0.0417470
7623.76, 0.0411700
7634.98, 0.0406570
7646.24, 0.0399510
7657.54, 0.0393100
7668.87, 0.0387970
7680.23, 0.0382840
7691.62, 0.0377070
7703.05, 0.0370020
7714.51, 0.0364240
7726.01, 0.0358470
7737.54, 0.0352060
7749.11, 0.0345010
7760.71, 0.0339230
7772.35, 0.0333460
7784.02, 0.0327690
7795.72, 0.0320640
7807.46, 0.0314870
7819.23, 0.0308450
7831.04, 0.0301400
7842.89, 0.0293700
7854.77, 0.0286650
7866.69, 0.0280240
7878.65, 0.0271900
7890.64, 0.0263560
7902.67, 0.0257150
7914.74, 0.0250740
7926.84, 0.0244970
7938.98, 0.0237910
7951.16, 0.0231500
7963.37, 0.0224450
7975.62, 0.0216110
7987.91, 0.0208410
8000.24, 0.0202000
8012.6, 0.0195590
8025.01, 0.0188530
8037.45, 0.0182760
8049.93, 0.0177630
8062.45, 0.0169940
8075.01, 0.0163530
8087.61, 0.0157110
8100.24, 0.0150700
8112.91, 0.0144290
8125.63, 0.0140440
8138.39, 0.0135310
8151.18, 0.0127610
8164.02, 0.0121200
8176.9, 0.0114790
8189.81, 0.0110300
8202.77, 0.0107730
8215.77, 0.0103250
8228.82, 0.00987600
8241.9, 0.00942700
8255.02, 0.00904200
8268.19, 0.00852900
8281.39, 0.00808000
8294.65, 0.00769500
8307.94, 0.00750300
8321.28, 0.00731100
8334.66, 0.00718200
8348.08, 0.00699000
8361.54, 0.00679800
8375.05, 0.00660500
8388.6, 0.00660500
8402.2, 0.00666900
8415.84, 0.00679800
8429.52, 0.00699000
8443.25, 0.00743900
8457.02, 0.00814400
8470.84, 0.00929800
8484.7, 0.0107090
8498.61, 0.0124410
8512.57, 0.0148780
8526.57, 0.0180840
8540.62, 0.0221240
8554.71, 0.0271260
8568.85, 0.0330900
8583.04, 0.0403360
8597.27, 0.0488010
8611.55, 0.0588050
8625.88, 0.0702200
8640.26, 0.0831090
8654.68, 0.0976020
8669.16, 0.113057
8683.68, 0.129217
8698.25, 0.144159
8712.87, 0.154162
8727.53, 0.157433
8742.25, 0.159293
8757.02, 0.167180
8771.83, 0.181865
8786.7, 0.198346
8801.62, 0.212518
8816.59, 0.221625
8831.61, 0.225344
8846.68, 0.225152
8861.8, 0.223035
8876.97, 0.221817
8892.2, 0.223741
8907.48, 0.229576
8922.81, 0.237528
8938.2, 0.245865
8953.63, 0.253368
8969.13, 0.259203
8984.67, 0.263692
9000.27, 0.267283
9015.92, 0.269977
9031.63, 0.271580
9047.39, 0.273055
9063.21, 0.274466
9079.08, 0.275748
9095.01, 0.276902
9111.0, 0.278057
9127.04, 0.278954
9143.13, 0.279852
9159.28, 0.280942
9175.49, 0.282097
9191.76, 0.283123
9208.09, 0.284534
9224.47, 0.286137
9240.92, 0.287804
9257.42, 0.289600
9273.98, 0.291780
9290.6, 0.294153
9307.28, 0.296654
9324.02, 0.298898
9340.82, 0.300950
9357.68, 0.302425
9374.6, 0.303387
9391.58, 0.303515
9408.62, 0.302938
9425.73, 0.301912
9442.9, 0.300565
9460.13, 0.298513
9477.42, 0.295948
9494.78, 0.292549
9512.2, 0.287676
9529.69, 0.280558
9547.24, 0.270939
9564.86, 0.258177
9582.54, 0.242274
9600.28, 0.223741
9618.1, 0.203412
9635.97, 0.182379
9653.92, 0.162242
9671.93, 0.144607
9690.01, 0.131461
9708.16, 0.123317
9726.37, 0.120303
9744.65, 0.122612
9763.0, 0.130435
9781.43, 0.142876
9799.92, 0.158972
9818.48, 0.177184
9837.1, 0.195525
9855.8, 0.211428
9874.58, 0.222843
9893.42, 0.228679
9912.34, 0.228165
9931.33, 0.221753
9950.39, 0.211941
9969.52, 0.202194
9988.74, 0.195460
10008.0, 0.194563
10027.4, 0.200527
10046.8, 0.211877
10066.3, 0.225793
10085.9, 0.240735
10105.6, 0.257344
10125.3, 0.277223
10145.1, 0.300437
10165.0, 0.322753
10185.0, 0.339106
10205.0, 0.346481
10225.2, 0.344621
10245.4, 0.333848
10265.7, 0.317110
10286.0, 0.300437
10306.5, 0.290818
10327.0, 0.291652
10347.6, 0.300501
10368.3, 0.310826
10389.1, 0.318265
10409.9, 0.322176
10430.9, 0.323523
10451.9, 0.322433
10473.0, 0.318970
10494.2, 0.313327
10515.5, 0.305503
10536.9, 0.296205
10558.4, 0.286714
10579.9, 0.277736
10601.5, 0.270169
10623.3, 0.264269
10645.1, 0.260422
10667.0, 0.258947
10689.0, 0.260614
10711.1, 0.264911
10733.2, 0.270041
10755.5, 0.273760
10777.9, 0.274466
10800.3, 0.270554
10822.9, 0.261961
10845.5, 0.249520
10868.2, 0.234642
10891.1, 0.218033
10914.0, 0.201553
10937.0, 0.186739
10960.2, 0.175196
10983.4, 0.168335
11006.7, 0.166347
11030.1, 0.167693
11053.6, 0.169617
11077.3, 0.169745
11101.0, 0.167565
11124.8, 0.163589
11148.7, 0.159357
11172.7, 0.156150
11196.9, 0.155381
11221.1, 0.158908
11245.4, 0.168976
11269.9, 0.185713
11294.4, 0.206490
11319.1, 0.227075
11343.9, 0.244197
11368.8, 0.256830
11393.7, 0.265167
11418.8, 0.269464
11444.0, 0.270682
11469.4, 0.269592
11494.8, 0.266770
11520.3, 0.262281
11546.0, 0.256959
11571.8, 0.251636
11597.7, 0.245929
11623.7, 0.239580
11649.8, 0.233360
11676.0, 0.226691
11702.4, 0.218803
11728.9, 0.209889
11755.5, 0.200142
11782.2, 0.190138
11809.0, 0.180968
11836.0, 0.173080
11863.0, 0.166411
11890.3, 0.160768
11917.6, 0.155509
11945.0, 0.150443
11972.6, 0.145762
12000.4, 0.141209
12028.2, 0.137297
12056.2, 0.133642
12084.3, 0.130371
12112.5, 0.127357
12140.9, 0.124471
12169.4, 0.121842
12198.0, 0.119021
12226.8, 0.116391
12255.7, 0.113954
12284.7, 0.111646
12313.9, 0.109466
12343.2, 0.107285
12372.7, 0.105361
12402.3, 0.103502
12432.0, 0.101642
12461.9, 0.0997180
12491.9, 0.0977940
12522.1, 0.0959990
12552.4, 0.0942030
12582.9, 0.0924720
12613.5, 0.0906760
12644.3, 0.0889450
12675.2, 0.0872130
12706.3, 0.0856740
12737.5, 0.0843280
12768.9, 0.0829170
12800.4, 0.0812490
12832.1, 0.0795820
12863.9, 0.0778510
12895.9, 0.0761190
12928.1, 0.0743240
12960.4, 0.0723360
12992.9, 0.0704760
13025.5, 0.0685520
13058.3, 0.0668850
13091.3, 0.0656670
13124.4, 0.0647690
13157.8, 0.0640630
13191.2, 0.0627810
13224.9, 0.0610490
13258.7, 0.0591900
13292.7, 0.0575860
13326.9, 0.0558550
13361.2, 0.0544440
13395.7, 0.0540590
13430.4, 0.0544440
13465.3, 0.0545080
13500.4, 0.0533540
13535.7, 0.0514300
13571.1, 0.0493140
13606.7, 0.0477110
13642.5, 0.0471980
13678.5, 0.0485440
13714.7, 0.0521360
13751.1, 0.0564320
13787.6, 0.0586770
13824.4, 0.0584200
13861.4, 0.0564960
13898.5, 0.0537390
13935.9, 0.0513020
13973.5, 0.0491220
14011.2, 0.0470050
14049.2, 0.0452100
14087.4, 0.0437350
14125.8, 0.0427730
14164.3, 0.0431580
14203.2, 0.0444400
14242.2, 0.0470700
14281.4, 0.0529050
14320.9, 0.0618190
14360.5, 0.0715020
14400.4, 0.0792620
14440.5, 0.0823400
14480.9, 0.0800310
14521.4, 0.0741310
14562.2, 0.0669490
14603.3, 0.0602800
14644.5, 0.0543800
14686.0, 0.0498270
14727.7, 0.0463000
14769.7, 0.0434140
14811.9, 0.0407210
14854.3, 0.0380280
14897.0, 0.0352060
14939.9, 0.0321920
14983.1, 0.0294350
15026.5, 0.0270620
15070.2, 0.0259070
15114.2, 0.0263560
15158.3, 0.0293060
15202.8, 0.0346290
15247.5, 0.0420680
15292.5, 0.0499550
15337.7, 0.0562400
15383.2, 0.0609850
15429.0, 0.0638710
15475.1, 0.0644480
15521.4, 0.0632940
15568.0, 0.0604080
15614.9, 0.0567530
15662.1, 0.0533540
15709.6, 0.0510450
15757.3, 0.0501480
15805.4, 0.0497630
15853.7, 0.0495710
15902.3, 0.0495060
15951.2, 0.0498270
16000.5, 0.0522000
16050.0, 0.0567530
16099.8, 0.0651540
16150.0, 0.0779790
16200.5, 0.0947160
16251.3, 0.114724
16302.4, 0.136848
16353.8, 0.159549
16405.5, 0.180647
16457.6, 0.198795
16510.0, 0.213673
16562.8, 0.225729
16615.9, 0.235476
16669.3, 0.243235
16723.1, 0.249199
16777.2, 0.253945
16831.7, 0.257985
16886.5, 0.261191
16941.7, 0.264013
16997.2, 0.267412
17053.1, 0.271067
17109.4, 0.275620
17166.1, 0.281455
17223.1, 0.287676
17280.5, 0.293062
17338.3, 0.297551
17396.5, 0.299090
17455.1, 0.296974
17514.0, 0.292549
17573.4, 0.288509
17633.2, 0.285624
17693.4, 0.284918
17754.0, 0.289728
17815.0, 0.300309
17876.4, 0.311082
17938.3, 0.320317
18000.5, 0.329359
18063.3, 0.339747
18126.4, 0.350521
18190.0, 0.358408
18254.1, 0.358921
18318.6, 0.351996
18383.5, 0.340132
18449.0, 0.328525
18514.9, 0.320253
18581.2, 0.316726
18648.0, 0.314481
18715.4, 0.306144
18783.2, 0.292485
18851.5, 0.285688
18920.3, 0.294345
18989.6, 0.315635
19059.4, 0.341222
19129.7, 0.366809
19200.6, 0.387522
19272.0, 0.400027
19343.9, 0.404901
19416.3, 0.403746
19489.3, 0.399450
19562.8, 0.394961
19637.0, 0.388420
19711.6, 0.379827
19786.8, 0.370464
19862.6, 0.361102
19939.0, 0.348469
20016.0, 0.334168
20093.6, 0.319932
20171.8, 0.303579
20250.6, 0.283892
20330.0, 0.266450
20410.0, 0.251444
20490.7, 0.236566
20572.0, 0.222651
20654.0, 0.210466
20736.6, 0.198090
20819.9, 0.186098
20903.8, 0.174042
20988.5, 0.163076
21073.8, 0.156022
21159.8, 0.157176
21246.5, 0.166924
21334.0, 0.180070
21422.1, 0.195909
21511.0, 0.217392
21600.7, 0.242915
21691.0, 0.267091
21782.1, 0.286329
21874.0, 0.298898
21966.7, 0.303515
22060.2, 0.303708
22154.5, 0.301784
22249.6, 0.297808
22345.5, 0.289087
22442.2, 0.275427
22539.8, 0.255740
22638.2, 0.233745
22737.5, 0.215917
22837.7, 0.204951
22938.7, 0.199436
23040.7, 0.200462
23143.5, 0.198988
23247.3, 0.188535
23352.1, 0.176158
23457.7, 0.168655
23564.4, 0.164808
23672.0, 0.163012
23780.5, 0.162050
23890.1, 0.159036
24000.7, 0.156920
24112.3, 0.157818
24225.0, 0.161858
24338.7, 0.173593
24453.5, 0.191549
24569.4, 0.208881
24686.4, 0.220132
24804.5, 0.228460
24923.8, 0.234255
25044.2, 0.235667
25165.8, 0.233135
25288.6, 0.225489
25412.5, 0.218671
25537.7, 0.213313
25664.1, 0.204742
25791.8, 0.195683
25920.8, 0.188622
26051.1, 0.185651
26182.6, 0.181657
26315.5, 0.177372
26449.8, 0.181755
26585.4, 0.190911
26722.5, 0.197144
26860.9, 0.198605
27000.8, 0.193930
27142.1, 0.186040
27285.0, 0.181268
27429.4, 0.183167
27575.3, 0.194904
27722.7, 0.213995
27871.8, 0.236836
28022.4, 0.255148
28174.7, 0.270392
28328.7, 0.284710
28484.4, 0.295522
28641.7, 0.300343
28800.9, 0.300976
28961.8, 0.298152
29124.5, 0.293038
29289.0, 0.284418
29455.4, 0.279791
29623.8, 0.283541
29794.0, 0.289921
29966.3, 0.294840
30140.5, 0.294548
30316.7, 0.286707
30495.1, 0.280035
30675.5, 0.269174
30858.1, 0.259239
31042.8, 0.248914
31229.8, 0.239417
31419.1, 0.232989
31610.7, 0.227388
31804.6, 0.223005
32000.9, 0.220911
32199.7, 0.218378
32400.9, 0.212680
32604.8, 0.208881
32811.1, 0.209076
33020.1, 0.206495
33231.8, 0.199823
33446.2, 0.196706
33663.4, 0.193784
33883.4, 0.192810
34106.3, 0.195927
34332.1, 0.198118
34561.0, 0.200505
34792.9, 0.201674
35028.0, 0.196852
35266.3, 0.188281
35507.8, 0.179660
35752.7, 0.175326
36001.0, 0.181998
36252.8, 0.199482
36508.1, 0.219742
36767.0, 0.236982
37029.7, 0.248379
37296.1, 0.254174
37566.3, 0.250862
37840.5, 0.241609
38118.8, 0.235473
38401.2, 0.227486
38687.8, 0.220375
38978.6, 0.218671
39273.9, 0.216187
39573.7, 0.202355
39878.1, 0.190083
40187.3, 0.182583
40501.2, 0.172842
40820.0, 0.162517
41144.0, 0.159449
41473.2, 0.162274
41807.6, 0.165634
42147.5, 0.169871
42493.0, 0.175959
42844.2, 0.186527
43201.2, 0.206544
43564.3, 0.236495
43933.5, 0.269515
44309.0, 0.291674
44691.0, 0.299174
45079.6, 0.296398
45475.0, 0.287096
45877.5, 0.277161
46287.1, 0.266252
46704.2, 0.259336
47128.7, 0.256901
47561.1, 0.254807
48001.5, 0.245408
48450.1, 0.229239
48907.2, 0.227680
49373.0, 0.231917
49847.7, 0.225976
50331.5, 0.224076
50825.0, 0.226950
51328.2, 0.231820
51841.5, 0.234693
52365.1, 0.232843
52899.4, 0.231430
53444.8, 0.229044
54001.5, 0.226317
54570.1, 0.228654
55150.6, 0.234109
55743.6, 0.234206
56349.5, 0.231187
56968.7, 0.231625
57601.7, 0.231187
58248.9, 0.226073
58910.9, 0.223638
59588.1, 0.223735
60281.0, 0.227826
60990.2, 0.230359
61716.3, 0.230505
62459.8, 0.227778
63221.6, 0.228947
64002.1, 0.235180
64802.1, 0.242193
65622.1, 0.245116
66463.4, 0.278427
67326.6, 0.274970
68212.4, 0.239612
69121.9, 0.235229
70056.0, 0.232063
71015.7, 0.237956
72002.0, 0.250181
73016.3, 0.247064
74059.4, 0.241025
75132.7, 0.246284
76237.6, 0.256755
77375.5, 0.268785
78547.9, 0.284369
79756.3, 0.293476
81002.5, 0.301804
82288.5, 0.310765
83615.7, 0.308671
84986.5, 0.315587
86402.9, 0.331610
87867.4, 0.349678
89382.4, 0.354840
90950.5, 0.368720
92574.6, 0.381091
94257.2, 0.403493
96002.7, 0.410604
97814.1, 0.414500
99695.1, 0.432568
101650.0, 0.438559
103683.0, 0.453267
105799.0, 0.470117
108003.0, 0.489793
110301.0, 0.500166
112699.0, 0.501238
115204.0, 0.494322
117822.0, 0.498705
120562.0, 0.521449
123433.0, 0.525978
126443.0, 0.552180
129604.0, 0.561482
132926.0, 0.569128
136424.0, 0.596109
140111.0, 0.605946
144003.0, 0.627229
148118.0, 0.676710
152474.0, 0.733350
157095.0, 0.712652
162004.0, 0.629518
167231.0, 0.660590
172805.0, 0.740071
178764.0, 0.791987
185148.0, 0.778302
192005.0, 0.777230
199390.0, 0.803188
207366.0, 0.838253
216006.0, 0.813951
