Database of Origin, USGS Spectral Database
Sample Description, See USGS database for additional info
Date Added,2016-08-10 05:01:31.490655

Data ID,USGS_kie02          
Sample ID, kieserite_kiede1.12310
Mineral Name, kieserite
Material Class,Sulfate

Wavelength
350.0, 0.736949
351.0, 0.728491
352.0, 0.725688
353.0, 0.732789
354.0, 0.735537
355.0, 0.736647
356.0, 0.737798
357.0, 0.735591
358.0, 0.733335
359.0, 0.734181
360.0, 0.737756
361.0, 0.738090
362.0, 0.737774
363.0, 0.739708
364.0, 0.742077
365.0, 0.746578
366.0, 0.749538
367.0, 0.747204
368.0, 0.747897
369.0, 0.751061
370.0, 0.753021
371.0, 0.755385
372.0, 0.756771
373.0, 0.757761
374.0, 0.760298
375.0, 0.762547
376.0, 0.763593
377.0, 0.763927
378.0, 0.765861
379.0, 0.768574
380.0, 0.770524
381.0, 0.770734
382.0, 0.772319
383.0, 0.774969
384.0, 0.776108
385.0, 0.777624
386.0, 0.779622
387.0, 0.781472
388.0, 0.783352
389.0, 0.785385
390.0, 0.787158
391.0, 0.787557
392.0, 0.788488
393.0, 0.790315
394.0, 0.792066
395.0, 0.794214
396.0, 0.795506
397.0, 0.795934
398.0, 0.797086
399.0, 0.798914
400.0, 0.800482
401.0, 0.801207
402.0, 0.802203
403.0, 0.803574
404.0, 0.804813
405.0, 0.805866
406.0, 0.806742
407.0, 0.807651
408.0, 0.808968
409.0, 0.809925
410.0, 0.810608
411.0, 0.811517
412.0, 0.812493
413.0, 0.813458
414.0, 0.814360
415.0, 0.815192
416.0, 0.815919
417.0, 0.816673
418.0, 0.817584
419.0, 0.818591
420.0, 0.819398
421.0, 0.819941
422.0, 0.820516
423.0, 0.821361
424.0, 0.822291
425.0, 0.823001
426.0, 0.823542
427.0, 0.824137
428.0, 0.824889
429.0, 0.825525
430.0, 0.826062
431.0, 0.826635
432.0, 0.827161
433.0, 0.827888
434.0, 0.828677
435.0, 0.829212
436.0, 0.829638
437.0, 0.830095
438.0, 0.830591
439.0, 0.831069
440.0, 0.831607
441.0, 0.832195
442.0, 0.832731
443.0, 0.833173
444.0, 0.833610
445.0, 0.834097
446.0, 0.834698
447.0, 0.835267
448.0, 0.835725
449.0, 0.836127
450.0, 0.836629
451.0, 0.837191
452.0, 0.837650
453.0, 0.838088
454.0, 0.838561
455.0, 0.839065
456.0, 0.839491
457.0, 0.839951
458.0, 0.840482
459.0, 0.840962
460.0, 0.841274
461.0, 0.841559
462.0, 0.841945
463.0, 0.842519
464.0, 0.843059
465.0, 0.843434
466.0, 0.843866
467.0, 0.844308
468.0, 0.844714
469.0, 0.845157
470.0, 0.845582
471.0, 0.846011
472.0, 0.846496
473.0, 0.846933
474.0, 0.847350
475.0, 0.847783
476.0, 0.848093
477.0, 0.848482
478.0, 0.848971
479.0, 0.849431
480.0, 0.849846
481.0, 0.850220
482.0, 0.850577
483.0, 0.851013
484.0, 0.851446
485.0, 0.851836
486.0, 0.852210
487.0, 0.852723
488.0, 0.853276
489.0, 0.853733
490.0, 0.854079
491.0, 0.854440
492.0, 0.854872
493.0, 0.855324
494.0, 0.855711
495.0, 0.856059
496.0, 0.856431
497.0, 0.856855
498.0, 0.857244
499.0, 0.857543
500.0, 0.857930
501.0, 0.858351
502.0, 0.858729
503.0, 0.859124
504.0, 0.859447
505.0, 0.859771
506.0, 0.860199
507.0, 0.860646
508.0, 0.861047
509.0, 0.861414
510.0, 0.861712
511.0, 0.862078
512.0, 0.862475
513.0, 0.862733
514.0, 0.862972
515.0, 0.863261
516.0, 0.863566
517.0, 0.863950
518.0, 0.864322
519.0, 0.864629
520.0, 0.864900
521.0, 0.865181
522.0, 0.865479
523.0, 0.865760
524.0, 0.866078
525.0, 0.866416
526.0, 0.866741
527.0, 0.867055
528.0, 0.867350
529.0, 0.867645
530.0, 0.867935
531.0, 0.868313
532.0, 0.868717
533.0, 0.869059
534.0, 0.869428
535.0, 0.869772
536.0, 0.870075
537.0, 0.870449
538.0, 0.870812
539.0, 0.871158
540.0, 0.871556
541.0, 0.871982
542.0, 0.872385
543.0, 0.872757
544.0, 0.873142
545.0, 0.873564
546.0, 0.874010
547.0, 0.874473
548.0, 0.874966
549.0, 0.875463
550.0, 0.875932
551.0, 0.876454
552.0, 0.876993
553.0, 0.877505
554.0, 0.878008
555.0, 0.878524
556.0, 0.879057
557.0, 0.879598
558.0, 0.880154
559.0, 0.880724
560.0, 0.881302
561.0, 0.881928
562.0, 0.882577
563.0, 0.883206
564.0, 0.883777
565.0, 0.884361
566.0, 0.884961
567.0, 0.885533
568.0, 0.886099
569.0, 0.886681
570.0, 0.887282
571.0, 0.887905
572.0, 0.888532
573.0, 0.889149
574.0, 0.889757
575.0, 0.890344
576.0, 0.890920
577.0, 0.891499
578.0, 0.892069
579.0, 0.892632
580.0, 0.893186
581.0, 0.893727
582.0, 0.894215
583.0, 0.894670
584.0, 0.895118
585.0, 0.895583
586.0, 0.896029
587.0, 0.896437
588.0, 0.896842
589.0, 0.897209
590.0, 0.897545
591.0, 0.897865
592.0, 0.898262
593.0, 0.898684
594.0, 0.899052
595.0, 0.899415
596.0, 0.899700
597.0, 0.899904
598.0, 0.900068
599.0, 0.900322
600.0, 0.900674
601.0, 0.901087
602.0, 0.901396
603.0, 0.901645
604.0, 0.901938
605.0, 0.902243
606.0, 0.902615
607.0, 0.903018
608.0, 0.903358
609.0, 0.903676
610.0, 0.903973
611.0, 0.904222
612.0, 0.904452
613.0, 0.904672
614.0, 0.904873
615.0, 0.904996
616.0, 0.905125
617.0, 0.905307
618.0, 0.905524
619.0, 0.905714
620.0, 0.905894
621.0, 0.906106
622.0, 0.906316
623.0, 0.906534
624.0, 0.906770
625.0, 0.907036
626.0, 0.907303
627.0, 0.907525
628.0, 0.907681
629.0, 0.907893
630.0, 0.908145
631.0, 0.908368
632.0, 0.908530
633.0, 0.908683
634.0, 0.908876
635.0, 0.909127
636.0, 0.909344
637.0, 0.909522
638.0, 0.909705
639.0, 0.909862
640.0, 0.910007
641.0, 0.910159
642.0, 0.910309
643.0, 0.910509
644.0, 0.910736
645.0, 0.910951
646.0, 0.911117
647.0, 0.911279
648.0, 0.911473
649.0, 0.911689
650.0, 0.911906
651.0, 0.912117
652.0, 0.912345
653.0, 0.912551
654.0, 0.912734
655.0, 0.912919
656.0, 0.913085
657.0, 0.913258
658.0, 0.913453
659.0, 0.913646
660.0, 0.913880
661.0, 0.914105
662.0, 0.914236
663.0, 0.914415
664.0, 0.914645
665.0, 0.914862
666.0, 0.915034
667.0, 0.915207
668.0, 0.915397
669.0, 0.915566
670.0, 0.915717
671.0, 0.915869
672.0, 0.916028
673.0, 0.916209
674.0, 0.916435
675.0, 0.916678
676.0, 0.916857
677.0, 0.917014
678.0, 0.917191
679.0, 0.917370
680.0, 0.917559
681.0, 0.917710
682.0, 0.917812
683.0, 0.917908
684.0, 0.918046
685.0, 0.918224
686.0, 0.918438
687.0, 0.918651
688.0, 0.918839
689.0, 0.919008
690.0, 0.919170
691.0, 0.919335
692.0, 0.919510
693.0, 0.919726
694.0, 0.919949
695.0, 0.920136
696.0, 0.920262
697.0, 0.920405
698.0, 0.920578
699.0, 0.920744
700.0, 0.920911
701.0, 0.921049
702.0, 0.921168
703.0, 0.921311
704.0, 0.921446
705.0, 0.921569
706.0, 0.921698
707.0, 0.921852
708.0, 0.922022
709.0, 0.922190
710.0, 0.922345
711.0, 0.922511
712.0, 0.922691
713.0, 0.922887
714.0, 0.923009
715.0, 0.923085
716.0, 0.923174
717.0, 0.923307
718.0, 0.923453
719.0, 0.923586
720.0, 0.923750
721.0, 0.923893
722.0, 0.924018
723.0, 0.924173
724.0, 0.924250
725.0, 0.924309
726.0, 0.924418
727.0, 0.924489
728.0, 0.924604
729.0, 0.924757
730.0, 0.924862
731.0, 0.924956
732.0, 0.925064
733.0, 0.925178
734.0, 0.925309
735.0, 0.925420
736.0, 0.925509
737.0, 0.925615
738.0, 0.925714
739.0, 0.925814
740.0, 0.925947
741.0, 0.926067
742.0, 0.926178
743.0, 0.926299
744.0, 0.926385
745.0, 0.926507
746.0, 0.926656
747.0, 0.926756
748.0, 0.926780
749.0, 0.926793
750.0, 0.926840
751.0, 0.926932
752.0, 0.927064
753.0, 0.927202
754.0, 0.927310
755.0, 0.927373
756.0, 0.927416
757.0, 0.927444
758.0, 0.927494
759.0, 0.927568
760.0, 0.927646
761.0, 0.927726
762.0, 0.927815
763.0, 0.927898
764.0, 0.927926
765.0, 0.927939
766.0, 0.927967
767.0, 0.927997
768.0, 0.928062
769.0, 0.928125
770.0, 0.928165
771.0, 0.928222
772.0, 0.928267
773.0, 0.928314
774.0, 0.928409
775.0, 0.928530
776.0, 0.928645
777.0, 0.928748
778.0, 0.928815
779.0, 0.928838
780.0, 0.928849
781.0, 0.928869
782.0, 0.928955
783.0, 0.929062
784.0, 0.929132
785.0, 0.929185
786.0, 0.929232
787.0, 0.929279
788.0, 0.929325
789.0, 0.929376
790.0, 0.929428
791.0, 0.929469
792.0, 0.929536
793.0, 0.929624
794.0, 0.929715
795.0, 0.929767
796.0, 0.929833
797.0, 0.929927
798.0, 0.929998
799.0, 0.930007
800.0, 0.930009
801.0, 0.930063
802.0, 0.930116
803.0, 0.930177
804.0, 0.930262
805.0, 0.930377
806.0, 0.930471
807.0, 0.930545
808.0, 0.930637
809.0, 0.930761
810.0, 0.930854
811.0, 0.930880
812.0, 0.930892
813.0, 0.930924
814.0, 0.930975
815.0, 0.931052
816.0, 0.931150
817.0, 0.931257
818.0, 0.931391
819.0, 0.931480
820.0, 0.931529
821.0, 0.931581
822.0, 0.931594
823.0, 0.931627
824.0, 0.931705
825.0, 0.931800
826.0, 0.931935
827.0, 0.932063
828.0, 0.932148
829.0, 0.932208
830.0, 0.932259
831.0, 0.932312
832.0, 0.932382
833.0, 0.932449
834.0, 0.932494
835.0, 0.932508
836.0, 0.932533
837.0, 0.932576
838.0, 0.932618
839.0, 0.932693
840.0, 0.932791
841.0, 0.932881
842.0, 0.932963
843.0, 0.932979
844.0, 0.932978
845.0, 0.933013
846.0, 0.933112
847.0, 0.933206
848.0, 0.933262
849.0, 0.933349
850.0, 0.933505
851.0, 0.933637
852.0, 0.933659
853.0, 0.933563
854.0, 0.933471
855.0, 0.933442
856.0, 0.933495
857.0, 0.933561
858.0, 0.933601
859.0, 0.933661
860.0, 0.933723
861.0, 0.933769
862.0, 0.933799
863.0, 0.933805
864.0, 0.933853
865.0, 0.933957
866.0, 0.934080
867.0, 0.934156
868.0, 0.934194
869.0, 0.934247
870.0, 0.934272
871.0, 0.934282
872.0, 0.934306
873.0, 0.934380
874.0, 0.934498
875.0, 0.934604
876.0, 0.934651
877.0, 0.934608
878.0, 0.934549
879.0, 0.934522
880.0, 0.934554
881.0, 0.934601
882.0, 0.934624
883.0, 0.934672
884.0, 0.934692
885.0, 0.934680
886.0, 0.934690
887.0, 0.934701
888.0, 0.934687
889.0, 0.934643
890.0, 0.934677
891.0, 0.934782
892.0, 0.934887
893.0, 0.934934
894.0, 0.934985
895.0, 0.935048
896.0, 0.935075
897.0, 0.935064
898.0, 0.935038
899.0, 0.935013
900.0, 0.934991
901.0, 0.934939
902.0, 0.934875
903.0, 0.934837
904.0, 0.934871
905.0, 0.934943
906.0, 0.935016
907.0, 0.935060
908.0, 0.935098
909.0, 0.935158
910.0, 0.935287
911.0, 0.935371
912.0, 0.935390
913.0, 0.935395
914.0, 0.935448
915.0, 0.935519
916.0, 0.935559
917.0, 0.935517
918.0, 0.935506
919.0, 0.935568
920.0, 0.935601
921.0, 0.935681
922.0, 0.935780
923.0, 0.935844
924.0, 0.935828
925.0, 0.935782
926.0, 0.935761
927.0, 0.935748
928.0, 0.935769
929.0, 0.935808
930.0, 0.935855
931.0, 0.935838
932.0, 0.935826
933.0, 0.935886
934.0, 0.935956
935.0, 0.936010
936.0, 0.936046
937.0, 0.936008
938.0, 0.936038
939.0, 0.936120
940.0, 0.936160
941.0, 0.936139
942.0, 0.936100
943.0, 0.936082
944.0, 0.936123
945.0, 0.936142
946.0, 0.936103
947.0, 0.936022
948.0, 0.935989
949.0, 0.936003
950.0, 0.936012
951.0, 0.935985
952.0, 0.935933
953.0, 0.935887
954.0, 0.935854
955.0, 0.935826
956.0, 0.935791
957.0, 0.935739
958.0, 0.935720
959.0, 0.935693
960.0, 0.935625
961.0, 0.935459
962.0, 0.935358
963.0, 0.935357
964.0, 0.935340
965.0, 0.935331
966.0, 0.935301
967.0, 0.935223
968.0, 0.935131
969.0, 0.935060
970.0, 0.935008
971.0, 0.934943
972.0, 0.934900
973.0, 0.934874
974.0, 0.934838
975.0, 0.934777
976.0, 0.934670
977.0, 0.934521
978.0, 0.934419
979.0, 0.934323
980.0, 0.934193
981.0, 0.934045
982.0, 0.933897
983.0, 0.933766
984.0, 0.933648
985.0, 0.933562
986.0, 0.933445
987.0, 0.933283
988.0, 0.933138
989.0, 0.933029
990.0, 0.932908
991.0, 0.932670
992.0, 0.932565
993.0, 0.932549
994.0, 0.932472
995.0, 0.932396
996.0, 0.932256
997.0, 0.932066
998.0, 0.931902
999.0, 0.931767
1000.0, 0.931609
1001.0, 0.931393
1002.0, 0.931224
1003.0, 0.931138
1004.0, 0.931077
1005.0, 0.930906
1006.0, 0.930709
1007.0, 0.930547
1008.0, 0.930397
1009.0, 0.930160
1010.0, 0.929947
1011.0, 0.929470
1012.0, 0.929128
1013.0, 0.928992
1014.0, 0.928982
1015.0, 0.928873
1016.0, 0.928700
1017.0, 0.928565
1018.0, 0.928458
1019.0, 0.928439
1020.0, 0.928464
1021.0, 0.928388
1022.0, 0.928184
1023.0, 0.927860
1024.0, 0.927622
1025.0, 0.927722
1026.0, 0.927722
1027.0, 0.927686
1028.0, 0.927790
1029.0, 0.927938
1030.0, 0.928000
1031.0, 0.927817
1032.0, 0.927677
1033.0, 0.927704
1034.0, 0.927743
1035.0, 0.927758
1036.0, 0.927861
1037.0, 0.927933
1038.0, 0.927848
1039.0, 0.927829
1040.0, 0.928038
1041.0, 0.928017
1042.0, 0.928025
1043.0, 0.928330
1044.0, 0.928429
1045.0, 0.928345
1046.0, 0.928286
1047.0, 0.928517
1048.0, 0.928893
1049.0, 0.929127
1050.0, 0.929250
1051.0, 0.929403
1052.0, 0.929640
1053.0, 0.930020
1054.0, 0.930341
1055.0, 0.930280
1056.0, 0.930160
1057.0, 0.930267
1058.0, 0.930453
1059.0, 0.930741
1060.0, 0.930957
1061.0, 0.931062
1062.0, 0.931216
1063.0, 0.931400
1064.0, 0.931601
1065.0, 0.931898
1066.0, 0.932231
1067.0, 0.932430
1068.0, 0.932538
1069.0, 0.932781
1070.0, 0.933144
1071.0, 0.933389
1072.0, 0.933467
1073.0, 0.933554
1074.0, 0.933674
1075.0, 0.933710
1076.0, 0.933904
1077.0, 0.934312
1078.0, 0.934690
1079.0, 0.934875
1080.0, 0.934884
1081.0, 0.934959
1082.0, 0.935241
1083.0, 0.935540
1084.0, 0.935704
1085.0, 0.935833
1086.0, 0.935954
1087.0, 0.936029
1088.0, 0.936182
1089.0, 0.936450
1090.0, 0.936712
1091.0, 0.936853
1092.0, 0.936964
1093.0, 0.937132
1094.0, 0.937344
1095.0, 0.937593
1096.0, 0.937792
1097.0, 0.937845
1098.0, 0.937848
1099.0, 0.937919
1100.0, 0.938100
1101.0, 0.938350
1102.0, 0.938496
1103.0, 0.938601
1104.0, 0.938870
1105.0, 0.939070
1106.0, 0.939085
1107.0, 0.939184
1108.0, 0.939399
1109.0, 0.939540
1110.0, 0.939622
1111.0, 0.939787
1112.0, 0.940067
1113.0, 0.940292
1114.0, 0.940441
1115.0, 0.940581
1116.0, 0.940663
1117.0, 0.940710
1118.0, 0.940685
1119.0, 0.940650
1120.0, 0.940771
1121.0, 0.940904
1122.0, 0.940971
1123.0, 0.941054
1124.0, 0.940994
1125.0, 0.940917
1126.0, 0.940889
1127.0, 0.940792
1128.0, 0.940820
1129.0, 0.941054
1130.0, 0.941215
1131.0, 0.941289
1132.0, 0.941373
1133.0, 0.941484
1134.0, 0.941582
1135.0, 0.941578
1136.0, 0.941539
1137.0, 0.941451
1138.0, 0.941380
1139.0, 0.941369
1140.0, 0.941334
1141.0, 0.941215
1142.0, 0.941079
1143.0, 0.941024
1144.0, 0.941032
1145.0, 0.941088
1146.0, 0.941255
1147.0, 0.941359
1148.0, 0.941243
1149.0, 0.941137
1150.0, 0.940950
1151.0, 0.940742
1152.0, 0.940605
1153.0, 0.940503
1154.0, 0.940411
1155.0, 0.940309
1156.0, 0.940131
1157.0, 0.939972
1158.0, 0.939891
1159.0, 0.939775
1160.0, 0.939586
1161.0, 0.939434
1162.0, 0.939359
1163.0, 0.939238
1164.0, 0.939038
1165.0, 0.938762
1166.0, 0.938494
1167.0, 0.938347
1168.0, 0.938202
1169.0, 0.937983
1170.0, 0.937761
1171.0, 0.937502
1172.0, 0.937230
1173.0, 0.936913
1174.0, 0.936607
1175.0, 0.936320
1176.0, 0.936012
1177.0, 0.935683
1178.0, 0.935365
1179.0, 0.935036
1180.0, 0.934692
1181.0, 0.934323
1182.0, 0.933918
1183.0, 0.933508
1184.0, 0.933089
1185.0, 0.932703
1186.0, 0.932391
1187.0, 0.932059
1188.0, 0.931675
1189.0, 0.931301
1190.0, 0.931013
1191.0, 0.930727
1192.0, 0.930409
1193.0, 0.930095
1194.0, 0.929670
1195.0, 0.929211
1196.0, 0.928857
1197.0, 0.928547
1198.0, 0.928128
1199.0, 0.927642
1200.0, 0.927152
1201.0, 0.926634
1202.0, 0.926143
1203.0, 0.925722
1204.0, 0.925252
1205.0, 0.924688
1206.0, 0.924161
1207.0, 0.923676
1208.0, 0.923160
1209.0, 0.922471
1210.0, 0.921789
1211.0, 0.921290
1212.0, 0.920799
1213.0, 0.920079
1214.0, 0.919335
1215.0, 0.918667
1216.0, 0.918009
1217.0, 0.917376
1218.0, 0.916763
1219.0, 0.916177
1220.0, 0.915617
1221.0, 0.914989
1222.0, 0.914284
1223.0, 0.913646
1224.0, 0.913103
1225.0, 0.912515
1226.0, 0.911840
1227.0, 0.911173
1228.0, 0.910539
1229.0, 0.909902
1230.0, 0.909206
1231.0, 0.908512
1232.0, 0.907853
1233.0, 0.907195
1234.0, 0.906508
1235.0, 0.905823
1236.0, 0.905372
1237.0, 0.904983
1238.0, 0.904460
1239.0, 0.903882
1240.0, 0.903340
1241.0, 0.902821
1242.0, 0.902236
1243.0, 0.901589
1244.0, 0.900985
1245.0, 0.900441
1246.0, 0.899845
1247.0, 0.899137
1248.0, 0.898468
1249.0, 0.897924
1250.0, 0.897366
1251.0, 0.896706
1252.0, 0.896054
1253.0, 0.895496
1254.0, 0.894942
1255.0, 0.894362
1256.0, 0.893785
1257.0, 0.893252
1258.0, 0.892730
1259.0, 0.892236
1260.0, 0.891751
1261.0, 0.891317
1262.0, 0.890910
1263.0, 0.890535
1264.0, 0.890182
1265.0, 0.889821
1266.0, 0.889452
1267.0, 0.889108
1268.0, 0.888796
1269.0, 0.888457
1270.0, 0.888056
1271.0, 0.887690
1272.0, 0.887459
1273.0, 0.887244
1274.0, 0.887077
1275.0, 0.886899
1276.0, 0.886575
1277.0, 0.886254
1278.0, 0.886042
1279.0, 0.885828
1280.0, 0.885533
1281.0, 0.885235
1282.0, 0.884978
1283.0, 0.884728
1284.0, 0.884468
1285.0, 0.884205
1286.0, 0.883906
1287.0, 0.883586
1288.0, 0.883293
1289.0, 0.883040
1290.0, 0.882788
1291.0, 0.882533
1292.0, 0.882279
1293.0, 0.882006
1294.0, 0.881758
1295.0, 0.881586
1296.0, 0.881394
1297.0, 0.881140
1298.0, 0.880898
1299.0, 0.880706
1300.0, 0.880512
1301.0, 0.880311
1302.0, 0.880114
1303.0, 0.879971
1304.0, 0.879827
1305.0, 0.879672
1306.0, 0.879522
1307.0, 0.879380
1308.0, 0.879240
1309.0, 0.879079
1310.0, 0.878911
1311.0, 0.878784
1312.0, 0.878679
1313.0, 0.878609
1314.0, 0.878569
1315.0, 0.878539
1316.0, 0.878522
1317.0, 0.878458
1318.0, 0.878323
1319.0, 0.878196
1320.0, 0.878073
1321.0, 0.877949
1322.0, 0.877850
1323.0, 0.877761
1324.0, 0.877653
1325.0, 0.877535
1326.0, 0.877344
1327.0, 0.877149
1328.0, 0.876953
1329.0, 0.876760
1330.0, 0.876515
1331.0, 0.876268
1332.0, 0.876107
1333.0, 0.875950
1334.0, 0.875655
1335.0, 0.875335
1336.0, 0.875129
1337.0, 0.874953
1338.0, 0.874602
1339.0, 0.874179
1340.0, 0.873841
1341.0, 0.873555
1342.0, 0.873269
1343.0, 0.872975
1344.0, 0.872633
1345.0, 0.872248
1346.0, 0.871849
1347.0, 0.871415
1348.0, 0.871008
1349.0, 0.870679
1350.0, 0.870367
1351.0, 0.870126
1352.0, 0.869893
1353.0, 0.869623
1354.0, 0.869361
1355.0, 0.869242
1356.0, 0.869127
1357.0, 0.869025
1358.0, 0.868928
1359.0, 0.868837
1360.0, 0.868740
1361.0, 0.868650
1362.0, 0.868568
1363.0, 0.868410
1364.0, 0.868218
1365.0, 0.867993
1366.0, 0.867774
1367.0, 0.867508
1368.0, 0.867213
1369.0, 0.866882
1370.0, 0.866546
1371.0, 0.866238
1372.0, 0.865952
1373.0, 0.865674
1374.0, 0.865399
1375.0, 0.865090
1376.0, 0.864743
1377.0, 0.864395
1378.0, 0.864044
1379.0, 0.863696
1380.0, 0.863333
1381.0, 0.862971
1382.0, 0.862626
1383.0, 0.862279
1384.0, 0.861914
1385.0, 0.861529
1386.0, 0.861049
1387.0, 0.860572
1388.0, 0.860068
1389.0, 0.859579
1390.0, 0.859245
1391.0, 0.858915
1392.0, 0.858487
1393.0, 0.858060
1394.0, 0.857623
1395.0, 0.857171
1396.0, 0.856739
1397.0, 0.856306
1398.0, 0.855863
1399.0, 0.855443
1400.0, 0.854925
1401.0, 0.854368
1402.0, 0.853796
1403.0, 0.853212
1404.0, 0.852554
1405.0, 0.851861
1406.0, 0.851161
1407.0, 0.850459
1408.0, 0.849684
1409.0, 0.848817
1410.0, 0.848026
1411.0, 0.847341
1412.0, 0.846539
1413.0, 0.845569
1414.0, 0.844655
1415.0, 0.843862
1416.0, 0.843025
1417.0, 0.842052
1418.0, 0.841125
1419.0, 0.840308
1420.0, 0.839471
1421.0, 0.838490
1422.0, 0.837495
1423.0, 0.836435
1424.0, 0.835367
1425.0, 0.834223
1426.0, 0.833087
1427.0, 0.831975
1428.0, 0.830858
1429.0, 0.829639
1430.0, 0.828420
1431.0, 0.827231
1432.0, 0.826051
1433.0, 0.824769
1434.0, 0.823471
1435.0, 0.822298
1436.0, 0.821148
1437.0, 0.819800
1438.0, 0.818405
1439.0, 0.817108
1440.0, 0.815857
1441.0, 0.814429
1442.0, 0.812924
1443.0, 0.811424
1444.0, 0.809935
1445.0, 0.808339
1446.0, 0.806683
1447.0, 0.805123
1448.0, 0.803619
1449.0, 0.801957
1450.0, 0.800154
1451.0, 0.798432
1452.0, 0.796794
1453.0, 0.795064
1454.0, 0.793220
1455.0, 0.791413
1456.0, 0.789677
1457.0, 0.787877
1458.0, 0.785917
1459.0, 0.784005
1460.0, 0.782208
1461.0, 0.780344
1462.0, 0.778299
1463.0, 0.776318
1464.0, 0.774544
1465.0, 0.772730
1466.0, 0.770689
1467.0, 0.768685
1468.0, 0.766839
1469.0, 0.764958
1470.0, 0.762812
1471.0, 0.760684
1472.0, 0.758762
1473.0, 0.756833
1474.0, 0.754676
1475.0, 0.752523
1476.0, 0.750552
1477.0, 0.748577
1478.0, 0.746328
1479.0, 0.744068
1480.0, 0.741940
1481.0, 0.739828
1482.0, 0.737576
1483.0, 0.735307
1484.0, 0.733253
1485.0, 0.731238
1486.0, 0.728990
1487.0, 0.726701
1488.0, 0.724598
1489.0, 0.722549
1490.0, 0.720252
1491.0, 0.717888
1492.0, 0.715737
1493.0, 0.713659
1494.0, 0.711345
1495.0, 0.708938
1496.0, 0.706741
1497.0, 0.704655
1498.0, 0.702394
1499.0, 0.700037
1500.0, 0.697849
1501.0, 0.695761
1502.0, 0.693538
1503.0, 0.691234
1504.0, 0.689093
1505.0, 0.687098
1506.0, 0.684973
1507.0, 0.682699
1508.0, 0.680595
1509.0, 0.678663
1510.0, 0.676583
1511.0, 0.674356
1512.0, 0.672276
1513.0, 0.670367
1514.0, 0.668325
1515.0, 0.666088
1516.0, 0.663941
1517.0, 0.661931
1518.0, 0.659814
1519.0, 0.657494
1520.0, 0.655294
1521.0, 0.653331
1522.0, 0.651264
1523.0, 0.648993
1524.0, 0.646812
1525.0, 0.644840
1526.0, 0.642818
1527.0, 0.640655
1528.0, 0.638564
1529.0, 0.636670
1530.0, 0.634707
1531.0, 0.632517
1532.0, 0.630393
1533.0, 0.628486
1534.0, 0.626527
1535.0, 0.624376
1536.0, 0.622277
1537.0, 0.620412
1538.0, 0.618517
1539.0, 0.616476
1540.0, 0.614488
1541.0, 0.612852
1542.0, 0.611211
1543.0, 0.609560
1544.0, 0.607958
1545.0, 0.606823
1546.0, 0.605711
1547.0, 0.604775
1548.0, 0.603881
1549.0, 0.603435
1550.0, 0.603027
1551.0, 0.602978
1552.0, 0.602951
1553.0, 0.603085
1554.0, 0.603241
1555.0, 0.603565
1556.0, 0.603896
1557.0, 0.604208
1558.0, 0.604519
1559.0, 0.604876
1560.0, 0.605231
1561.0, 0.605485
1562.0, 0.605727
1563.0, 0.605857
1564.0, 0.605983
1565.0, 0.606111
1566.0, 0.606230
1567.0, 0.606184
1568.0, 0.606130
1569.0, 0.606079
1570.0, 0.606031
1571.0, 0.605849
1572.0, 0.605650
1573.0, 0.605466
1574.0, 0.605283
1575.0, 0.605019
1576.0, 0.604747
1577.0, 0.604447
1578.0, 0.604139
1579.0, 0.603683
1580.0, 0.603207
1581.0, 0.602735
1582.0, 0.602264
1583.0, 0.601695
1584.0, 0.601111
1585.0, 0.600547
1586.0, 0.599984
1587.0, 0.599296
1588.0, 0.598589
1589.0, 0.597918
1590.0, 0.597251
1591.0, 0.596533
1592.0, 0.595807
1593.0, 0.595060
1594.0, 0.594309
1595.0, 0.593490
1596.0, 0.592655
1597.0, 0.591884
1598.0, 0.591125
1599.0, 0.590332
1600.0, 0.589532
1601.0, 0.588826
1602.0, 0.588137
1603.0, 0.587366
1604.0, 0.586576
1605.0, 0.585955
1606.0, 0.585360
1607.0, 0.584800
1608.0, 0.584249
1609.0, 0.583768
1610.0, 0.583295
1611.0, 0.582835
1612.0, 0.582375
1613.0, 0.582030
1614.0, 0.581704
1615.0, 0.581435
1616.0, 0.581175
1617.0, 0.580957
1618.0, 0.580746
1619.0, 0.580553
1620.0, 0.580363
1621.0, 0.580186
1622.0, 0.580010
1623.0, 0.579926
1624.0, 0.579854
1625.0, 0.579792
1626.0, 0.579730
1627.0, 0.579725
1628.0, 0.579729
1629.0, 0.579811
1630.0, 0.579902
1631.0, 0.580101
1632.0, 0.580310
1633.0, 0.580432
1634.0, 0.580548
1635.0, 0.580812
1636.0, 0.581087
1637.0, 0.581295
1638.0, 0.581499
1639.0, 0.581692
1640.0, 0.581884
1641.0, 0.582071
1642.0, 0.582257
1643.0, 0.582410
1644.0, 0.582562
1645.0, 0.582686
1646.0, 0.582810
1647.0, 0.582944
1648.0, 0.583077
1649.0, 0.583162
1650.0, 0.583245
1651.0, 0.583245
1652.0, 0.583240
1653.0, 0.583166
1654.0, 0.583098
1655.0, 0.583081
1656.0, 0.583061
1657.0, 0.582995
1658.0, 0.582930
1659.0, 0.582838
1660.0, 0.582737
1661.0, 0.582596
1662.0, 0.582459
1663.0, 0.582339
1664.0, 0.582217
1665.0, 0.582078
1666.0, 0.581925
1667.0, 0.581710
1668.0, 0.581516
1669.0, 0.581405
1670.0, 0.581275
1671.0, 0.581063
1672.0, 0.580847
1673.0, 0.580628
1674.0, 0.580408
1675.0, 0.580169
1676.0, 0.579930
1677.0, 0.579710
1678.0, 0.579501
1679.0, 0.579299
1680.0, 0.579122
1681.0, 0.579010
1682.0, 0.578890
1683.0, 0.578746
1684.0, 0.578602
1685.0, 0.578473
1686.0, 0.578351
1687.0, 0.578229
1688.0, 0.578133
1689.0, 0.578068
1690.0, 0.577942
1691.0, 0.577747
1692.0, 0.577527
1693.0, 0.577296
1694.0, 0.577073
1695.0, 0.576842
1696.0, 0.576594
1697.0, 0.576337
1698.0, 0.576060
1699.0, 0.575758
1700.0, 0.575506
1701.0, 0.575297
1702.0, 0.575110
1703.0, 0.574926
1704.0, 0.574814
1705.0, 0.574734
1706.0, 0.574639
1707.0, 0.574555
1708.0, 0.574489
1709.0, 0.574435
1710.0, 0.574507
1711.0, 0.574612
1712.0, 0.574690
1713.0, 0.574751
1714.0, 0.574807
1715.0, 0.574871
1716.0, 0.575031
1717.0, 0.575209
1718.0, 0.575393
1719.0, 0.575571
1720.0, 0.575786
1721.0, 0.576006
1722.0, 0.576206
1723.0, 0.576413
1724.0, 0.576578
1725.0, 0.576747
1726.0, 0.577077
1727.0, 0.577418
1728.0, 0.577647
1729.0, 0.577847
1730.0, 0.578043
1731.0, 0.578245
1732.0, 0.578457
1733.0, 0.578679
1734.0, 0.578886
1735.0, 0.579110
1736.0, 0.579339
1737.0, 0.579601
1738.0, 0.579964
1739.0, 0.580315
1740.0, 0.580674
1741.0, 0.581108
1742.0, 0.581609
1743.0, 0.582079
1744.0, 0.582520
1745.0, 0.583039
1746.0, 0.583637
1747.0, 0.584168
1748.0, 0.584674
1749.0, 0.585283
1750.0, 0.585950
1751.0, 0.586543
1752.0, 0.587090
1753.0, 0.587651
1754.0, 0.588219
1755.0, 0.588749
1756.0, 0.589278
1757.0, 0.589868
1758.0, 0.590481
1759.0, 0.591017
1760.0, 0.591496
1761.0, 0.592000
1762.0, 0.592539
1763.0, 0.593048
1764.0, 0.593577
1765.0, 0.594164
1766.0, 0.594723
1767.0, 0.595109
1768.0, 0.595463
1769.0, 0.595824
1770.0, 0.596178
1771.0, 0.596521
1772.0, 0.596874
1773.0, 0.597269
1774.0, 0.597704
1775.0, 0.598199
1776.0, 0.598681
1777.0, 0.599150
1778.0, 0.599613
1779.0, 0.600038
1780.0, 0.600540
1781.0, 0.601203
1782.0, 0.601851
1783.0, 0.602383
1784.0, 0.602899
1785.0, 0.603471
1786.0, 0.603984
1787.0, 0.604455
1788.0, 0.605042
1789.0, 0.605701
1790.0, 0.606282
1791.0, 0.606806
1792.0, 0.607397
1793.0, 0.608011
1794.0, 0.608564
1795.0, 0.609132
1796.0, 0.609750
1797.0, 0.610341
1798.0, 0.610800
1799.0, 0.611233
1800.0, 0.611728
1801.0, 0.612251
1802.0, 0.612721
1803.0, 0.613144
1804.0, 0.613584
1805.0, 0.614053
1806.0, 0.614430
1807.0, 0.614771
1808.0, 0.615217
1809.0, 0.615671
1810.0, 0.616041
1811.0, 0.616435
1812.0, 0.616889
1813.0, 0.617312
1814.0, 0.617714
1815.0, 0.618141
1816.0, 0.618530
1817.0, 0.618848
1818.0, 0.619137
1819.0, 0.619442
1820.0, 0.619769
1821.0, 0.619961
1822.0, 0.620093
1823.0, 0.620225
1824.0, 0.620340
1825.0, 0.620513
1826.0, 0.620736
1827.0, 0.620886
1828.0, 0.621015
1829.0, 0.621140
1830.0, 0.621194
1831.0, 0.621254
1832.0, 0.621249
1833.0, 0.621118
1834.0, 0.620996
1835.0, 0.620853
1836.0, 0.620703
1837.0, 0.620627
1838.0, 0.620574
1839.0, 0.620463
1840.0, 0.620316
1841.0, 0.620141
1842.0, 0.619929
1843.0, 0.619691
1844.0, 0.619415
1845.0, 0.619131
1846.0, 0.618836
1847.0, 0.618528
1848.0, 0.618065
1849.0, 0.617579
1850.0, 0.617048
1851.0, 0.616507
1852.0, 0.615963
1853.0, 0.615394
1854.0, 0.614808
1855.0, 0.614186
1856.0, 0.613572
1857.0, 0.612903
1858.0, 0.612228
1859.0, 0.611530
1860.0, 0.610848
1861.0, 0.610133
1862.0, 0.609390
1863.0, 0.608628
1864.0, 0.607876
1865.0, 0.607090
1866.0, 0.606048
1867.0, 0.605001
1868.0, 0.603872
1869.0, 0.602734
1870.0, 0.601330
1871.0, 0.599852
1872.0, 0.598357
1873.0, 0.596840
1874.0, 0.595248
1875.0, 0.593464
1876.0, 0.591707
1877.0, 0.590036
1878.0, 0.588379
1879.0, 0.586516
1880.0, 0.584640
1881.0, 0.582940
1882.0, 0.581326
1883.0, 0.579636
1884.0, 0.577828
1885.0, 0.576098
1886.0, 0.574610
1887.0, 0.573106
1888.0, 0.571464
1889.0, 0.569825
1890.0, 0.568551
1891.0, 0.567360
1892.0, 0.566165
1893.0, 0.564948
1894.0, 0.563841
1895.0, 0.562887
1896.0, 0.561921
1897.0, 0.560950
1898.0, 0.559982
1899.0, 0.559186
1900.0, 0.558404
1901.0, 0.557715
1902.0, 0.557034
1903.0, 0.556409
1904.0, 0.555835
1905.0, 0.555241
1906.0, 0.554630
1907.0, 0.554034
1908.0, 0.553483
1909.0, 0.552933
1910.0, 0.552349
1911.0, 0.551761
1912.0, 0.551250
1913.0, 0.550767
1914.0, 0.550243
1915.0, 0.549688
1916.0, 0.549156
1917.0, 0.548669
1918.0, 0.548162
1919.0, 0.547502
1920.0, 0.546842
1921.0, 0.546093
1922.0, 0.545342
1923.0, 0.544470
1924.0, 0.543554
1925.0, 0.542589
1926.0, 0.541583
1927.0, 0.540487
1928.0, 0.539218
1929.0, 0.537953
1930.0, 0.536643
1931.0, 0.535332
1932.0, 0.533700
1933.0, 0.532044
1934.0, 0.530358
1935.0, 0.528666
1936.0, 0.526781
1937.0, 0.524738
1938.0, 0.522652
1939.0, 0.520499
1940.0, 0.518257
1941.0, 0.515571
1942.0, 0.512886
1943.0, 0.510309
1944.0, 0.507736
1945.0, 0.504689
1946.0, 0.501506
1947.0, 0.498465
1948.0, 0.495526
1949.0, 0.492388
1950.0, 0.488941
1951.0, 0.485568
1952.0, 0.482482
1953.0, 0.479374
1954.0, 0.475885
1955.0, 0.472381
1956.0, 0.469367
1957.0, 0.466460
1958.0, 0.463549
1959.0, 0.460647
1960.0, 0.458125
1961.0, 0.456062
1962.0, 0.454050
1963.0, 0.452223
1964.0, 0.450450
1965.0, 0.449381
1966.0, 0.448319
1967.0, 0.447658
1968.0, 0.447040
1969.0, 0.446715
1970.0, 0.446515
1971.0, 0.446511
1972.0, 0.446689
1973.0, 0.446890
1974.0, 0.447118
1975.0, 0.447365
1976.0, 0.447681
1977.0, 0.447992
1978.0, 0.448241
1979.0, 0.448490
1980.0, 0.448760
1981.0, 0.449048
1982.0, 0.449271
1983.0, 0.449443
1984.0, 0.449650
1985.0, 0.449909
1986.0, 0.450147
1987.0, 0.450345
1988.0, 0.450542
1989.0, 0.450728
1990.0, 0.450919
1991.0, 0.450961
1992.0, 0.450955
1993.0, 0.450850
1994.0, 0.450717
1995.0, 0.450464
1996.0, 0.450117
1997.0, 0.449685
1998.0, 0.449080
1999.0, 0.448405
2000.0, 0.447500
2001.0, 0.446591
2002.0, 0.445376
2003.0, 0.444150
2004.0, 0.442865
2005.0, 0.441577
2006.0, 0.440010
2007.0, 0.438295
2008.0, 0.436553
2009.0, 0.434794
2010.0, 0.432875
2011.0, 0.430643
2012.0, 0.428431
2013.0, 0.426270
2014.0, 0.424071
2015.0, 0.421428
2016.0, 0.418750
2017.0, 0.416281
2018.0, 0.413867
2019.0, 0.411154
2020.0, 0.408284
2021.0, 0.405572
2022.0, 0.403016
2023.0, 0.400351
2024.0, 0.397468
2025.0, 0.394605
2026.0, 0.391918
2027.0, 0.389196
2028.0, 0.386172
2029.0, 0.383122
2030.0, 0.380380
2031.0, 0.377682
2032.0, 0.374785
2033.0, 0.371815
2034.0, 0.369032
2035.0, 0.366440
2036.0, 0.363815
2037.0, 0.361101
2038.0, 0.358460
2039.0, 0.356119
2040.0, 0.353737
2041.0, 0.351196
2042.0, 0.348652
2043.0, 0.346489
2044.0, 0.344397
2045.0, 0.342197
2046.0, 0.339948
2047.0, 0.337993
2048.0, 0.336259
2049.0, 0.334473
2050.0, 0.332656
2051.0, 0.330958
2052.0, 0.329635
2053.0, 0.328327
2054.0, 0.327087
2055.0, 0.325841
2056.0, 0.324830
2057.0, 0.323845
2058.0, 0.322906
2059.0, 0.321994
2060.0, 0.321342
2061.0, 0.320846
2062.0, 0.320348
2063.0, 0.319823
2064.0, 0.319388
2065.0, 0.319144
2066.0, 0.318908
2067.0, 0.318699
2068.0, 0.318480
2069.0, 0.318219
2070.0, 0.317957
2071.0, 0.317697
2072.0, 0.317436
2073.0, 0.317213
2074.0, 0.317007
2075.0, 0.316763
2076.0, 0.316488
2077.0, 0.316229
2078.0, 0.315974
2079.0, 0.315711
2080.0, 0.315442
2081.0, 0.315166
2082.0, 0.314892
2083.0, 0.314610
2084.0, 0.314318
2085.0, 0.314033
2086.0, 0.313792
2087.0, 0.313548
2088.0, 0.313331
2089.0, 0.313125
2090.0, 0.312962
2091.0, 0.312828
2092.0, 0.312663
2093.0, 0.312461
2094.0, 0.312274
2095.0, 0.312097
2096.0, 0.311907
2097.0, 0.311711
2098.0, 0.311510
2099.0, 0.311285
2100.0, 0.311060
2101.0, 0.310881
2102.0, 0.310691
2103.0, 0.310426
2104.0, 0.310135
2105.0, 0.309769
2106.0, 0.309366
2107.0, 0.308961
2108.0, 0.308536
2109.0, 0.308063
2110.0, 0.307490
2111.0, 0.306907
2112.0, 0.306357
2113.0, 0.305802
2114.0, 0.305070
2115.0, 0.304307
2116.0, 0.303609
2117.0, 0.302914
2118.0, 0.302123
2119.0, 0.301320
2120.0, 0.300536
2121.0, 0.299773
2122.0, 0.298956
2123.0, 0.298076
2124.0, 0.297272
2125.0, 0.296566
2126.0, 0.295874
2127.0, 0.295262
2128.0, 0.294679
2129.0, 0.294260
2130.0, 0.293843
2131.0, 0.293486
2132.0, 0.293149
2133.0, 0.293068
2134.0, 0.293052
2135.0, 0.293297
2136.0, 0.293621
2137.0, 0.294091
2138.0, 0.294671
2139.0, 0.295508
2140.0, 0.296556
2141.0, 0.297737
2142.0, 0.299115
2143.0, 0.300735
2144.0, 0.302980
2145.0, 0.305240
2146.0, 0.307554
2147.0, 0.309964
2148.0, 0.313024
2149.0, 0.316160
2150.0, 0.319417
2151.0, 0.322689
2152.0, 0.326538
2153.0, 0.330559
2154.0, 0.334405
2155.0, 0.338188
2156.0, 0.342384
2157.0, 0.346900
2158.0, 0.351254
2159.0, 0.355363
2160.0, 0.359660
2161.0, 0.364260
2162.0, 0.368743
2163.0, 0.372761
2164.0, 0.376848
2165.0, 0.381183
2166.0, 0.385480
2167.0, 0.389197
2168.0, 0.392882
2169.0, 0.396748
2170.0, 0.400664
2171.0, 0.404127
2172.0, 0.407442
2173.0, 0.410825
2174.0, 0.414261
2175.0, 0.417326
2176.0, 0.420087
2177.0, 0.422903
2178.0, 0.425778
2179.0, 0.428467
2180.0, 0.430799
2181.0, 0.433172
2182.0, 0.435583
2183.0, 0.437944
2184.0, 0.439935
2185.0, 0.441916
2186.0, 0.443825
2187.0, 0.445758
2188.0, 0.447366
2189.0, 0.448932
2190.0, 0.450368
2191.0, 0.451775
2192.0, 0.453063
2193.0, 0.454321
2194.0, 0.455538
2195.0, 0.456697
2196.0, 0.457699
2197.0, 0.458564
2198.0, 0.459383
2199.0, 0.460132
2200.0, 0.460854
2201.0, 0.461439
2202.0, 0.461949
2203.0, 0.462378
2204.0, 0.462781
2205.0, 0.462992
2206.0, 0.463195
2207.0, 0.463277
2208.0, 0.463342
2209.0, 0.463394
2210.0, 0.463424
2211.0, 0.463416
2212.0, 0.463397
2213.0, 0.463332
2214.0, 0.463252
2215.0, 0.463270
2216.0, 0.463344
2217.0, 0.463438
2218.0, 0.463543
2219.0, 0.463620
2220.0, 0.463674
2221.0, 0.463735
2222.0, 0.463804
2223.0, 0.463931
2224.0, 0.464197
2225.0, 0.464492
2226.0, 0.464907
2227.0, 0.465353
2228.0, 0.465940
2229.0, 0.466517
2230.0, 0.466960
2231.0, 0.467393
2232.0, 0.467846
2233.0, 0.468312
2234.0, 0.468725
2235.0, 0.469118
2236.0, 0.469586
2237.0, 0.470099
2238.0, 0.470570
2239.0, 0.471014
2240.0, 0.471522
2241.0, 0.472084
2242.0, 0.472600
2243.0, 0.473036
2244.0, 0.473565
2245.0, 0.474247
2246.0, 0.474863
2247.0, 0.475407
2248.0, 0.475976
2249.0, 0.476513
2250.0, 0.477026
2251.0, 0.477442
2252.0, 0.477858
2253.0, 0.478194
2254.0, 0.478524
2255.0, 0.478729
2256.0, 0.478905
2257.0, 0.478987
2258.0, 0.479061
2259.0, 0.478972
2260.0, 0.478859
2261.0, 0.478538
2262.0, 0.478180
2263.0, 0.477763
2264.0, 0.477307
2265.0, 0.476840
2266.0, 0.476369
2267.0, 0.475815
2268.0, 0.475216
2269.0, 0.474501
2270.0, 0.473648
2271.0, 0.472697
2272.0, 0.471656
2273.0, 0.470610
2274.0, 0.469540
2275.0, 0.468429
2276.0, 0.467239
2277.0, 0.466035
2278.0, 0.464843
2279.0, 0.463643
2280.0, 0.462563
2281.0, 0.461481
2282.0, 0.460240
2283.0, 0.459015
2284.0, 0.458098
2285.0, 0.457146
2286.0, 0.456099
2287.0, 0.455040
2288.0, 0.454154
2289.0, 0.453292
2290.0, 0.452488
2291.0, 0.451698
2292.0, 0.451077
2293.0, 0.450490
2294.0, 0.450062
2295.0, 0.449691
2296.0, 0.449344
2297.0, 0.449018
2298.0, 0.448707
2299.0, 0.448404
2300.0, 0.448260
2301.0, 0.448230
2302.0, 0.448162
2303.0, 0.448072
2304.0, 0.448047
2305.0, 0.448097
2306.0, 0.448138
2307.0, 0.448161
2308.0, 0.448222
2309.0, 0.448327
2310.0, 0.448401
2311.0, 0.448407
2312.0, 0.448404
2313.0, 0.448394
2314.0, 0.448369
2315.0, 0.448297
2316.0, 0.448223
2317.0, 0.448129
2318.0, 0.447985
2319.0, 0.447473
2320.0, 0.446959
2321.0, 0.446547
2322.0, 0.446136
2323.0, 0.445841
2324.0, 0.445539
2325.0, 0.445088
2326.0, 0.444638
2327.0, 0.444401
2328.0, 0.444187
2329.0, 0.443946
2330.0, 0.443659
2331.0, 0.443047
2332.0, 0.442362
2333.0, 0.441890
2334.0, 0.441491
2335.0, 0.441049
2336.0, 0.440592
2337.0, 0.439951
2338.0, 0.439206
2339.0, 0.438399
2340.0, 0.437561
2341.0, 0.436681
2342.0, 0.435790
2343.0, 0.434797
2344.0, 0.433707
2345.0, 0.432663
2346.0, 0.431671
2347.0, 0.430649
2348.0, 0.429605
2349.0, 0.428616
2350.0, 0.427680
2351.0, 0.426569
2352.0, 0.425235
2353.0, 0.423987
2354.0, 0.422895
2355.0, 0.421744
2356.0, 0.420483
2357.0, 0.419273
2358.0, 0.418205
2359.0, 0.417011
2360.0, 0.415532
2361.0, 0.414050
2362.0, 0.412570
2363.0, 0.411010
2364.0, 0.409253
2365.0, 0.407504
2366.0, 0.405936
2367.0, 0.404252
2368.0, 0.402116
2369.0, 0.399964
2370.0, 0.397802
2371.0, 0.395581
2372.0, 0.393140
2373.0, 0.390677
2374.0, 0.388367
2375.0, 0.386003
2376.0, 0.383220
2377.0, 0.380411
2378.0, 0.377786
2379.0, 0.375086
2380.0, 0.371854
2381.0, 0.368563
2382.0, 0.365251
2383.0, 0.361895
2384.0, 0.358313
2385.0, 0.354660
2386.0, 0.351310
2387.0, 0.347926
2388.0, 0.344286
2389.0, 0.340575
2390.0, 0.337610
2391.0, 0.334634
2392.0, 0.331360
2393.0, 0.328020
2394.0, 0.325520
2395.0, 0.323057
2396.0, 0.321116
2397.0, 0.319187
2398.0, 0.318132
2399.0, 0.317220
2400.0, 0.317337
2401.0, 0.317559
2402.0, 0.318380
2403.0, 0.319319
2404.0, 0.320832
2405.0, 0.322510
2406.0, 0.324781
2407.0, 0.327220
2408.0, 0.330467
2409.0, 0.333931
2410.0, 0.336688
2411.0, 0.339326
2412.0, 0.342822
2413.0, 0.346553
2414.0, 0.349663
2415.0, 0.352715
2416.0, 0.355860
2417.0, 0.359041
2418.0, 0.361823
2419.0, 0.364580
2420.0, 0.367268
2421.0, 0.369944
2422.0, 0.371699
2423.0, 0.373322
2424.0, 0.375127
2425.0, 0.376966
2426.0, 0.378233
2427.0, 0.379330
2428.0, 0.380582
2429.0, 0.381911
2430.0, 0.382771
2431.0, 0.383544
2432.0, 0.383902
2433.0, 0.384160
2434.0, 0.384046
2435.0, 0.383827
2436.0, 0.383552
2437.0, 0.383233
2438.0, 0.383010
2439.0, 0.382860
2440.0, 0.382416
2441.0, 0.381831
2442.0, 0.381230
2443.0, 0.380604
2444.0, 0.379561
2445.0, 0.378437
2446.0, 0.378081
2447.0, 0.377864
2448.0, 0.376627
2449.0, 0.375344
2450.0, 0.374356
2451.0, 0.373237
2452.0, 0.372479
2453.0, 0.371726
2454.0, 0.370938
2455.0, 0.370157
2456.0, 0.368859
2457.0, 0.367523
2458.0, 0.366649
2459.0, 0.365694
2460.0, 0.364439
2461.0, 0.363224
2462.0, 0.362916
2463.0, 0.362665
2464.0, 0.362069
2465.0, 0.361439
2466.0, 0.360217
2467.0, 0.358843
2468.0, 0.358034
2469.0, 0.357292
2470.0, 0.356908
2471.0, 0.356469
2472.0, 0.355230
2473.0, 0.353840
2474.0, 0.352416
2475.0, 0.351043
2476.0, 0.349990
2477.0, 0.349019
2478.0, 0.348106
2479.0, 0.346907
2480.0, 0.345764
2481.0, 0.344552
2482.0, 0.343214
2483.0, 0.341820
2484.0, 0.340317
2485.0, 0.338810
2486.0, 0.338062
2487.0, 0.337471
2488.0, 0.336200
2489.0, 0.334548
2490.0, 0.333003
2491.0, 0.331651
2492.0, 0.330246
2493.0, 0.328956
2494.0, 0.328526
2495.0, 0.328136
2496.0, 0.327199
2497.0, 0.326657
2498.0, 0.326194
2499.0, 0.325801
2500.0, 0.325299
