Database of Origin, USGS Spectral Database
Sample Description, See USGS database for additional info
Date Added,2016-08-10 05:13:05.614163

Data ID,USGS_mus05          
Sample ID, muscovite_gds108.14958
Mineral Name, muscovite
Material Class,Phyllosilicate

Wavelength
1384.66, 0.566036
1385.03, 0.565534
1385.4, 0.565198
1385.77, 0.564528
1386.14, 0.564109
1386.51, 0.563019
1386.88, 0.561510
1387.25, 0.560001
1387.62, 0.559666
1387.99, 0.559750
1388.36, 0.559247
1388.74, 0.558493
1389.11, 0.558157
1389.48, 0.556900
1389.85, 0.555224
1390.23, 0.554469
1390.6, 0.553463
1390.97, 0.552038
1391.35, 0.550111
1391.72, 0.547931
1392.09, 0.546171
1392.47, 0.544579
1392.84, 0.544662
1393.21, 0.542986
1393.59, 0.539885
1393.96, 0.537705
1394.34, 0.535777
1394.71, 0.532928
1395.09, 0.530329
1395.46, 0.527060
1395.84, 0.524210
1396.22, 0.522953
1396.59, 0.522282
1396.97, 0.518678
1397.35, 0.517002
1397.72, 0.513984
1398.1, 0.509290
1398.48, 0.504177
1398.85, 0.503004
1399.23, 0.502920
1399.61, 0.500657
1399.99, 0.499232
1400.37, 0.499735
1400.74, 0.498394
1401.12, 0.494789
1401.5, 0.493532
1401.88, 0.493448
1402.26, 0.490263
1402.64, 0.488671
1403.02, 0.488922
1403.4, 0.487581
1403.78, 0.485737
1404.16, 0.483725
1404.54, 0.481127
1404.92, 0.479618
1405.3, 0.478612
1405.68, 0.476349
1406.06, 0.475176
1406.44, 0.475259
1406.83, 0.471739
1407.21, 0.470649
1407.59, 0.468889
1407.97, 0.466710
1408.35, 0.464530
1408.74, 0.466374
1409.12, 0.467296
1409.5, 0.462603
1409.89, 0.462100
1410.27, 0.461764
1410.65, 0.461764
1411.04, 0.462016
1411.42, 0.459753
1411.81, 0.459920
1412.19, 0.461848
1412.58, 0.461597
1412.96, 0.461010
1413.35, 0.462016
1413.73, 0.463273
1414.12, 0.464111
1414.5, 0.464363
1414.89, 0.465201
1415.28, 0.467883
1415.66, 0.471320
1416.05, 0.472661
1416.44, 0.474840
1416.82, 0.477606
1417.21, 0.480456
1417.6, 0.482971
1417.98, 0.485150
1418.37, 0.487581
1418.76, 0.489425
1419.15, 0.491353
1419.54, 0.494035
1419.93, 0.495711
1420.32, 0.497555
1420.71, 0.498980
1421.09, 0.501411
1421.48, 0.503339
1421.88, 0.504848
1422.27, 0.506105
1422.66, 0.507614
1423.05, 0.508620
1423.44, 0.509877
1423.83, 0.510883
1424.22, 0.512224
1424.61, 0.513146
1425.0, 0.514152
1425.39, 0.515074
1425.78, 0.516415
1426.18, 0.517086
1426.57, 0.518427
1426.96, 0.519265
1427.36, 0.520187
1427.75, 0.521025
1428.14, 0.522199
1428.54, 0.523204
1428.93, 0.524043
1429.32, 0.524210
1429.72, 0.524881
1430.11, 0.525384
1430.51, 0.526054
1430.9, 0.526641
1431.3, 0.527312
1431.69, 0.527647
1432.09, 0.528150
1432.48, 0.528569
1432.88, 0.529239
1433.28, 0.529826
1433.67, 0.530161
1434.07, 0.529407
1434.46, 0.529575
1434.86, 0.529826
1435.26, 0.530078
1435.66, 0.530078
1436.05, 0.530161
1436.45, 0.530413
1436.85, 0.530664
1437.25, 0.530497
1437.65, 0.531000
1438.05, 0.531084
1438.44, 0.531000
1438.84, 0.531000
1439.24, 0.530916
1439.64, 0.530664
1440.04, 0.530748
1440.44, 0.531167
1440.84, 0.531251
1441.24, 0.531419
1441.65, 0.531838
1442.05, 0.531419
1442.45, 0.531335
1442.85, 0.531670
1443.25, 0.531670
1443.65, 0.531167
1444.05, 0.531251
1444.46, 0.531335
1444.86, 0.531503
1445.26, 0.531251
1445.67, 0.531251
1446.07, 0.531084
1446.47, 0.531000
1446.88, 0.531000
1447.28, 0.531251
1447.68, 0.531251
1448.09, 0.531586
1448.49, 0.531251
1448.9, 0.531503
1449.3, 0.531335
1449.71, 0.530664
1450.11, 0.530245
1450.52, 0.530497
1450.93, 0.530497
1451.33, 0.530748
1451.74, 0.530748
1452.14, 0.530832
1452.55, 0.530329
1452.96, 0.530078
1453.36, 0.530581
1453.77, 0.530664
1454.18, 0.530664
1454.59, 0.530748
1455.0, 0.530245
1455.41, 0.529994
1455.81, 0.529910
1456.22, 0.529994
1456.63, 0.529742
1457.04, 0.529826
1457.45, 0.529742
1457.86, 0.529742
1458.27, 0.529323
1458.68, 0.529407
1459.09, 0.529491
1459.5, 0.529659
1459.91, 0.529575
1460.32, 0.529742
1460.74, 0.529575
1461.15, 0.529575
1461.56, 0.529239
1461.97, 0.529323
1462.39, 0.529659
1462.8, 0.529742
1463.21, 0.529575
1463.62, 0.529575
1464.04, 0.529407
1464.45, 0.529407
1464.86, 0.528988
1465.28, 0.529156
1465.69, 0.529407
1466.11, 0.529239
1466.52, 0.528904
1466.94, 0.528820
1467.35, 0.528569
1467.77, 0.528904
1468.18, 0.529239
1468.6, 0.529156
1469.02, 0.528988
1469.43, 0.529072
1469.85, 0.528904
1470.27, 0.528988
1470.68, 0.528485
1471.1, 0.528485
1471.52, 0.528569
1471.94, 0.528820
1472.35, 0.528653
1472.77, 0.528653
1473.19, 0.527982
1473.61, 0.528066
1474.03, 0.528401
1474.45, 0.528234
1474.87, 0.528066
1475.29, 0.527982
1475.71, 0.527898
1476.13, 0.528234
1476.55, 0.528066
1476.97, 0.528150
1477.39, 0.528234
1477.81, 0.528653
1478.23, 0.528569
1478.65, 0.528485
1479.07, 0.528066
1479.5, 0.527647
1479.92, 0.527563
1480.34, 0.527982
1480.76, 0.528066
1481.19, 0.527898
1481.61, 0.528066
1482.03, 0.528485
1482.46, 0.528653
1482.88, 0.528485
1483.31, 0.527815
1483.73, 0.527731
1484.16, 0.528234
1484.58, 0.528317
1485.01, 0.528317
1485.43, 0.528569
1485.86, 0.528653
1486.28, 0.528569
1486.71, 0.527982
1487.14, 0.527898
1487.56, 0.528401
1487.99, 0.529072
1488.42, 0.528904
1488.84, 0.528485
1489.27, 0.528317
1489.7, 0.528234
1490.13, 0.528317
1490.56, 0.528569
1490.98, 0.527982
1491.41, 0.527982
1491.84, 0.528569
1492.27, 0.528820
1492.7, 0.528653
1493.13, 0.528485
1493.56, 0.528820
1493.99, 0.529156
1494.42, 0.528988
1494.85, 0.528820
1495.29, 0.528569
1495.72, 0.528820
1496.15, 0.528904
1496.58, 0.528904
1497.01, 0.528820
1497.44, 0.528988
1497.88, 0.529323
1498.31, 0.529156
1498.74, 0.528737
1499.18, 0.528904
1499.61, 0.529156
1500.04, 0.529742
1500.48, 0.529742
1500.91, 0.529659
1501.35, 0.530078
1501.78, 0.530245
1502.22, 0.530329
1502.65, 0.531084
1503.09, 0.530664
1503.53, 0.530748
1503.96, 0.531586
1504.4, 0.531503
1504.83, 0.530497
1505.27, 0.530748
1505.71, 0.530916
1506.15, 0.531084
1506.58, 0.531251
1507.02, 0.531586
1507.46, 0.531922
1507.9, 0.532089
1508.34, 0.532173
1508.78, 0.532006
1509.21, 0.531167
1509.66, 0.531419
1510.09, 0.531838
1510.53, 0.531670
1510.97, 0.532257
1511.42, 0.532928
1511.86, 0.532928
1512.3, 0.533179
1512.74, 0.533514
1513.18, 0.533766
1513.62, 0.533430
1514.06, 0.533263
1514.51, 0.533179
1514.95, 0.533682
1515.39, 0.533514
1515.83, 0.533766
1516.28, 0.533766
1516.72, 0.534017
1517.16, 0.534185
1517.61, 0.534939
1518.05, 0.535023
1518.5, 0.535023
1518.94, 0.534688
1519.39, 0.534772
1519.83, 0.534688
1520.28, 0.534688
1520.73, 0.534436
1521.17, 0.534939
1521.62, 0.534939
1522.07, 0.535358
1522.51, 0.535358
1522.96, 0.535358
1523.41, 0.535275
1523.85, 0.535191
1524.3, 0.535275
1524.75, 0.535442
1525.2, 0.535442
1525.65, 0.535694
1526.1, 0.535861
1526.55, 0.536616
1527.0, 0.536699
1527.45, 0.536532
1527.9, 0.536448
1528.35, 0.536532
1528.8, 0.536532
1529.25, 0.536783
1529.7, 0.536783
1530.15, 0.537119
1530.6, 0.537370
1531.05, 0.537705
1531.51, 0.537705
1531.96, 0.537705
1532.41, 0.537705
1532.87, 0.538208
1533.32, 0.538711
1533.77, 0.538627
1534.23, 0.538208
1534.68, 0.538041
1535.14, 0.537957
1535.59, 0.538460
1536.05, 0.538711
1536.5, 0.538711
1536.96, 0.538711
1537.41, 0.539046
1537.87, 0.539298
1538.32, 0.538879
1538.78, 0.538711
1539.24, 0.539466
1539.7, 0.539466
1540.15, 0.539382
1540.61, 0.539549
1541.07, 0.539549
1541.53, 0.539549
1541.98, 0.539885
1542.44, 0.540136
1542.9, 0.540471
1543.36, 0.540388
1543.82, 0.540639
1544.28, 0.540974
1544.74, 0.540807
1545.2, 0.540890
1545.66, 0.541142
1546.12, 0.541058
1546.59, 0.541310
1547.05, 0.541393
1547.51, 0.541645
1547.97, 0.541645
1548.43, 0.541980
1548.9, 0.541980
1549.36, 0.542148
1549.82, 0.542399
1550.29, 0.542651
1550.75, 0.542567
1551.21, 0.542483
1551.68, 0.542735
1552.14, 0.542902
1552.61, 0.542735
1553.07, 0.542902
1553.54, 0.543154
1554.0, 0.543321
1554.47, 0.543237
1554.93, 0.543573
1555.4, 0.543908
1555.87, 0.544327
1556.34, 0.544495
1556.8, 0.544243
1557.27, 0.544076
1557.74, 0.544327
1558.21, 0.544998
1558.68, 0.545501
1559.14, 0.545165
1559.61, 0.545081
1560.08, 0.545417
1560.55, 0.545668
1561.02, 0.545417
1561.49, 0.545752
1561.96, 0.545920
1562.43, 0.545920
1562.9, 0.545836
1563.38, 0.546255
1563.85, 0.546758
1564.32, 0.547009
1564.79, 0.546925
1565.26, 0.547093
1565.74, 0.547261
1566.21, 0.547512
1566.68, 0.547596
1567.16, 0.547847
1567.63, 0.547764
1568.1, 0.548099
1568.58, 0.548267
1569.05, 0.548602
1569.53, 0.548686
1570.0, 0.548937
1570.48, 0.548769
1570.96, 0.549105
1571.43, 0.549356
1571.91, 0.549608
1572.39, 0.549608
1572.86, 0.549859
1573.34, 0.550278
1573.82, 0.550446
1574.3, 0.550614
1574.77, 0.550697
1575.25, 0.550530
1575.73, 0.550865
1576.21, 0.551116
1576.69, 0.551368
1577.17, 0.551703
1577.65, 0.551955
1578.13, 0.551787
1578.61, 0.551871
1579.09, 0.552374
1579.57, 0.552793
1580.05, 0.552290
1580.54, 0.552709
1581.02, 0.553044
1581.5, 0.553296
1581.98, 0.553296
1582.47, 0.553547
1582.95, 0.553631
1583.43, 0.554134
1583.92, 0.554218
1584.4, 0.554050
1584.88, 0.553883
1585.37, 0.554469
1585.85, 0.554888
1586.34, 0.555224
1586.82, 0.555307
1587.31, 0.555559
1587.8, 0.555307
1588.28, 0.555056
1588.77, 0.555475
1589.26, 0.555894
1589.74, 0.555894
1590.23, 0.556229
1590.72, 0.556397
1591.21, 0.556732
1591.7, 0.556816
1592.19, 0.556900
1592.67, 0.556900
1593.16, 0.557319
1593.65, 0.557403
1594.14, 0.557571
1594.63, 0.557403
1595.12, 0.557654
1595.61, 0.557906
1596.11, 0.558157
1596.6, 0.557990
1597.09, 0.558157
1597.58, 0.558660
1598.08, 0.558912
1598.57, 0.558828
1599.06, 0.559331
1599.55, 0.559247
1600.05, 0.559331
1600.54, 0.559331
1601.04, 0.559582
1601.53, 0.559750
1602.03, 0.559750
1602.52, 0.559918
1603.02, 0.560504
1603.51, 0.560588
1604.01, 0.560672
1604.5, 0.560923
1605.0, 0.561175
1605.5, 0.560840
1606.0, 0.561007
1606.49, 0.561343
1606.99, 0.561510
1607.49, 0.561762
1607.99, 0.562097
1608.49, 0.562013
1608.99, 0.561929
1609.49, 0.562265
1609.99, 0.562348
1610.49, 0.562181
1610.99, 0.562516
1611.49, 0.562767
1611.99, 0.563019
1612.49, 0.562935
1612.99, 0.563019
1613.49, 0.563019
1614.0, 0.563354
1614.5, 0.563606
1615.0, 0.564025
1615.51, 0.564109
1616.01, 0.564192
1616.51, 0.564109
1617.02, 0.564276
1617.52, 0.564779
1618.03, 0.565031
1618.53, 0.564779
1619.04, 0.564695
1619.54, 0.565031
1620.05, 0.565450
1620.55, 0.565617
1621.06, 0.565534
1621.57, 0.565366
1622.08, 0.565534
1622.58, 0.565953
1623.09, 0.566372
1623.6, 0.566958
1624.11, 0.567126
1624.62, 0.566539
1625.13, 0.566875
1625.64, 0.567042
1626.15, 0.567461
1626.66, 0.567629
1627.17, 0.567964
1627.68, 0.568300
1628.19, 0.568216
1628.7, 0.567797
1629.21, 0.568216
1629.72, 0.568132
1630.24, 0.568383
1630.75, 0.568635
1631.26, 0.568970
1631.78, 0.569222
1632.29, 0.569389
1632.8, 0.569641
1633.32, 0.569892
1633.83, 0.569892
1634.35, 0.570227
1634.86, 0.570311
1635.38, 0.570647
1635.9, 0.570730
1636.41, 0.570898
1636.93, 0.571066
1637.45, 0.571485
1637.96, 0.571569
1638.48, 0.571485
1639.0, 0.571401
1639.52, 0.571820
1640.04, 0.571904
1640.56, 0.571820
1641.08, 0.572155
1641.59, 0.572742
1642.11, 0.572910
1642.63, 0.573161
1643.16, 0.572994
1643.68, 0.573329
1644.2, 0.573580
1644.72, 0.573832
1645.24, 0.573664
1645.76, 0.574083
1646.29, 0.574167
1646.81, 0.573916
1647.33, 0.574167
1647.86, 0.574502
1648.38, 0.574921
1648.9, 0.575005
1649.43, 0.574754
1649.95, 0.575173
1650.48, 0.575676
1651.0, 0.576179
1651.53, 0.576263
1652.06, 0.576263
1652.58, 0.576263
1653.11, 0.576514
1653.64, 0.576430
1654.17, 0.576514
1654.69, 0.576682
1655.22, 0.577017
1655.75, 0.577101
1656.28, 0.576933
1656.81, 0.577185
1657.34, 0.577687
1657.87, 0.577771
1658.4, 0.578023
1658.93, 0.577939
1659.46, 0.578107
1659.99, 0.578442
1660.52, 0.578777
1661.05, 0.578609
1661.59, 0.578693
1662.12, 0.578609
1662.65, 0.578693
1663.19, 0.579112
1663.72, 0.579364
1664.26, 0.579615
1664.79, 0.580034
1665.32, 0.580118
1665.86, 0.580118
1666.39, 0.580202
1666.93, 0.580202
1667.47, 0.580286
1668.0, 0.580873
1668.54, 0.580956
1669.08, 0.581040
1669.61, 0.581208
1670.15, 0.581459
1670.69, 0.581711
1671.23, 0.581795
1671.77, 0.581711
1672.31, 0.581878
1672.85, 0.582046
1673.39, 0.582130
1673.93, 0.581878
1674.47, 0.582130
1675.01, 0.582046
1675.55, 0.582130
1676.09, 0.582298
1676.64, 0.583136
1677.18, 0.583220
1677.72, 0.583303
1678.26, 0.583471
1678.81, 0.583639
1679.35, 0.583722
1679.89, 0.583806
1680.44, 0.583722
1680.98, 0.583974
1681.53, 0.583974
1682.07, 0.584058
1682.62, 0.584142
1683.17, 0.584309
1683.71, 0.584309
1684.26, 0.584309
1684.81, 0.584142
1685.36, 0.584309
1685.9, 0.584728
1686.45, 0.585064
1687.0, 0.584980
1687.55, 0.585231
1688.1, 0.585231
1688.65, 0.585399
1689.2, 0.585399
1689.75, 0.585483
1690.3, 0.585818
1690.85, 0.585902
1691.41, 0.585818
1691.96, 0.585986
1692.51, 0.586153
1693.06, 0.586321
1693.61, 0.586572
1694.17, 0.586824
1694.72, 0.586824
1695.28, 0.586991
1695.83, 0.587243
1696.39, 0.587159
1696.94, 0.586991
1697.5, 0.587494
1698.05, 0.587662
1698.61, 0.587578
1699.17, 0.587746
1699.72, 0.588081
1700.28, 0.588081
1700.84, 0.588081
1701.4, 0.588333
1701.95, 0.588500
1702.51, 0.588500
1703.07, 0.588584
1703.63, 0.588668
1704.19, 0.589087
1704.75, 0.589171
1705.31, 0.589422
1705.88, 0.589422
1706.44, 0.589422
1707.0, 0.589506
1707.56, 0.589758
1708.12, 0.590009
1708.69, 0.590177
1709.25, 0.590009
1709.81, 0.590177
1710.38, 0.590344
1710.94, 0.590596
1711.51, 0.590847
1712.07, 0.591182
1712.64, 0.591266
1713.2, 0.591602
1713.77, 0.592021
1714.34, 0.591853
1714.9, 0.591434
1715.47, 0.591434
1716.04, 0.591518
1716.61, 0.592021
1717.18, 0.592188
1717.74, 0.592356
1718.31, 0.592524
1718.88, 0.592775
1719.45, 0.592691
1720.02, 0.592607
1720.59, 0.592859
1721.17, 0.593194
1721.74, 0.593278
1722.31, 0.593278
1722.88, 0.593446
1723.45, 0.593865
1724.03, 0.594200
1724.6, 0.594368
1725.18, 0.594116
1725.75, 0.594200
1726.33, 0.594200
1726.9, 0.594368
1727.48, 0.594703
1728.05, 0.594871
1728.63, 0.594954
1729.2, 0.595290
1729.78, 0.595373
1730.36, 0.595290
1730.94, 0.595373
1731.51, 0.595541
1732.09, 0.595793
1732.67, 0.596128
1733.25, 0.596295
1733.83, 0.596463
1734.41, 0.596295
1734.99, 0.596631
1735.57, 0.596966
1736.15, 0.596966
1736.73, 0.596966
1737.32, 0.597218
1737.9, 0.597553
1738.48, 0.597804
1739.07, 0.597637
1739.65, 0.597888
1740.23, 0.598056
1740.82, 0.598140
1741.4, 0.598223
1741.99, 0.598223
1742.57, 0.598307
1743.16, 0.598391
1743.74, 0.598475
1744.33, 0.598726
1744.92, 0.598978
1745.51, 0.599062
1746.09, 0.599062
1746.68, 0.599145
1747.27, 0.599313
1747.86, 0.599481
1748.45, 0.599564
1749.04, 0.599648
1749.63, 0.599648
1750.22, 0.599732
1750.81, 0.599900
1751.4, 0.600067
1751.99, 0.600151
1752.59, 0.600235
1753.18, 0.600319
1753.77, 0.600319
1754.37, 0.600319
1754.96, 0.600654
1755.56, 0.601073
1756.15, 0.601325
1756.74, 0.601073
1757.34, 0.601073
1757.94, 0.600989
1758.53, 0.601241
1759.13, 0.601492
1759.73, 0.601828
1760.32, 0.601911
1760.92, 0.601744
1761.52, 0.601576
1762.12, 0.601660
1762.72, 0.601911
1763.32, 0.602331
1763.92, 0.602331
1764.52, 0.602163
1765.12, 0.601995
1765.72, 0.602247
1766.32, 0.602331
1766.92, 0.602666
1767.53, 0.602582
1768.13, 0.602498
1768.73, 0.602498
1769.34, 0.602582
1769.94, 0.602666
1770.55, 0.602833
1771.15, 0.603001
1771.76, 0.603336
1772.36, 0.603504
1772.97, 0.603420
1773.57, 0.603420
1774.18, 0.603923
1774.79, 0.604258
1775.4, 0.604175
1776.0, 0.603923
1776.61, 0.604007
1777.22, 0.604258
1777.83, 0.604594
1778.44, 0.604510
1779.05, 0.604510
1779.66, 0.604761
1780.27, 0.604845
1780.88, 0.604594
1781.5, 0.604594
1782.11, 0.604677
1782.72, 0.604761
1783.33, 0.605013
1783.95, 0.605432
1784.56, 0.605683
1785.18, 0.605851
1785.79, 0.606102
1786.41, 0.606019
1787.02, 0.605683
1787.64, 0.605683
1788.26, 0.605600
1788.87, 0.605851
1789.49, 0.606102
1790.11, 0.606186
1790.73, 0.606019
1791.35, 0.606186
1791.96, 0.606270
1792.58, 0.606438
1793.21, 0.606773
1793.83, 0.607024
1794.45, 0.607024
1795.07, 0.607108
1795.69, 0.606941
1796.31, 0.607192
1796.93, 0.607611
1797.56, 0.607946
1798.18, 0.608030
1798.8, 0.607946
1799.43, 0.607695
1800.05, 0.607695
1800.68, 0.608114
1801.3, 0.608533
1801.93, 0.608449
1802.56, 0.608449
1803.18, 0.608449
1803.81, 0.608282
1804.44, 0.608366
1805.07, 0.608617
1805.7, 0.608533
1806.33, 0.608701
1806.95, 0.609204
1807.58, 0.609707
1808.22, 0.609790
1808.85, 0.609623
1809.48, 0.609371
1810.11, 0.609455
1810.74, 0.609455
1811.38, 0.609455
1812.01, 0.609120
1812.64, 0.609539
1813.28, 0.610042
1813.91, 0.610042
1814.55, 0.609874
1815.18, 0.609958
1815.82, 0.610210
1816.45, 0.610461
1817.09, 0.610629
1817.73, 0.610712
1818.36, 0.610880
1819.0, 0.611215
1819.64, 0.610964
1820.28, 0.611132
1820.92, 0.611048
1821.56, 0.610880
1822.2, 0.611048
1822.84, 0.611467
1823.48, 0.611634
1824.12, 0.611718
1824.76, 0.611802
1825.41, 0.611467
1826.05, 0.610629
1826.69, 0.611132
1827.34, 0.611718
1827.98, 0.611970
1828.63, 0.611886
1829.27, 0.611802
1829.92, 0.611802
1830.56, 0.611718
1831.21, 0.611383
1831.86, 0.611551
1832.5, 0.611551
1833.15, 0.611802
1833.8, 0.611886
1834.45, 0.611802
1835.1, 0.611467
1835.75, 0.611467
1836.4, 0.611970
1837.05, 0.612137
1837.7, 0.611802
1838.35, 0.612389
1839.01, 0.612557
1839.66, 0.612054
1840.31, 0.612221
1840.96, 0.612473
1841.62, 0.612221
1842.27, 0.612640
1842.93, 0.612892
1843.58, 0.613143
1844.24, 0.613562
1844.9, 0.613479
1845.55, 0.613227
1846.21, 0.612976
1846.87, 0.612473
1847.53, 0.612808
1848.18, 0.613059
1848.84, 0.613479
1849.5, 0.613730
1850.16, 0.614317
1850.82, 0.614652
1851.48, 0.614652
1852.14, 0.614736
1852.81, 0.614736
1853.47, 0.614233
1854.13, 0.614568
1854.8, 0.614987
1855.46, 0.614987
1856.12, 0.614652
1856.79, 0.614904
1857.45, 0.615239
1858.12, 0.615406
1858.79, 0.615155
1859.45, 0.614820
1860.12, 0.614820
1860.79, 0.615071
1861.46, 0.615574
1862.12, 0.615742
1862.79, 0.615742
1863.46, 0.615742
1864.13, 0.615742
1864.8, 0.615826
1865.48, 0.615909
1866.15, 0.615826
1866.82, 0.615742
1867.49, 0.615406
1868.16, 0.615574
1868.84, 0.615742
1869.51, 0.615658
1870.19, 0.615323
1870.86, 0.614987
1871.54, 0.615658
1872.21, 0.615490
1872.89, 0.614904
1873.56, 0.615239
1874.24, 0.615658
1874.92, 0.615909
1875.6, 0.615909
1876.28, 0.615323
1876.96, 0.614987
1877.64, 0.615490
1878.32, 0.615826
1879.0, 0.615490
1879.68, 0.615490
1880.36, 0.615406
1881.04, 0.615323
1881.73, 0.615406
1882.41, 0.615406
1883.09, 0.615155
1883.78, 0.615155
1884.46, 0.615406
1885.15, 0.615490
1885.83, 0.615155
1886.52, 0.615071
1887.21, 0.615406
1887.89, 0.615490
1888.58, 0.615406
1889.27, 0.615071
1889.96, 0.614904
1890.65, 0.615323
1891.34, 0.615323
1892.03, 0.614987
1892.72, 0.614652
1893.41, 0.614484
1894.1, 0.614317
1894.79, 0.614149
1895.49, 0.613898
1896.18, 0.613814
1896.87, 0.613814
1897.57, 0.613646
1898.26, 0.613395
1898.96, 0.612557
1899.65, 0.611970
1900.35, 0.612221
1901.05, 0.612557
1901.74, 0.612473
1902.44, 0.611718
1903.14, 0.611383
1903.84, 0.611551
1904.54, 0.611048
1905.24, 0.610712
1905.94, 0.610629
1906.64, 0.610293
1907.34, 0.610210
1908.04, 0.610210
1908.75, 0.610210
1909.45, 0.610210
1910.15, 0.610042
1910.86, 0.609707
1911.56, 0.609790
1912.27, 0.609874
1912.97, 0.609288
1913.68, 0.609120
1914.39, 0.609707
1915.09, 0.609874
1915.8, 0.609455
1916.51, 0.609455
1917.22, 0.609790
1917.93, 0.609874
1918.64, 0.609790
1919.35, 0.609455
1920.06, 0.609455
1920.77, 0.609790
1921.48, 0.610461
1922.19, 0.610712
1922.91, 0.610880
1923.62, 0.610712
1924.33, 0.610964
1925.05, 0.611299
1925.76, 0.611383
1926.48, 0.611299
1927.19, 0.611551
1927.91, 0.611383
1928.63, 0.611467
1929.35, 0.611551
1930.07, 0.611718
1930.78, 0.611886
1931.5, 0.612054
1932.22, 0.612389
1932.94, 0.612640
1933.66, 0.612892
1934.39, 0.612976
1935.11, 0.612892
1935.83, 0.612976
1936.55, 0.613227
1937.28, 0.613562
1938.0, 0.613646
1938.73, 0.613730
1939.45, 0.613646
1940.18, 0.613898
1940.9, 0.614149
1941.63, 0.614233
1942.36, 0.614065
1943.09, 0.614233
1943.81, 0.614401
1944.54, 0.614736
1945.27, 0.614820
1946.0, 0.614987
1946.73, 0.615155
1947.47, 0.615239
1948.2, 0.615574
1948.93, 0.615574
1949.66, 0.615490
1950.4, 0.615490
1951.13, 0.615490
1951.86, 0.615742
1952.6, 0.616077
1953.34, 0.616161
1954.07, 0.615826
1954.81, 0.615658
1955.55, 0.615742
1956.29, 0.615993
1957.02, 0.616161
1957.76, 0.616328
1958.5, 0.616496
1959.24, 0.616831
1959.98, 0.616748
1960.72, 0.616664
1961.47, 0.616831
1962.21, 0.616915
1962.95, 0.616915
1963.7, 0.616831
1964.44, 0.616999
1965.18, 0.616999
1965.93, 0.617250
1966.67, 0.617586
1967.42, 0.617753
1968.17, 0.617250
1968.92, 0.617167
1969.66, 0.617586
1970.41, 0.617670
1971.16, 0.617921
1971.91, 0.618005
1972.66, 0.618005
1973.41, 0.617921
1974.16, 0.617921
1974.92, 0.618005
1975.67, 0.618005
1976.42, 0.617921
1977.18, 0.618005
1977.93, 0.618005
1978.69, 0.618005
1979.44, 0.618256
1980.2, 0.618508
1980.95, 0.618508
1981.71, 0.618508
1982.47, 0.618424
1983.23, 0.618424
1983.99, 0.618508
1984.74, 0.618927
1985.51, 0.619094
1986.27, 0.619262
1987.03, 0.619597
1987.79, 0.619430
1988.55, 0.619094
1989.32, 0.619178
1990.08, 0.619514
1990.84, 0.619514
1991.61, 0.619262
1992.37, 0.619514
1993.14, 0.619765
1993.9, 0.619933
1994.67, 0.619849
1995.44, 0.620017
1996.21, 0.620100
1996.98, 0.620184
1997.75, 0.620352
1998.52, 0.620687
1999.29, 0.620771
2000.06, 0.620687
2000.83, 0.620519
2001.6, 0.620771
2002.38, 0.620855
2003.15, 0.620939
2003.93, 0.621190
2004.7, 0.621106
2005.48, 0.620855
2006.25, 0.620855
2007.03, 0.620939
2007.81, 0.621106
2008.58, 0.621274
2009.36, 0.621441
2010.14, 0.621609
2010.92, 0.621693
2011.7, 0.621609
2012.48, 0.621609
2013.26, 0.621693
2014.05, 0.621861
2014.83, 0.621944
2015.61, 0.622028
2016.4, 0.622112
2017.18, 0.622112
2017.97, 0.622112
2018.75, 0.622196
2019.54, 0.622280
2020.32, 0.622280
2021.11, 0.622280
2021.9, 0.622447
2022.69, 0.622447
2023.48, 0.622531
2024.27, 0.622699
2025.06, 0.622783
2025.85, 0.622866
2026.64, 0.622950
2027.44, 0.623034
2028.23, 0.622950
2029.02, 0.622950
2029.82, 0.622950
2030.61, 0.622866
2031.41, 0.623034
2032.2, 0.623202
2033.0, 0.623369
2033.8, 0.623453
2034.6, 0.623369
2035.4, 0.623369
2036.2, 0.623369
2037.0, 0.623453
2037.8, 0.623621
2038.6, 0.623537
2039.4, 0.623453
2040.2, 0.623705
2041.01, 0.623788
2041.81, 0.623621
2042.61, 0.623621
2043.42, 0.623621
2044.22, 0.623621
2045.03, 0.623872
2045.84, 0.624040
2046.65, 0.624124
2047.46, 0.624040
2048.26, 0.623872
2049.07, 0.623788
2049.88, 0.624124
2050.69, 0.624207
2051.51, 0.623956
2052.32, 0.623788
2053.13, 0.624040
2053.94, 0.624291
2054.76, 0.624207
2055.57, 0.624207
2056.39, 0.624124
2057.2, 0.624207
2058.02, 0.624207
2058.84, 0.624124
2059.66, 0.624207
2060.48, 0.624207
2061.29, 0.623956
2062.11, 0.624291
2062.94, 0.624291
2063.76, 0.624291
2064.58, 0.624291
2065.4, 0.624207
2066.22, 0.624040
2067.05, 0.624207
2067.87, 0.624124
2068.7, 0.623872
2069.52, 0.623788
2070.35, 0.623956
2071.18, 0.623956
2072.0, 0.624040
2072.83, 0.623956
2073.66, 0.623537
2074.49, 0.623369
2075.32, 0.623621
2076.15, 0.623453
2076.98, 0.623285
2077.82, 0.623034
2078.65, 0.622866
2079.48, 0.622783
2080.32, 0.622866
2081.15, 0.622866
2081.99, 0.622699
2082.83, 0.622447
2083.66, 0.622112
2084.5, 0.621944
2085.34, 0.621944
2086.18, 0.621777
2087.02, 0.621441
2087.86, 0.620939
2088.7, 0.620603
2089.54, 0.620268
2090.39, 0.620100
2091.23, 0.619933
2092.07, 0.619597
2092.92, 0.618843
2093.76, 0.618508
2094.61, 0.618256
2095.45, 0.618172
2096.3, 0.617753
2097.15, 0.617167
2098.0, 0.616664
2098.85, 0.616496
2099.7, 0.616245
2100.55, 0.615909
2101.4, 0.615658
2102.25, 0.615071
2103.1, 0.614401
2103.96, 0.614317
2104.81, 0.613730
2105.67, 0.613311
2106.52, 0.613311
2107.38, 0.613143
2108.24, 0.612640
2109.09, 0.612305
2109.95, 0.611886
2110.81, 0.611467
2111.67, 0.611132
2112.53, 0.610629
2113.39, 0.610377
2114.25, 0.610126
2115.12, 0.609707
2115.98, 0.609539
2116.84, 0.609371
2117.71, 0.608952
2118.58, 0.608533
2119.44, 0.608449
2120.31, 0.608282
2121.18, 0.608198
2122.04, 0.608449
2122.91, 0.608449
2123.78, 0.608198
2124.65, 0.608282
2125.52, 0.608366
2126.4, 0.608366
2127.27, 0.608198
2128.14, 0.608449
2129.02, 0.608701
2129.89, 0.608617
2130.77, 0.608701
2131.64, 0.608617
2132.52, 0.608617
2133.4, 0.608868
2134.27, 0.608868
2135.15, 0.608701
2136.03, 0.608449
2136.91, 0.608449
2137.79, 0.608533
2138.68, 0.608198
2139.56, 0.607946
2140.44, 0.607779
2141.33, 0.607276
2142.21, 0.607276
2143.1, 0.607024
2143.99, 0.606689
2144.87, 0.606354
2145.76, 0.606186
2146.65, 0.605851
2147.54, 0.605348
2148.43, 0.604761
2149.32, 0.604258
2150.21, 0.603420
2151.1, 0.602917
2151.99, 0.602414
2152.89, 0.601828
2153.78, 0.600989
2154.68, 0.600319
2155.57, 0.599732
2156.47, 0.598894
2157.37, 0.597804
2158.27, 0.596966
2159.16, 0.595793
2160.06, 0.594703
2160.96, 0.593613
2161.86, 0.592356
2162.77, 0.591266
2163.67, 0.590344
2164.57, 0.588919
2165.48, 0.587327
2166.38, 0.585566
2167.29, 0.583722
2168.2, 0.581711
2169.1, 0.579951
2170.01, 0.577687
2170.92, 0.575341
2171.83, 0.572658
2172.74, 0.570060
2173.65, 0.567210
2174.56, 0.564025
2175.47, 0.560421
2176.39, 0.556732
2177.3, 0.552709
2178.22, 0.548686
2179.13, 0.544495
2180.05, 0.540052
2180.96, 0.535191
2181.88, 0.530161
2182.8, 0.524881
2183.72, 0.519852
2184.64, 0.514739
2185.56, 0.509626
2186.48, 0.504261
2187.41, 0.498813
2188.33, 0.493532
2189.25, 0.488503
2190.18, 0.483809
2191.1, 0.479367
2192.03, 0.475259
2192.96, 0.471823
2193.89, 0.468805
2194.82, 0.466291
2195.74, 0.464614
2196.68, 0.463692
2197.61, 0.463022
2198.54, 0.462938
2199.47, 0.463189
2200.4, 0.464195
2201.34, 0.465620
2202.28, 0.467296
2203.21, 0.469979
2204.15, 0.472996
2205.08, 0.476265
2206.02, 0.479786
2206.96, 0.483641
2207.9, 0.487832
2208.84, 0.492107
2209.78, 0.496801
2210.73, 0.501579
2211.67, 0.506273
2212.61, 0.510715
2213.56, 0.515242
2214.5, 0.519600
2215.45, 0.523791
2216.4, 0.527395
2217.35, 0.530916
2218.3, 0.534352
2219.24, 0.537454
2220.2, 0.539968
2221.15, 0.542399
2222.1, 0.544579
2223.05, 0.546339
2224.0, 0.547512
2224.96, 0.548937
2225.91, 0.550278
2226.87, 0.551284
2227.83, 0.551871
2228.79, 0.552541
2229.74, 0.553380
2230.7, 0.554134
2231.66, 0.554805
2232.63, 0.555643
2233.59, 0.556481
2234.55, 0.557571
2235.51, 0.558744
2236.48, 0.559834
2237.44, 0.560756
2238.41, 0.562097
2239.38, 0.563187
2240.34, 0.564276
2241.31, 0.565534
2242.28, 0.566791
2243.25, 0.567881
2244.22, 0.569222
2245.19, 0.570395
2246.17, 0.571401
2247.14, 0.572323
2248.12, 0.573161
2249.09, 0.573999
2250.07, 0.574754
2251.04, 0.575424
2252.02, 0.576011
2253.0, 0.576682
2253.98, 0.577352
2254.96, 0.577687
2255.94, 0.577939
2256.92, 0.578274
2257.91, 0.578609
2258.89, 0.579029
2259.88, 0.579531
2260.86, 0.580034
2261.85, 0.580286
2262.83, 0.580453
2263.82, 0.580621
2264.81, 0.580956
2265.8, 0.581124
2266.79, 0.581375
2267.78, 0.581711
2268.78, 0.581795
2269.77, 0.581962
2270.76, 0.582130
2271.76, 0.582381
2272.75, 0.582381
2273.75, 0.582381
2274.75, 0.582549
2275.75, 0.582800
2276.75, 0.582633
2277.75, 0.582381
2278.75, 0.582381
2279.75, 0.582549
2280.75, 0.582465
2281.76, 0.582130
2282.76, 0.582046
2283.77, 0.582214
2284.77, 0.582214
2285.78, 0.582046
2286.79, 0.581627
2287.8, 0.581292
2288.81, 0.581040
2289.82, 0.580789
2290.83, 0.580370
2291.84, 0.579867
2292.86, 0.579364
2293.87, 0.578693
2294.89, 0.578023
2295.91, 0.577352
2296.92, 0.576682
2297.94, 0.575760
2298.96, 0.574838
2299.98, 0.573832
2301.0, 0.572826
2302.02, 0.571904
2303.04, 0.570898
2304.07, 0.569892
2305.09, 0.568383
2306.12, 0.567294
2307.15, 0.566204
2308.17, 0.565114
2309.2, 0.563857
2310.23, 0.562432
2311.26, 0.561091
2312.29, 0.559750
2313.32, 0.558409
2314.35, 0.557151
2315.39, 0.555810
2316.42, 0.554302
2317.46, 0.552541
2318.5, 0.550949
2319.53, 0.549356
2320.57, 0.547847
2321.61, 0.546171
2322.65, 0.544327
2323.69, 0.542483
2324.73, 0.540555
2325.78, 0.538627
2326.82, 0.536951
2327.86, 0.535023
2328.91, 0.533179
2329.96, 0.531251
2331.01, 0.529407
2332.05, 0.527647
2333.1, 0.525719
2334.15, 0.523959
2335.21, 0.522534
2336.26, 0.520941
2337.31, 0.519349
2338.36, 0.517840
2339.42, 0.516415
2340.48, 0.515074
2341.53, 0.513984
2342.59, 0.512978
2343.65, 0.511973
2344.71, 0.511302
2345.77, 0.510715
2346.83, 0.510045
2347.9, 0.509542
2348.96, 0.509458
2350.02, 0.509626
2351.09, 0.509793
2352.16, 0.510212
2353.23, 0.510631
2354.29, 0.511302
2355.36, 0.511973
2356.43, 0.512895
2357.51, 0.513733
2358.58, 0.514655
2359.65, 0.515242
2360.73, 0.515996
2361.8, 0.516415
2362.88, 0.516834
2363.96, 0.517337
2365.03, 0.517421
2366.11, 0.517505
2367.19, 0.517756
2368.27, 0.517672
2369.36, 0.517756
2370.44, 0.517588
2371.53, 0.517253
2372.61, 0.516834
2373.7, 0.516666
2374.78, 0.516415
2375.87, 0.516080
2376.96, 0.515744
2378.05, 0.515325
2379.14, 0.514822
2380.24, 0.514739
2381.33, 0.514487
2382.42, 0.514152
2383.52, 0.513984
2384.61, 0.514068
2385.71, 0.514236
2386.81, 0.514236
2387.91, 0.514319
2389.01, 0.514487
2390.11, 0.514403
2391.22, 0.514822
2392.32, 0.514990
2393.42, 0.514906
2394.53, 0.514822
2395.64, 0.514990
2396.74, 0.514822
2397.85, 0.514571
2398.96, 0.514152
2400.07, 0.513984
2401.18, 0.513817
2402.3, 0.513481
2403.41, 0.512895
2404.52, 0.511973
2405.64, 0.511051
2406.76, 0.510380
2407.88, 0.509542
2408.99, 0.508452
2410.11, 0.507027
2411.23, 0.505938
2412.36, 0.504764
2413.48, 0.503255
2414.6, 0.501747
2415.73, 0.500657
2416.85, 0.499400
2417.98, 0.498142
2419.11, 0.496550
2420.24, 0.495125
2421.37, 0.493951
2422.5, 0.492694
2423.64, 0.491437
2424.77, 0.490179
2425.9, 0.488754
2427.04, 0.487413
2428.18, 0.486324
2429.31, 0.485150
2430.45, 0.484228
2431.59, 0.483474
2432.73, 0.482552
2433.88, 0.481881
2435.02, 0.481211
2436.16, 0.480708
2437.31, 0.480121
2438.45, 0.479786
2439.6, 0.479786
2440.75, 0.479869
2441.9, 0.479953
2443.05, 0.480205
2444.2, 0.480456
2445.35, 0.480959
2446.51, 0.481462
2447.67, 0.481965
2448.82, 0.482384
2449.98, 0.482803
2451.14, 0.483390
2452.3, 0.483977
2453.46, 0.484480
2454.62, 0.485150
2455.78, 0.485737
2456.94, 0.486407
2458.11, 0.487246
2459.28, 0.488168
2460.44, 0.488754
2461.61, 0.489593
2462.78, 0.490431
2463.95, 0.491185
2465.12, 0.491940
2466.3, 0.492610
2467.47, 0.493448
2468.65, 0.493951
2469.82, 0.494454
2471.0, 0.495292
2472.18, 0.495711
2473.36, 0.496131
2474.54, 0.496717
2475.72, 0.497136
2476.9, 0.497388
2478.08, 0.497891
2479.27, 0.498394
2480.46, 0.498980
2481.64, 0.499232
2482.83, 0.499567
2484.02, 0.499735
2485.21, 0.500070
2486.4, 0.500238
2487.6, 0.500405
2488.79, 0.500573
2489.99, 0.500825
2491.18, 0.500908
2492.38, 0.501160
2493.58, 0.501495
2494.78, 0.501830
2495.98, 0.501998
2497.18, 0.502417
2498.39, 0.503004
2499.59, 0.503674
2500.8, 0.504261
2502.01, 0.504764
2503.21, 0.505267
2504.42, 0.506105
2505.63, 0.506860
2506.84, 0.507614
2508.06, 0.508368
2509.27, 0.509123
2510.49, 0.509793
2511.7, 0.510715
2512.92, 0.511302
2514.14, 0.512056
2515.36, 0.512895
2516.58, 0.513817
2517.8, 0.514655
2519.03, 0.515493
2520.25, 0.516247
2521.48, 0.517002
2522.7, 0.517588
2523.93, 0.518175
2525.16, 0.518846
2526.39, 0.519684
2527.62, 0.520187
2528.86, 0.520774
2530.09, 0.521193
2531.33, 0.521444
2532.56, 0.521779
2533.8, 0.522282
2535.04, 0.522199
2536.28, 0.522199
2537.52, 0.522785
2538.76, 0.523121
2540.01, 0.523121
2541.25, 0.522869
2542.5, 0.522366
2543.75, 0.522366
2544.99, 0.522534
2546.24, 0.522199
2547.49, 0.521277
2548.75, 0.521193
2550.0, 0.520438
2551.26, 0.519516
2552.51, 0.518846
2553.77, 0.519265
2555.03, 0.519265
2556.29, 0.518846
2557.55, 0.518175
2558.81, 0.517169
2560.08, 0.514906
2561.34, 0.513146
2562.61, 0.512475
2563.88, 0.512224
2565.14, 0.512978
2566.41, 0.513481
2567.68, 0.512308
2568.96, 0.510296
2570.23, 0.510128
2571.51, 0.510296
2572.78, 0.507782
2574.06, 0.508033
2575.34, 0.508536
2576.62, 0.507530
2577.9, 0.508033
2579.18, 0.508284
2580.47, 0.506860
2581.75, 0.506021
2583.04, 0.503423
2584.32, 0.503423
2585.61, 0.504680
2586.9, 0.503339
2588.2, 0.503255
2589.49, 0.503674
2590.78, 0.503758
2592.08, 0.502082
2593.37, 0.495544
2594.67, 0.490850
2595.97, 0.494706
2597.27, 0.498310
2598.57, 0.498645
2599.88, 0.497136
2601.18, 0.495209
2602.49, 0.493784
2603.79, 0.491353
2605.1, 0.488503
2606.41, 0.489760
2607.72, 0.491101
2609.03, 0.490850
2610.35, 0.491185
2611.66, 0.491353
2612.98, 0.490766
2614.3, 0.490431
2615.62, 0.487916
2616.94, 0.486827
2618.26, 0.488587
2619.58, 0.486491
2620.91, 0.487078
2622.23, 0.489844
2623.56, 0.490179
2624.89, 0.489006
2626.22, 0.486743
2627.55, 0.488084
2628.88, 0.487078
2630.21, 0.484563
2631.55, 0.487246
2632.89, 0.488503
2634.22, 0.488419
2635.56, 0.489257
2636.9, 0.489341
2638.25, 0.489090
2639.59, 0.488587
2640.93, 0.487832
2642.28, 0.487162
2643.63, 0.486575
2644.98, 0.485066
2646.33, 0.484396
2647.68, 0.484144
2649.03, 0.483390
2650.39, 0.481630
2651.74, 0.478780
2653.1, 0.477187
2654.46, 0.476014
2655.82, 0.474170
2657.18, 0.472829
2658.54, 0.469811
2659.9, 0.467213
2661.27, 0.465201
2662.64, 0.462519
2664.01, 0.456735
2665.38, 0.452041
2666.74, 0.450197
2668.12, 0.449443
2669.49, 0.443408
2670.87, 0.440726
2672.24, 0.442486
2673.62, 0.439887
2675.0, 0.435110
2676.38, 0.430667
2677.76, 0.428488
2679.15, 0.425806
2680.54, 0.424548
2681.92, 0.421363
2683.31, 0.417172
2684.7, 0.413484
2686.09, 0.409628
2687.48, 0.405521
2688.88, 0.401163
2690.27, 0.396385
2691.67, 0.390685
2693.07, 0.383141
2694.47, 0.376939
2695.87, 0.371742
2697.27, 0.366042
2698.67, 0.358750
2700.08, 0.350116
2701.49, 0.341231
2702.9, 0.332179
2704.31, 0.321114
2705.72, 0.308625
2707.13, 0.294124
2708.54, 0.277444
2709.96, 0.258501
2711.38, 0.239138
2712.8, 0.219608
2714.22, 0.198067
2715.64, 0.175938
2717.06, 0.154313
2718.49, 0.133861
2719.91, 0.115001
2721.34, 0.0994110
2722.77, 0.0865020
2724.2, 0.0751870
2725.63, 0.0664690
2727.07, 0.0594280
2728.5, 0.0538120
2729.94, 0.0492020
2731.38, 0.0456820
2732.82, 0.0432510
2734.26, 0.0415750
2735.7, 0.0402340
2737.15, 0.0393950
2738.59, 0.0382220
2740.04, 0.0372160
2741.49, 0.0366290
2742.94, 0.0363780
2744.39, 0.0360430
2745.84, 0.0357070
2747.3, 0.0352040
2748.76, 0.0347850
2750.21, 0.0340310
2751.67, 0.0334440
2753.14, 0.0329410
2754.6, 0.0328570
2756.06, 0.0331090
2757.53, 0.0337790
2759.0, 0.0346180
2760.46, 0.0356230
2761.94, 0.0367970
2763.41, 0.0383900
2764.88, 0.0402340
2766.36, 0.0421610
2767.83, 0.0445080
2769.31, 0.0471070
2770.79, 0.0498730
2772.27, 0.0529740
2773.76, 0.0561590
2775.24, 0.0591770
2776.73, 0.0624460
2778.22, 0.0657150
2779.71, 0.0691510
2781.2, 0.0731750
2782.69, 0.0776170
2784.18, 0.0823110
2785.68, 0.0873400
2787.18, 0.0932080
2788.68, 0.0995780
2790.18, 0.106451
2791.68, 0.113325
2793.19, 0.120282
2794.69, 0.127323
2796.2, 0.134112
2797.71, 0.140566
2799.22, 0.146853
2800.73, 0.152720
2802.24, 0.158085
2803.76, 0.163533
2805.28, 0.168813
2806.8, 0.173591
2808.32, 0.177950
2809.84, 0.181889
2811.36, 0.185242
2812.89, 0.188092
2814.42, 0.190691
2815.94, 0.193121
2817.48, 0.194965
2819.01, 0.196642
2820.54, 0.198150
2822.08, 0.199156
2823.61, 0.200162
2825.15, 0.201084
2826.69, 0.201755
2828.23, 0.202425
2829.78, 0.202844
2831.32, 0.203180
2832.87, 0.203431
2834.42, 0.203766
2835.97, 0.204186
2837.52, 0.204437
2839.08, 0.204772
2840.63, 0.205275
2842.19, 0.205610
2843.75, 0.205946
2845.31, 0.206197
2846.87, 0.206365
2848.44, 0.206449
2850.0, 0.206616
2851.57, 0.206700
2853.14, 0.206700
2854.71, 0.206616
2856.28, 0.206532
2857.86, 0.206532
2859.43, 0.206281
2861.01, 0.206113
2862.59, 0.205778
2864.17, 0.205443
2865.76, 0.205024
2867.34, 0.204605
2868.93, 0.204102
2870.52, 0.203515
2872.11, 0.203263
2873.7, 0.203012
2875.29, 0.202677
2876.89, 0.202425
2878.49, 0.202090
2880.08, 0.201671
2881.69, 0.201336
2883.29, 0.201168
2884.89, 0.201168
2886.5, 0.200749
2888.11, 0.200330
2889.72, 0.200162
2891.33, 0.199995
2892.94, 0.199995
2894.56, 0.199827
2896.17, 0.199659
2897.79, 0.199492
2899.42, 0.199156
2901.04, 0.199156
2902.66, 0.199240
2904.29, 0.199324
2905.92, 0.199575
2907.55, 0.199659
2909.18, 0.199575
2910.81, 0.199743
2912.45, 0.200078
2914.08, 0.200330
2915.72, 0.200581
2917.36, 0.200749
2919.01, 0.201000
2920.65, 0.201336
2922.3, 0.201587
2923.94, 0.201922
2925.59, 0.202258
2927.25, 0.202509
2928.9, 0.202928
2930.56, 0.203263
2932.21, 0.203599
2933.87, 0.203850
2935.53, 0.204437
2937.2, 0.204772
2938.86, 0.204940
2940.53, 0.205108
2942.2, 0.205527
2943.87, 0.206113
2945.54, 0.206449
2947.22, 0.206700
2948.89, 0.207119
2950.57, 0.207371
2952.25, 0.207622
2953.93, 0.207874
2955.62, 0.208125
2957.3, 0.208544
2958.99, 0.208796
2960.68, 0.209131
2962.37, 0.209382
2964.07, 0.209550
2965.76, 0.210053
2967.46, 0.210723
2969.16, 0.210975
2970.86, 0.211226
2972.56, 0.211645
2974.27, 0.212148
2975.98, 0.212316
2977.69, 0.212568
2979.4, 0.212903
2981.11, 0.213322
2982.83, 0.213825
2984.54, 0.214160
2986.26, 0.214663
2987.98, 0.215082
2989.71, 0.215417
2991.43, 0.215836
2993.16, 0.216339
2994.89, 0.216759
2996.62, 0.217178
2998.35, 0.217429
3000.09, 0.217764
3001.83, 0.218267
3003.57, 0.218686
3005.31, 0.219022
3007.05, 0.219441
3008.79, 0.219944
3010.54, 0.220279
3012.29, 0.220614
3014.04, 0.220866
3015.8, 0.221285
3017.55, 0.221704
3019.31, 0.221955
3021.07, 0.222207
3022.83, 0.222542
3024.59, 0.222877
3026.36, 0.223296
3028.13, 0.223632
3029.9, 0.224135
3031.67, 0.224638
3033.44, 0.224889
3035.22, 0.225141
3037.0, 0.225476
3038.78, 0.225811
3040.56, 0.226146
3042.34, 0.226565
3044.13, 0.226901
3045.92, 0.227320
3047.71, 0.227739
3049.5, 0.228074
3051.3, 0.228493
3053.09, 0.228912
3054.89, 0.229415
3056.69, 0.229667
3058.5, 0.230086
3060.3, 0.230589
3062.11, 0.230924
3063.92, 0.231259
3065.73, 0.231595
3067.55, 0.232098
3069.36, 0.232600
3071.18, 0.232936
3073.0, 0.233271
3074.82, 0.233858
3076.65, 0.234277
3078.48, 0.234696
3080.31, 0.235031
3082.14, 0.235534
3083.97, 0.236037
3085.8, 0.236540
3087.64, 0.237043
3089.48, 0.237378
3091.33, 0.237965
3093.17, 0.238300
3095.02, 0.238803
3096.87, 0.239390
3098.72, 0.239809
3100.57, 0.240312
3102.43, 0.240815
3104.28, 0.241485
3106.14, 0.242156
3108.01, 0.242659
3109.87, 0.243162
3111.74, 0.243749
3113.61, 0.244251
3115.48, 0.244922
3117.35, 0.245509
3119.23, 0.245928
3121.1, 0.246682
3122.98, 0.247520
3124.87, 0.248107
3126.75, 0.248610
3128.64, 0.249197
3130.53, 0.249951
3132.42, 0.250622
3134.31, 0.251460
3136.21, 0.252214
3138.11, 0.252633
3140.01, 0.253220
3141.91, 0.254058
3143.82, 0.254813
3145.73, 0.255567
3147.64, 0.256154
3149.55, 0.256908
3151.46, 0.257579
3153.38, 0.258249
3155.3, 0.259004
3157.22, 0.259507
3159.14, 0.260177
3161.07, 0.261015
3163.0, 0.261686
3164.93, 0.262357
3166.86, 0.263111
3168.8, 0.263698
3170.74, 0.264284
3172.68, 0.265039
3174.62, 0.265709
3176.56, 0.266548
3178.51, 0.267302
3180.46, 0.267973
3182.42, 0.268559
3184.37, 0.269314
3186.33, 0.270236
3188.29, 0.270906
3190.25, 0.271577
3192.21, 0.272247
3194.18, 0.273169
3196.15, 0.274008
3198.12, 0.274846
3200.09, 0.275600
3202.07, 0.276355
3204.05, 0.277109
3206.03, 0.277696
3208.02, 0.278450
3210.0, 0.279372
3211.99, 0.280210
3213.98, 0.281048
3215.98, 0.281887
3217.97, 0.282641
3219.97, 0.283479
3221.97, 0.284401
3223.98, 0.285156
3225.98, 0.285826
3227.99, 0.286664
3230.0, 0.287503
3232.02, 0.288341
3234.03, 0.289263
3236.05, 0.290017
3238.07, 0.290772
3240.1, 0.291694
3242.12, 0.292364
3244.15, 0.293035
3246.18, 0.293957
3248.22, 0.294711
3250.25, 0.295549
3252.29, 0.296387
3254.33, 0.297142
3256.38, 0.297980
3258.43, 0.298902
3260.47, 0.299740
3262.53, 0.300495
3264.58, 0.301165
3266.64, 0.301920
3268.7, 0.302590
3270.76, 0.303428
3272.82, 0.304267
3274.89, 0.305105
3276.96, 0.305859
3279.04, 0.306614
3281.11, 0.307452
3283.19, 0.308206
3285.27, 0.308877
3287.35, 0.309631
3289.44, 0.310302
3291.53, 0.311224
3293.62, 0.311894
3295.71, 0.312397
3297.81, 0.312900
3299.91, 0.313487
3302.01, 0.314157
3304.11, 0.314744
3306.22, 0.315247
3308.33, 0.315918
3310.44, 0.316588
3312.56, 0.317259
3314.68, 0.318097
3316.8, 0.318767
3318.92, 0.319187
3321.05, 0.319773
3323.18, 0.320360
3325.31, 0.320863
3327.44, 0.321450
3329.58, 0.322036
3331.72, 0.322456
3333.86, 0.322791
3336.01, 0.323210
3338.16, 0.323461
3340.31, 0.323797
3342.46, 0.323964
3344.61, 0.324048
3346.77, 0.324216
3348.94, 0.324132
3351.1, 0.323880
3353.27, 0.323545
3355.44, 0.323126
3357.61, 0.322456
3359.79, 0.321701
3361.97, 0.320695
3364.15, 0.319270
3366.33, 0.317678
3368.52, 0.316253
3370.71, 0.315247
3372.9, 0.314493
3375.1, 0.314325
3377.3, 0.315079
3379.5, 0.316085
3381.71, 0.317510
3383.91, 0.319103
3386.12, 0.320528
3388.34, 0.321701
3390.55, 0.322456
3392.77, 0.322707
3394.99, 0.322623
3397.22, 0.322120
3399.45, 0.321450
3401.68, 0.320528
3403.91, 0.319438
3406.15, 0.318348
3408.39, 0.317343
3410.63, 0.316588
3412.87, 0.316085
3415.12, 0.316085
3417.37, 0.317091
3419.63, 0.318767
3421.88, 0.320863
3424.14, 0.323294
3426.41, 0.325976
3428.67, 0.328574
3430.94, 0.330754
3433.21, 0.332765
3435.49, 0.334777
3437.77, 0.336621
3440.05, 0.338214
3442.33, 0.339806
3444.62, 0.341567
3446.91, 0.343243
3449.2, 0.344584
3451.5, 0.346009
3453.8, 0.347434
3456.1, 0.348691
3458.41, 0.349865
3460.72, 0.350703
3463.03, 0.351625
3465.34, 0.352295
3467.66, 0.352715
3469.98, 0.352798
3472.31, 0.352882
3474.63, 0.352882
3476.96, 0.352966
3479.3, 0.353385
3481.64, 0.354056
3483.97, 0.354559
3486.32, 0.355062
3488.66, 0.355648
3491.01, 0.355732
3493.36, 0.355648
3495.72, 0.355564
3498.08, 0.355648
3500.44, 0.356067
3502.81, 0.357241
3505.18, 0.359420
3507.55, 0.362102
3509.92, 0.365120
3512.3, 0.368221
3514.68, 0.371155
3517.06, 0.374005
3519.45, 0.376687
3521.84, 0.379034
3524.24, 0.381213
3526.64, 0.383393
3529.04, 0.385488
3531.44, 0.387248
3533.85, 0.389009
3536.26, 0.390517
3538.67, 0.391775
3541.09, 0.392948
3543.51, 0.394122
3545.93, 0.395127
3548.36, 0.396133
3550.79, 0.397223
3553.22, 0.398396
3555.66, 0.399318
3558.1, 0.400241
3560.54, 0.401079
3562.99, 0.402168
3565.44, 0.403090
3567.9, 0.403929
3570.35, 0.404683
3572.81, 0.405605
3575.28, 0.406443
3577.75, 0.407114
3580.22, 0.407868
3582.69, 0.408706
3585.17, 0.409628
3587.65, 0.410550
3590.14, 0.411305
3592.62, 0.412059
3595.11, 0.412646
3597.61, 0.413316
3600.11, 0.413903
3602.61, 0.414574
3605.11, 0.415160
3607.62, 0.415747
3610.14, 0.416334
3612.65, 0.417004
3615.17, 0.417340
3617.69, 0.417843
3620.22, 0.418513
3622.75, 0.419100
3625.28, 0.419603
3627.82, 0.419771
3630.36, 0.420022
3632.9, 0.420525
3635.45, 0.420860
3638.0, 0.421195
3640.56, 0.421531
3643.12, 0.422034
3645.68, 0.422285
3648.24, 0.422788
3650.81, 0.423207
3653.39, 0.423794
3655.96, 0.424381
3658.54, 0.425051
3661.13, 0.425470
3663.71, 0.425889
3666.3, 0.426309
3668.9, 0.426728
3671.5, 0.427231
3674.1, 0.428069
3676.7, 0.428739
3679.31, 0.429075
3681.93, 0.429661
3684.54, 0.430416
3687.17, 0.431002
3689.79, 0.431505
3692.42, 0.432008
3695.05, 0.432511
3697.69, 0.432846
3700.32, 0.433266
3702.97, 0.433601
3705.61, 0.434104
3708.27, 0.434774
3710.92, 0.435277
3713.58, 0.435780
3716.24, 0.436535
3718.91, 0.437121
3721.58, 0.437792
3724.25, 0.438546
3726.93, 0.439217
3729.61, 0.439887
3732.29, 0.440726
3734.98, 0.441396
3737.67, 0.441983
3740.37, 0.442737
3743.07, 0.443659
3745.78, 0.444497
3748.49, 0.445419
3751.2, 0.446174
3753.91, 0.446844
3756.63, 0.447515
3759.36, 0.448102
3762.09, 0.448437
3764.82, 0.448940
3767.55, 0.449443
3770.29, 0.450113
3773.04, 0.450532
3775.78, 0.450952
3778.54, 0.451119
3781.29, 0.451538
3784.05, 0.451790
3786.82, 0.451874
3789.59, 0.451874
3792.36, 0.452293
3795.13, 0.452544
3797.92, 0.452628
3800.7, 0.452796
3803.49, 0.452963
3806.28, 0.453215
3809.08, 0.453634
3811.88, 0.453969
3814.68, 0.454472
3817.49, 0.454975
3820.31, 0.455226
3823.12, 0.455646
3825.94, 0.456065
3828.77, 0.456316
3831.6, 0.456735
3834.43, 0.456903
3837.27, 0.456987
3840.11, 0.457238
3842.96, 0.457490
3845.81, 0.457322
3848.67, 0.457154
3851.53, 0.456819
3854.39, 0.456651
3857.26, 0.456400
3860.13, 0.456316
3863.01, 0.456316
3865.89, 0.456400
3868.77, 0.456316
3871.66, 0.456316
3874.55, 0.456316
3877.45, 0.456484
3880.35, 0.456568
3883.26, 0.456903
3886.17, 0.457070
3889.09, 0.456987
3892.01, 0.456903
3894.93, 0.456651
3897.86, 0.456400
3900.79, 0.456232
3903.73, 0.455981
3906.67, 0.455562
3909.62, 0.454975
3912.57, 0.454807
3915.52, 0.454640
3918.48, 0.454556
3921.45, 0.454304
3924.42, 0.454221
3927.39, 0.453801
3930.37, 0.453718
3933.35, 0.453634
3936.34, 0.453550
3939.33, 0.453047
3942.32, 0.452712
3945.32, 0.452460
3948.33, 0.452209
3951.34, 0.451706
3954.35, 0.451287
3957.37, 0.450700
3960.39, 0.450365
3963.42, 0.450449
3966.45, 0.450784
3969.49, 0.451119
3972.53, 0.451622
3975.58, 0.452125
3978.63, 0.452796
3981.68, 0.453382
3984.75, 0.453969
3987.81, 0.454388
3990.88, 0.454807
3993.95, 0.455059
3997.03, 0.455729
4000.12, 0.456400
4003.21, 0.456819
4006.3, 0.457238
4009.4, 0.457573
4012.5, 0.457657
4015.61, 0.457909
4018.72, 0.458076
4021.84, 0.457992
4024.96, 0.458244
4028.09, 0.458495
4031.22, 0.458244
4034.36, 0.458244
4037.5, 0.458244
4040.65, 0.458328
4043.8, 0.458328
4046.96, 0.458244
4050.12, 0.458412
4053.29, 0.458495
4056.46, 0.458244
4059.64, 0.458328
4062.82, 0.458328
4066.0, 0.458328
4069.19, 0.458244
4072.39, 0.458244
4075.59, 0.458328
4078.8, 0.458244
4082.01, 0.458244
4085.23, 0.458328
4088.45, 0.458160
4091.68, 0.457992
4094.91, 0.457825
4098.15, 0.457992
4101.39, 0.457909
4104.63, 0.457825
4107.89, 0.457992
4111.14, 0.457909
4114.41, 0.457909
4117.67, 0.458076
4120.95, 0.457909
4124.23, 0.458076
4127.51, 0.458244
4130.8, 0.458160
4134.09, 0.457909
4137.39, 0.457992
4140.7, 0.458076
4144.01, 0.458076
4147.32, 0.458160
4150.64, 0.458244
4153.97, 0.458244
4157.3, 0.458244
4160.64, 0.458328
4163.98, 0.458412
4167.33, 0.458328
4170.68, 0.458495
4174.04, 0.458412
4177.4, 0.458495
4180.77, 0.458412
4184.14, 0.458412
4187.52, 0.458412
4190.91, 0.458495
4194.3, 0.458160
4197.69, 0.458160
4201.1, 0.458244
4204.5, 0.458160
4207.92, 0.457992
4211.34, 0.457741
4214.76, 0.457238
4218.19, 0.456819
4221.62, 0.456568
4225.06, 0.456568
4228.51, 0.456148
4231.96, 0.455813
4235.42, 0.455646
4238.88, 0.455813
4242.35, 0.456148
4245.83, 0.456651
4249.31, 0.457322
4252.79, 0.458160
4256.28, 0.457909
4259.78, 0.457657
4263.29, 0.457238
4266.79, 0.457070
4270.31, 0.456987
4273.83, 0.457070
4277.35, 0.457154
4280.89, 0.457322
4284.42, 0.457490
4287.97, 0.457825
4291.52, 0.457490
4295.07, 0.457741
4298.63, 0.458076
4302.2, 0.458328
4305.78, 0.458160
4309.35, 0.458412
4312.94, 0.458579
4316.53, 0.458998
4320.13, 0.459082
4323.73, 0.459334
4327.34, 0.459417
4330.96, 0.459417
4334.58, 0.459250
4338.21, 0.459417
4341.84, 0.459837
4345.48, 0.459837
4349.12, 0.459417
4352.77, 0.459585
4356.43, 0.459501
4360.1, 0.459669
4363.76, 0.459501
4367.44, 0.459417
4371.12, 0.459334
4374.81, 0.459417
4378.51, 0.459082
4382.21, 0.458998
4385.92, 0.458579
4389.63, 0.458160
4393.35, 0.457573
4397.08, 0.457490
4400.81, 0.457406
4404.55, 0.457238
4408.29, 0.456735
4412.04, 0.456065
4415.8, 0.455143
4419.57, 0.454975
4423.34, 0.454388
4427.12, 0.453718
4430.9, 0.452712
4434.69, 0.451957
4438.49, 0.451035
4442.29, 0.450449
4446.1, 0.449443
4449.92, 0.448688
4453.74, 0.448018
4457.57, 0.447096
4461.41, 0.446090
4465.25, 0.445336
4469.1, 0.444665
4472.95, 0.443995
4476.82, 0.442821
4480.69, 0.442151
4484.56, 0.441396
4488.44, 0.440558
4492.33, 0.439301
4496.23, 0.438295
4500.13, 0.437624
4504.04, 0.437121
4507.96, 0.436451
4511.88, 0.435445
4515.81, 0.434271
4519.75, 0.433182
4523.69, 0.432176
4527.65, 0.431757
4531.6, 0.430667
4535.57, 0.429326
4539.54, 0.428153
4543.52, 0.427566
4547.5, 0.426225
4551.5, 0.425303
4555.5, 0.424297
4559.5, 0.423207
4563.52, 0.422034
4567.54, 0.421112
4571.56, 0.419938
4575.6, 0.418932
4579.64, 0.417926
4583.69, 0.417507
4587.75, 0.416166
4591.81, 0.414825
4595.88, 0.413652
4599.96, 0.411975
4604.04, 0.410634
4608.14, 0.409964
4612.24, 0.409209
4616.34, 0.407868
4620.46, 0.406024
4624.58, 0.404515
4628.71, 0.402671
4632.84, 0.401665
4636.99, 0.400660
4641.14, 0.399067
4645.3, 0.397307
4649.47, 0.396636
4653.64, 0.395630
4657.82, 0.394289
4662.01, 0.392864
4666.21, 0.391439
4670.41, 0.389512
4674.62, 0.388590
4678.84, 0.387668
4683.07, 0.386662
4687.3, 0.385321
4691.54, 0.384482
4695.79, 0.383560
4700.05, 0.382890
4704.31, 0.381884
4708.59, 0.381213
4712.87, 0.380627
4717.15, 0.379788
4721.45, 0.378196
4725.76, 0.377861
4730.07, 0.377358
4734.39, 0.376855
4738.72, 0.376016
4743.05, 0.375346
4747.39, 0.374256
4751.75, 0.373753
4756.1, 0.372664
4760.47, 0.372245
4764.85, 0.371909
4769.23, 0.371490
4773.62, 0.370065
4778.02, 0.368808
4782.43, 0.367970
4786.85, 0.367215
4791.27, 0.365707
4795.7, 0.365371
4800.14, 0.364533
4804.59, 0.364449
4809.05, 0.363946
4813.51, 0.364030
4817.99, 0.362773
4822.47, 0.362521
4826.96, 0.361683
4831.46, 0.361097
4835.96, 0.360342
4840.48, 0.361013
4845.0, 0.361348
4849.54, 0.360007
4854.08, 0.358079
4858.63, 0.358079
4863.18, 0.357744
4867.75, 0.357157
4872.33, 0.355732
4876.91, 0.355229
4881.5, 0.353972
4886.1, 0.352882
4890.71, 0.352295
4895.33, 0.352379
4899.96, 0.351541
4904.59, 0.350787
4909.24, 0.349781
4913.89, 0.348775
4918.55, 0.348104
4923.22, 0.348104
4927.9, 0.347266
4932.59, 0.346847
4937.29, 0.346009
4942.0, 0.345841
4946.71, 0.345255
4951.44, 0.345171
4956.17, 0.345087
4960.91, 0.345757
4965.67, 0.345674
4970.43, 0.345841
4975.2, 0.345925
4979.98, 0.345674
4984.76, 0.344416
4989.56, 0.344584
4994.37, 0.344835
4999.18, 0.344919
5004.01, 0.344668
5008.84, 0.345087
5013.69, 0.344333
5018.54, 0.343662
5023.4, 0.343159
5028.28, 0.343662
5033.16, 0.342824
5038.05, 0.342991
5042.95, 0.342405
5047.86, 0.342824
5052.78, 0.342656
5057.71, 0.341399
5062.65, 0.340058
5067.6, 0.339136
5072.56, 0.338298
5077.53, 0.338130
5082.5, 0.336873
5087.49, 0.336286
5092.49, 0.335112
5097.5, 0.334107
5102.51, 0.333268
5107.54, 0.332179
5112.58, 0.329496
5117.62, 0.327485
5122.68, 0.325138
5127.75, 0.323545
5132.82, 0.322288
5137.91, 0.320947
5143.01, 0.317929
5148.12, 0.315582
5153.23, 0.313235
5158.36, 0.310972
5163.5, 0.308039
5168.65, 0.305608
5173.81, 0.302590
5178.98, 0.300746
5184.15, 0.298399
5189.34, 0.296471
5194.54, 0.293789
5199.75, 0.291023
5204.98, 0.287754
5210.21, 0.284820
5215.45, 0.282473
5220.7, 0.280629
5225.96, 0.277277
5231.23, 0.274678
5236.52, 0.271661
5241.81, 0.269481
5247.12, 0.266045
5252.44, 0.263111
5257.76, 0.260596
5263.1, 0.258417
5268.45, 0.255986
5273.81, 0.253220
5279.18, 0.249951
5284.56, 0.247101
5289.95, 0.243581
5295.36, 0.241318
5300.77, 0.238887
5306.2, 0.236289
5311.63, 0.232936
5317.08, 0.230421
5322.54, 0.227571
5328.01, 0.224721
5333.49, 0.222458
5338.98, 0.221117
5344.49, 0.218435
5350.0, 0.216423
5355.53, 0.214412
5361.07, 0.212987
5366.62, 0.210807
5372.18, 0.208796
5377.75, 0.206365
5383.34, 0.204856
5388.93, 0.202844
5394.54, 0.201755
5400.16, 0.201336
5405.79, 0.200497
5411.44, 0.198570
5417.09, 0.196642
5422.76, 0.195133
5428.43, 0.195217
5434.12, 0.194211
5439.83, 0.193205
5445.54, 0.192283
5451.26, 0.191193
5457.0, 0.189517
5462.75, 0.188260
5468.52, 0.186919
5474.29, 0.186164
5480.08, 0.185661
5485.88, 0.185661
5491.69, 0.184488
5497.51, 0.184069
5503.35, 0.183650
5509.2, 0.183314
5515.06, 0.182728
5520.93, 0.182895
5526.82, 0.182560
5532.71, 0.182392
5538.63, 0.181889
5544.55, 0.181973
5550.49, 0.181806
5556.44, 0.181722
5562.4, 0.180967
5568.37, 0.180464
5574.36, 0.179375
5580.36, 0.179878
5586.37, 0.180381
5592.4, 0.181219
5598.44, 0.181386
5604.49, 0.181973
5610.56, 0.181554
5616.63, 0.181470
5622.73, 0.181470
5628.83, 0.181889
5634.95, 0.181135
5641.08, 0.180800
5647.23, 0.181135
5653.39, 0.180884
5659.56, 0.180632
5665.74, 0.181806
5671.94, 0.181722
5678.15, 0.182057
5684.38, 0.182225
5690.62, 0.182057
5696.87, 0.181722
5703.14, 0.181806
5709.42, 0.180967
5715.72, 0.181386
5722.03, 0.181470
5728.35, 0.181219
5734.69, 0.180464
5741.03, 0.180716
5747.4, 0.180548
5753.78, 0.181806
5760.17, 0.180213
5766.58, 0.178788
5773.0, 0.180213
5779.44, 0.181889
5785.88, 0.181638
5792.35, 0.181470
5798.83, 0.180967
5805.32, 0.180800
5811.83, 0.179542
5818.35, 0.178285
5824.89, 0.177531
5831.45, 0.178285
5838.01, 0.177698
5844.59, 0.177028
5851.19, 0.175938
5857.8, 0.174681
5864.43, 0.173172
5871.07, 0.173004
5877.73, 0.170238
5884.4, 0.168813
5891.09, 0.167808
5897.79, 0.166886
5904.5, 0.167556
5911.23, 0.167137
5917.98, 0.165461
5924.75, 0.164455
5931.53, 0.161605
5938.32, 0.160851
5945.13, 0.161521
5951.96, 0.161521
5958.8, 0.160348
5965.65, 0.158755
5972.53, 0.158001
5979.42, 0.158001
5986.32, 0.156408
5993.24, 0.155570
6000.18, 0.155067
6007.13, 0.154480
6014.1, 0.153474
6021.08, 0.153726
6028.09, 0.153139
6035.1, 0.152636
6042.14, 0.150457
6049.19, 0.148780
6056.25, 0.150457
6063.34, 0.151966
6070.44, 0.150876
6077.55, 0.151295
6084.69, 0.152888
6091.84, 0.154145
6099.0, 0.154313
6106.19, 0.154732
6113.39, 0.154061
6120.61, 0.156576
6127.84, 0.158336
6135.09, 0.159509
6142.36, 0.161018
6149.65, 0.162778
6156.95, 0.163533
6164.27, 0.164706
6171.61, 0.166718
6178.97, 0.168059
6186.34, 0.168394
6193.73, 0.171077
6201.14, 0.172753
6208.57, 0.173675
6216.01, 0.174849
6223.47, 0.176190
6230.95, 0.176860
6238.45, 0.178201
6245.97, 0.177866
6253.5, 0.178537
6261.06, 0.179291
6268.63, 0.179207
6276.21, 0.179710
6283.82, 0.180045
6291.45, 0.179291
6299.1, 0.180129
6306.76, 0.180548
6314.44, 0.181051
6322.14, 0.181386
6329.86, 0.181973
6337.6, 0.181135
6345.35, 0.181554
6353.13, 0.182560
6360.92, 0.182308
6368.74, 0.181303
6376.57, 0.181554
6384.43, 0.182392
6392.3, 0.183482
6400.19, 0.182141
6408.1, 0.179207
6416.03, 0.179123
6423.98, 0.181806
6431.95, 0.181470
6439.94, 0.180800
6447.95, 0.180716
6455.98, 0.181722
6464.03, 0.181638
6472.1, 0.180716
6480.19, 0.178034
6488.31, 0.175771
6496.44, 0.175184
6504.59, 0.176525
6512.76, 0.175268
6520.95, 0.173172
6529.16, 0.171747
6537.4, 0.170993
6545.65, 0.169233
6553.92, 0.167724
6562.22, 0.165964
6570.54, 0.163449
6578.88, 0.161605
6587.23, 0.160683
6595.61, 0.158671
6604.02, 0.157582
6612.44, 0.155989
6620.89, 0.154480
6629.35, 0.151044
6637.84, 0.148026
6646.35, 0.148278
6654.88, 0.148948
6663.44, 0.147775
6672.01, 0.146350
6680.61, 0.143416
6689.23, 0.141740
6697.88, 0.140231
6706.54, 0.138471
6715.23, 0.136710
6723.94, 0.135621
6732.67, 0.134028
6741.42, 0.133022
6750.2, 0.130843
6759.0, 0.129502
6767.82, 0.127825
6776.67, 0.125898
6785.54, 0.123215
6794.44, 0.122042
6803.35, 0.121036
6812.29, 0.119611
6821.26, 0.117683
6830.24, 0.117097
6839.25, 0.116175
6848.29, 0.115085
6857.35, 0.113576
6866.43, 0.113576
6875.54, 0.114414
6884.67, 0.114582
6893.82, 0.113911
6903.0, 0.113828
6912.2, 0.113576
6921.43, 0.113408
6930.69, 0.112906
6939.96, 0.112738
6949.27, 0.111816
6958.59, 0.111061
6967.95, 0.111145
6977.33, 0.111732
6986.73, 0.111061
6996.16, 0.110726
7005.61, 0.110139
7015.09, 0.109385
7024.6, 0.108882
7034.13, 0.108212
7043.69, 0.106200
7053.27, 0.105865
7062.88, 0.105362
7072.52, 0.104691
7082.18, 0.104188
7091.87, 0.103350
7101.58, 0.102177
7111.32, 0.101422
7121.09, 0.100081
7130.88, 0.0998300
7140.71, 0.0990750
7150.56, 0.0982370
7160.43, 0.0972310
7170.33, 0.0969800
7180.27, 0.0965610
7190.23, 0.0958900
7200.21, 0.0951360
7210.23, 0.0948000
7220.27, 0.0937110
7230.34, 0.0927050
7240.44, 0.0916990
7250.56, 0.0911960
7260.72, 0.0902740
7270.9, 0.0899390
7281.12, 0.0892680
7291.36, 0.0885980
7301.63, 0.0873400
7311.93, 0.0865860
7322.25, 0.0856640
7332.61, 0.0854130
7343.0, 0.0844070
7353.41, 0.0839880
7363.86, 0.0834850
7374.33, 0.0831490
7384.83, 0.0822270
7395.37, 0.0816410
7405.93, 0.0805510
7416.53, 0.0797130
7427.15, 0.0790420
7437.81, 0.0784560
7448.5, 0.0768630
7459.22, 0.0758570
7469.96, 0.0748510
7480.74, 0.0742650
7491.55, 0.0732590
7502.39, 0.0725880
7513.27, 0.0709960
7524.17, 0.0699060
7535.11, 0.0683970
7546.08, 0.0677270
7557.08, 0.0663850
7568.11, 0.0651280
7579.17, 0.0636190
7590.27, 0.0628650
7601.4, 0.0616920
7612.56, 0.0610210
7623.76, 0.0593450
7634.98, 0.0579200
7646.24, 0.0565780
7657.54, 0.0551540
7668.87, 0.0534770
7680.23, 0.0522200
7691.62, 0.0508790
7703.05, 0.0494540
7714.51, 0.0474420
7726.01, 0.0461010
7737.54, 0.0451790
7749.11, 0.0443410
7760.71, 0.0426640
7772.35, 0.0413230
7784.02, 0.0404010
7795.72, 0.0396470
7807.46, 0.0383060
7819.23, 0.0370480
7831.04, 0.0348690
7842.89, 0.0336120
7854.77, 0.0326060
7866.69, 0.0316840
7878.65, 0.0301750
7890.64, 0.0290860
7902.67, 0.0274930
7914.74, 0.0264870
7926.84, 0.0252300
7938.98, 0.0245590
7951.16, 0.0233020
7963.37, 0.0222960
7975.62, 0.0210390
7987.91, 0.0203680
8000.24, 0.0194460
8012.6, 0.0186080
8025.01, 0.0171830
8037.45, 0.0166800
8049.93, 0.0155070
8062.45, 0.0146680
8075.01, 0.0138300
8087.61, 0.0134950
8100.24, 0.0124050
8112.91, 0.0115670
8125.63, 0.0107290
8138.39, 0.0102260
8151.18, 0.00955500
8164.02, 0.00922000
8176.9, 0.00838200
8189.81, 0.00838200
8202.77, 0.00762800
8215.77, 0.00754400
8228.82, 0.00804700
8241.9, 0.00821400
8255.02, 0.00771100
8268.19, 0.00796300
8281.39, 0.00762800
8294.65, 0.00813100
8307.94, 0.00813100
8321.28, 0.00796300
8334.66, 0.00720900
8348.08, 0.00737600
8361.54, 0.00762800
8375.05, 0.00855000
8388.6, 0.00888500
8402.2, 0.00930400
8415.84, 0.00922000
8429.52, 0.0103940
8443.25, 0.0112320
8457.02, 0.0119860
8470.84, 0.0118190
8484.7, 0.0132440
8498.61, 0.0135790
8512.57, 0.0143330
8526.57, 0.0155070
8540.62, 0.0164290
8554.71, 0.0168480
8568.85, 0.0183570
8583.04, 0.0189430
8597.27, 0.0193620
8611.55, 0.0202840
8625.88, 0.0217090
8640.26, 0.0224640
8654.68, 0.0233020
8669.16, 0.0237210
8683.68, 0.0249780
8698.25, 0.0252300
8712.87, 0.0260680
8727.53, 0.0261520
8742.25, 0.0273250
8757.02, 0.0282470
8771.83, 0.0287500
8786.7, 0.0275770
8801.62, 0.0273250
8816.59, 0.0269060
8831.61, 0.0269060
8846.68, 0.0260680
8861.8, 0.0267390
8876.97, 0.0269060
8892.2, 0.0267390
8907.48, 0.0253970
8922.81, 0.0249780
8938.2, 0.0248950
8953.63, 0.0256490
8969.13, 0.0254810
8984.67, 0.0263190
9000.27, 0.0254810
9015.92, 0.0252300
9031.63, 0.0251460
9047.39, 0.0255650
9063.21, 0.0255650
9079.08, 0.0263190
9095.01, 0.0259000
9111.0, 0.0260680
9127.04, 0.0248950
9143.13, 0.0256490
9159.28, 0.0256490
9175.49, 0.0251460
9191.76, 0.0239730
9208.09, 0.0248950
9224.47, 0.0246430
9240.92, 0.0238890
9257.42, 0.0236370
9273.98, 0.0234700
9290.6, 0.0211230
9307.28, 0.0203680
9324.02, 0.0207870
9340.82, 0.0198650
9357.68, 0.0188590
9374.6, 0.0190270
9391.58, 0.0155910
9408.62, 0.0160930
9425.73, 0.0158420
9442.9, 0.0145850
9460.13, 0.0137460
9477.42, 0.0145010
9494.78, 0.0153390
9512.2, 0.0170990
9529.69, 0.0183570
9547.24, 0.0200330
9564.86, 0.0208710
9582.54, 0.0217930
9600.28, 0.0217930
9618.1, 0.0227150
9635.97, 0.0227150
9653.92, 0.0239730
9671.93, 0.0239730
9690.01, 0.0220450
9708.16, 0.0196140
9726.37, 0.0193620
9744.65, 0.0198650
9763.0, 0.0201170
9781.43, 0.0191950
9799.92, 0.0172670
9818.48, 0.0155070
9837.1, 0.0163450
9855.8, 0.0172670
9874.58, 0.0172670
9893.42, 0.0155910
9912.34, 0.0165130
9931.33, 0.0178540
9950.39, 0.0165130
9969.52, 0.0153390
9988.74, 0.0157580
10008.0, 0.0146680
10027.4, 0.0148360
10046.8, 0.0150880
10066.3, 0.0156740
10085.9, 0.0152550
10105.6, 0.0150040
10125.3, 0.0146680
10145.1, 0.0145850
10165.0, 0.0148360
10185.0, 0.0155910
10205.0, 0.0149200
10225.2, 0.0150880
10245.4, 0.0144170
10265.7, 0.0143330
10286.0, 0.0141660
10306.5, 0.0147520
10327.0, 0.0145010
10347.6, 0.0149200
10368.3, 0.0147520
10389.1, 0.0145850
10409.9, 0.0134110
10430.9, 0.0123220
10451.9, 0.0116510
10473.0, 0.0121540
10494.2, 0.0116510
10515.5, 0.0116510
10536.9, 0.0104780
10558.4, 0.00930400
10579.9, 0.00930400
10601.5, 0.00938800
10623.3, 0.00829800
10645.1, 0.00888500
10667.0, 0.00913600
10689.0, 0.00871700
10711.1, 0.00905300
10733.2, 0.00955500
10755.5, 0.00922000
10777.9, 0.00980700
10800.3, 0.0100580
10822.9, 0.0104780
10845.5, 0.0106450
10868.2, 0.0108970
10891.1, 0.0104780
10914.0, 0.0104780
10937.0, 0.0102260
10960.2, 0.0108130
10983.4, 0.0114830
11006.7, 0.0118190
11030.1, 0.0125730
11053.6, 0.0136630
11077.3, 0.0137460
11101.0, 0.0137460
11124.8, 0.0143330
11148.7, 0.0149200
11172.7, 0.0144170
11196.9, 0.0145010
11221.1, 0.0145850
11245.4, 0.0153390
11269.9, 0.0152550
11294.4, 0.0152550
11319.1, 0.0157580
11343.9, 0.0165130
11368.8, 0.0170990
11393.7, 0.0176860
11418.8, 0.0178540
11444.0, 0.0191950
11469.4, 0.0196980
11494.8, 0.0198650
11520.3, 0.0207870
11546.0, 0.0221280
11571.8, 0.0229670
11597.7, 0.0243080
11623.7, 0.0244750
11649.8, 0.0248950
11676.0, 0.0259840
11702.4, 0.0269060
11728.9, 0.0269900
11755.5, 0.0275770
11782.2, 0.0273250
11809.0, 0.0273250
11836.0, 0.0268220
11863.0, 0.0253970
11890.3, 0.0233020
11917.6, 0.0222120
11945.0, 0.0200330
11972.6, 0.0181050
12000.4, 0.0163450
12028.2, 0.0149200
12056.2, 0.0140820
12084.3, 0.0139980
12112.5, 0.0141660
12140.9, 0.0145010
12169.4, 0.0139980
12198.0, 0.0129920
12226.8, 0.0125730
12255.7, 0.0129080
12284.7, 0.0118190
12313.9, 0.0103940
12343.2, 0.00989100
12372.7, 0.00922000
12402.3, 0.00896900
12432.0, 0.00930400
12461.9, 0.00963900
12491.9, 0.00922000
12522.1, 0.00813100
12552.4, 0.00871700
12582.9, 0.00963900
12613.5, 0.0100580
12644.3, 0.0103100
12675.2, 0.0105610
12706.3, 0.0106450
12737.5, 0.00997500
12768.9, 0.00947200
12800.4, 0.00804700
12832.1, 0.00771100
12863.9, 0.00729200
12895.9, 0.00712500
12928.1, 0.00637000
12960.4, 0.00469400
12992.9, 0.00335300
13025.5, 0.00310100
13058.3, 0.00285000
13091.3, 0.00318500
13124.4, 0.00217900
13157.8, 0.00201200
13191.2, 0.00192800
13224.9, 0.00217900
13258.7, 0.00184400
13292.7, 0.00259800
13326.9, 0.00318500
13361.2, 0.00385600
13395.7, 0.00377200
13430.4, 0.00444200
13465.3, 0.00402300
13500.4, 0.00444200
13535.7, 0.00477800
13571.1, 0.00645400
13606.7, 0.00737600
13642.5, 0.00762800
13678.5, 0.00662200
13714.7, 0.00704100
13751.1, 0.00628700
13787.6, 0.00720900
13824.4, 0.00762800
13861.4, 0.00871700
13898.5, 0.00813100
13935.9, 0.00771100
13973.5, 0.00678900
14011.2, 0.00746000
14049.2, 0.00704100
14087.4, 0.00779500
14125.8, 0.00678900
14164.3, 0.00704100
14203.2, 0.00687300
14242.2, 0.00787900
14281.4, 0.00737600
14320.9, 0.00804700
14360.5, 0.00746000
14400.4, 0.00746000
14440.5, 0.00687300
14480.9, 0.00737600
14521.4, 0.00628700
14562.2, 0.00754400
14603.3, 0.00771100
14644.5, 0.00930400
14686.0, 0.00871700
14727.7, 0.00838200
14769.7, 0.00678900
14811.9, 0.00787900
14854.3, 0.00829800
14897.0, 0.00888500
14939.9, 0.00762800
14983.1, 0.00846600
15026.5, 0.00871700
15070.2, 0.00855000
15114.2, 0.00729200
15158.3, 0.00855000
15202.8, 0.00762800
15247.5, 0.00771100
15292.5, 0.00678900
15337.7, 0.00762800
15383.2, 0.00704100
15429.0, 0.00779500
15475.1, 0.00804700
15521.4, 0.00938800
15568.0, 0.00846600
15614.9, 0.00846600
15662.1, 0.00712500
15709.6, 0.00922000
15757.3, 0.00955500
15805.4, 0.0105610
15853.7, 0.00955500
15902.3, 0.0105610
15951.2, 0.0101420
16000.5, 0.0102260
16050.0, 0.0103100
16099.8, 0.0114000
16150.0, 0.0100580
16200.5, 0.0124890
16251.3, 0.0129920
16302.4, 0.0130760
16353.8, 0.0124890
16405.5, 0.0145010
16457.6, 0.0134950
16510.0, 0.0138300
16562.8, 0.0137460
16615.9, 0.0155070
16669.3, 0.0152550
16723.1, 0.0171830
16777.2, 0.0164290
16831.7, 0.0172670
16886.5, 0.0174350
16941.7, 0.0176860
16997.2, 0.0175180
17053.1, 0.0191110
17109.4, 0.0185240
17166.1, 0.0196980
17223.1, 0.0181890
17280.5, 0.0190270
17338.3, 0.0182730
17396.5, 0.0195300
17455.1, 0.0182730
17514.0, 0.0198650
17573.4, 0.0205360
17633.2, 0.0221280
17693.4, 0.0206200
17754.0, 0.0220450
17815.0, 0.0201170
17876.4, 0.0192790
17938.3, 0.0186080
18000.5, 0.0210390
18063.3, 0.0212060
18126.4, 0.0217090
18190.0, 0.0207870
18254.1, 0.0224640
18318.6, 0.0223800
18383.5, 0.0240560
18449.0, 0.0226310
18514.9, 0.0235530
18581.2, 0.0218770
18648.0, 0.0232180
18715.4, 0.0243080
18783.2, 0.0263190
18851.5, 0.0247270
18920.3, 0.0258170
18989.6, 0.0248110
19059.4, 0.0256490
19129.7, 0.0246430
19200.6, 0.0264030
19272.0, 0.0249780
19343.9, 0.0258170
19416.3, 0.0232180
19489.3, 0.0245590
19562.8, 0.0258170
19637.0, 0.0266550
19711.6, 0.0259000
19786.8, 0.0278280
19862.6, 0.0269060
19939.0, 0.0287500
20016.0, 0.0283310
20093.6, 0.0305940
20171.8, 0.0299240
20250.6, 0.0320190
20330.0, 0.0291690
20410.0, 0.0295880
20490.7, 0.0292530
20572.0, 0.0302590
20654.0, 0.0298400
20736.6, 0.0326060
20819.9, 0.0324380
20903.8, 0.0352040
20988.5, 0.0352040
21073.8, 0.0405690
21159.8, 0.0383060
21246.5, 0.0347010
21334.0, 0.0324380
21422.1, 0.0352880
21511.0, 0.0344500
21600.7, 0.0379700
21691.0, 0.0379700
21782.1, 0.0392280
21874.0, 0.0359590
21966.7, 0.0366290
22060.2, 0.0375510
22154.5, 0.0428320
22249.6, 0.0418260
22345.5, 0.0399820
22442.2, 0.0372160
22539.8, 0.0389760
22638.2, 0.0354560
22737.5, 0.0375510
22837.7, 0.0384730
22938.7, 0.0414910
23040.7, 0.0396470
23143.5, 0.0393120
23247.3, 0.0373840
23352.1, 0.0409040
23457.7, 0.0407370
23564.4, 0.0414070
23672.0, 0.0406530
23780.5, 0.0435860
23890.1, 0.0430830
24000.7, 0.0450950
24112.3, 0.0445920
24225.0, 0.0473580
24338.7, 0.0450950
24453.5, 0.0439220
24569.4, 0.0399820
24686.4, 0.0430830
24804.5, 0.0461010
24923.8, 0.0494540
