Database of Origin, USGS Spectral Database
Sample Description, See USGS database for additional info
Date Added,2016-08-03 20:50:58.170188

Data ID,USGS_act07          
Sample ID, actinolite_nmnh16485.247
Mineral Name, actinolite
Material Class,Inosilicate

Wavelength
1366.05, 0.638137
1366.41, 0.638546
1366.77, 0.638751
1367.13, 0.638597
1367.49, 0.638853
1367.85, 0.639722
1368.21, 0.639517
1368.57, 0.640131
1368.93, 0.640693
1369.3, 0.641051
1369.66, 0.641511
1370.02, 0.641868
1370.38, 0.641766
1370.74, 0.641766
1371.11, 0.641460
1371.47, 0.641971
1371.83, 0.642022
1372.19, 0.642277
1372.56, 0.642175
1372.92, 0.642891
1373.29, 0.642942
1373.65, 0.642686
1374.01, 0.642533
1374.38, 0.643044
1374.74, 0.643300
1375.11, 0.642993
1375.47, 0.642686
1375.84, 0.642993
1376.2, 0.643300
1376.57, 0.643708
1376.93, 0.643964
1377.3, 0.644475
1377.67, 0.644986
1378.03, 0.645293
1378.4, 0.645191
1378.76, 0.646213
1379.13, 0.646622
1379.5, 0.646826
1379.87, 0.647082
1380.23, 0.646724
1380.6, 0.646622
1380.97, 0.647900
1381.34, 0.648564
1381.7, 0.649075
1382.07, 0.648922
1382.44, 0.649126
1382.81, 0.649433
1383.18, 0.650251
1383.55, 0.650200
1383.92, 0.650609
1384.29, 0.650966
1384.66, 0.651886
1385.03, 0.652040
1385.4, 0.651989
1385.77, 0.651886
1386.14, 0.652193
1386.51, 0.652755
1386.88, 0.653011
1387.25, 0.652602
1387.62, 0.652193
1387.99, 0.651273
1388.36, 0.650966
1388.74, 0.650302
1389.11, 0.649177
1389.48, 0.646060
1389.85, 0.640999
1390.23, 0.631135
1390.6, 0.613859
1390.97, 0.584980
1391.35, 0.545982
1391.72, 0.507290
1392.09, 0.484391
1392.47, 0.484545
1392.84, 0.499521
1393.21, 0.517308
1393.59, 0.534430
1393.96, 0.550991
1394.34, 0.567244
1394.71, 0.582783
1395.09, 0.597145
1395.46, 0.608288
1395.84, 0.615341
1396.22, 0.617846
1396.59, 0.614626
1396.97, 0.605988
1397.35, 0.595459
1397.72, 0.587689
1398.1, 0.585645
1398.48, 0.587945
1398.85, 0.593158
1399.23, 0.599701
1399.61, 0.607265
1399.99, 0.613757
1400.37, 0.619226
1400.74, 0.623621
1401.12, 0.627966
1401.5, 0.631493
1401.88, 0.635173
1402.26, 0.637626
1402.64, 0.639620
1403.02, 0.640897
1403.4, 0.642022
1403.78, 0.642073
1404.16, 0.642482
1404.54, 0.642380
1404.92, 0.642891
1405.3, 0.644168
1405.68, 0.646060
1406.06, 0.647389
1406.44, 0.648411
1406.83, 0.649433
1407.21, 0.650455
1407.59, 0.651478
1407.97, 0.652551
1408.35, 0.652960
1408.74, 0.653318
1409.12, 0.653318
1409.5, 0.654135
1409.89, 0.654698
1410.27, 0.655464
1410.65, 0.655771
1411.04, 0.656333
1411.42, 0.656691
1411.81, 0.657151
1412.19, 0.657355
1412.58, 0.657816
1412.96, 0.658020
1413.35, 0.658684
1413.73, 0.658991
1414.12, 0.659962
1414.5, 0.660524
1414.89, 0.660831
1415.28, 0.661240
1415.66, 0.662211
1416.05, 0.662262
1416.44, 0.662211
1416.82, 0.662416
1417.21, 0.662876
1417.6, 0.662978
1417.98, 0.663591
1418.37, 0.663898
1418.76, 0.664205
1419.15, 0.663898
1419.54, 0.664051
1419.93, 0.664000
1420.32, 0.664818
1420.71, 0.665687
1421.09, 0.665840
1421.48, 0.665533
1421.88, 0.666147
1422.27, 0.666607
1422.66, 0.666811
1423.05, 0.666760
1423.44, 0.667016
1423.83, 0.667373
1424.22, 0.667731
1424.61, 0.667527
1425.0, 0.667987
1425.39, 0.667782
1425.78, 0.667936
1426.18, 0.667834
1426.57, 0.668345
1426.96, 0.668396
1427.36, 0.668651
1427.75, 0.668498
1428.14, 0.668856
1428.54, 0.668856
1428.93, 0.669213
1429.32, 0.669316
1429.72, 0.669827
1430.11, 0.669622
1430.51, 0.669571
1430.9, 0.669418
1431.3, 0.669776
1431.69, 0.669776
1432.09, 0.669725
1432.48, 0.669776
1432.88, 0.670082
1433.28, 0.669929
1433.67, 0.670185
1434.07, 0.669674
1434.46, 0.670236
1434.86, 0.670440
1435.26, 0.670338
1435.66, 0.670134
1436.05, 0.670849
1436.45, 0.670747
1436.85, 0.670696
1437.25, 0.670696
1437.65, 0.670951
1438.05, 0.670849
1438.44, 0.670900
1438.84, 0.670696
1439.24, 0.671105
1439.64, 0.671258
1440.04, 0.671462
1440.44, 0.671258
1440.84, 0.671360
1441.24, 0.670951
1441.65, 0.671105
1442.05, 0.671258
1442.45, 0.671514
1442.85, 0.671156
1443.25, 0.671411
1443.65, 0.671156
1444.05, 0.671309
1444.46, 0.670798
1444.86, 0.670798
1445.26, 0.671616
1445.67, 0.672025
1446.07, 0.671360
1446.47, 0.671309
1446.88, 0.671411
1447.28, 0.671871
1447.68, 0.671718
1448.09, 0.671820
1448.49, 0.671871
1448.9, 0.671871
1449.3, 0.671360
1449.71, 0.671565
1450.11, 0.671769
1450.52, 0.671769
1450.93, 0.671871
1451.33, 0.672076
1451.74, 0.672025
1452.14, 0.672331
1452.55, 0.671871
1452.96, 0.672025
1453.36, 0.672025
1453.77, 0.672382
1454.18, 0.672178
1454.59, 0.671769
1455.0, 0.671769
1455.41, 0.671974
1455.81, 0.671922
1456.22, 0.672178
1456.63, 0.672025
1457.04, 0.672178
1457.45, 0.672127
1457.86, 0.672485
1458.27, 0.672025
1458.68, 0.672127
1459.09, 0.672178
1459.5, 0.672178
1459.91, 0.671922
1460.32, 0.671769
1460.74, 0.671871
1461.15, 0.672485
1461.56, 0.672434
1461.97, 0.672382
1462.39, 0.672127
1462.8, 0.672587
1463.21, 0.672485
1463.62, 0.672127
1464.04, 0.671871
1464.45, 0.672127
1464.86, 0.672076
1465.28, 0.672025
1465.69, 0.672280
1466.11, 0.672485
1466.52, 0.672229
1466.94, 0.672178
1467.35, 0.672127
1467.77, 0.672229
1468.18, 0.672280
1468.6, 0.672178
1469.02, 0.672076
1469.43, 0.672178
1469.85, 0.672076
1470.27, 0.672127
1470.68, 0.672025
1471.1, 0.672280
1471.52, 0.672280
1471.94, 0.672127
1472.35, 0.672025
1472.77, 0.672076
1473.19, 0.672229
1473.61, 0.672740
1474.03, 0.672485
1474.45, 0.672229
1474.87, 0.672127
1475.29, 0.672485
1475.71, 0.672434
1476.13, 0.672536
1476.55, 0.672331
1476.97, 0.672587
1477.39, 0.672638
1477.81, 0.672894
1478.23, 0.672587
1478.65, 0.672485
1479.07, 0.672434
1479.5, 0.672894
1479.92, 0.673200
1480.34, 0.673609
1480.76, 0.673302
1481.19, 0.673047
1481.61, 0.672791
1482.03, 0.673098
1482.46, 0.673251
1482.88, 0.673660
1483.31, 0.673711
1483.73, 0.674069
1484.16, 0.673558
1484.58, 0.673609
1485.01, 0.674018
1485.43, 0.673967
1485.86, 0.673916
1486.28, 0.673814
1486.71, 0.673302
1487.14, 0.673711
1487.56, 0.673865
1487.99, 0.674171
1488.42, 0.674274
1488.84, 0.674223
1489.27, 0.673967
1489.7, 0.674120
1490.13, 0.674171
1490.56, 0.674427
1490.98, 0.674376
1491.41, 0.674376
1491.84, 0.674325
1492.27, 0.674734
1492.7, 0.674223
1493.13, 0.674325
1493.56, 0.674785
1493.99, 0.675143
1494.42, 0.675092
1494.85, 0.674989
1495.29, 0.674785
1495.72, 0.675040
1496.15, 0.674580
1496.58, 0.674734
1497.01, 0.674887
1497.44, 0.675040
1497.88, 0.675296
1498.31, 0.675654
1498.74, 0.675398
1499.18, 0.675449
1499.61, 0.675449
1500.04, 0.675398
1500.48, 0.674989
1500.91, 0.675092
1501.35, 0.675143
1501.78, 0.675602
1502.22, 0.675500
1502.65, 0.675654
1503.09, 0.675500
1503.53, 0.675807
1503.96, 0.675807
1504.4, 0.675756
1504.83, 0.675756
1505.27, 0.675960
1505.71, 0.675909
1506.15, 0.676012
1506.58, 0.675705
1507.02, 0.675807
1507.46, 0.675858
1507.9, 0.675909
1508.34, 0.675654
1508.78, 0.675960
1509.21, 0.676165
1509.66, 0.676318
1510.09, 0.676114
1510.53, 0.676063
1510.97, 0.675756
1511.42, 0.675960
1511.86, 0.676063
1512.3, 0.676216
1512.74, 0.676420
1513.18, 0.676369
1513.62, 0.676471
1514.06, 0.676471
1514.51, 0.676012
1514.95, 0.676318
1515.39, 0.676114
1515.83, 0.676318
1516.28, 0.676318
1516.72, 0.676523
1517.16, 0.676471
1517.61, 0.676574
1518.05, 0.676523
1518.5, 0.676625
1518.94, 0.676574
1519.39, 0.676829
1519.83, 0.676932
1520.28, 0.676727
1520.73, 0.676523
1521.17, 0.676880
1521.62, 0.676727
1522.07, 0.676471
1522.51, 0.676574
1522.96, 0.676778
1523.41, 0.676983
1523.85, 0.676932
1524.3, 0.676523
1524.75, 0.676523
1525.2, 0.676778
1525.65, 0.676676
1526.1, 0.676471
1526.55, 0.676318
1527.0, 0.676063
1527.45, 0.676369
1527.9, 0.676471
1528.35, 0.676727
1528.8, 0.676880
1529.25, 0.676983
1529.7, 0.676676
1530.15, 0.676829
1530.6, 0.676932
1531.05, 0.676676
1531.51, 0.676523
1531.96, 0.677034
1532.41, 0.677085
1532.87, 0.676727
1533.32, 0.676676
1533.77, 0.676932
1534.23, 0.676880
1534.68, 0.677136
1535.14, 0.676932
1535.59, 0.677289
1536.05, 0.677238
1536.5, 0.677545
1536.96, 0.677749
1537.41, 0.677954
1537.87, 0.677647
1538.32, 0.677698
1538.78, 0.677903
1539.24, 0.677851
1539.7, 0.678056
1540.15, 0.678260
1540.61, 0.678107
1541.07, 0.678414
1541.53, 0.678618
1541.98, 0.678465
1542.44, 0.678209
1542.9, 0.678567
1543.36, 0.678823
1543.82, 0.678874
1544.28, 0.678669
1544.74, 0.678771
1545.2, 0.678823
1545.66, 0.679027
1546.12, 0.678823
1546.59, 0.678874
1547.05, 0.678823
1547.51, 0.679283
1547.97, 0.679334
1548.43, 0.679998
1548.9, 0.679692
1549.36, 0.679845
1549.82, 0.679947
1550.29, 0.679947
1550.75, 0.679692
1551.21, 0.679794
1551.68, 0.679896
1552.14, 0.680356
1552.61, 0.680254
1553.07, 0.680100
1553.54, 0.679998
1554.0, 0.680560
1554.47, 0.680612
1554.93, 0.680816
1555.4, 0.680816
1555.87, 0.681020
1556.34, 0.680612
1556.8, 0.680765
1557.27, 0.680918
1557.74, 0.681123
1558.21, 0.680867
1558.68, 0.681327
1559.14, 0.681327
1559.61, 0.681787
1560.08, 0.681583
1560.55, 0.681532
1561.02, 0.681736
1561.49, 0.682043
1561.96, 0.681889
1562.43, 0.681685
1562.9, 0.681583
1563.38, 0.681685
1563.85, 0.681583
1564.32, 0.681940
1564.79, 0.681940
1565.26, 0.681532
1565.74, 0.681736
1566.21, 0.682196
1566.68, 0.682094
1567.16, 0.682145
1567.63, 0.682043
1568.1, 0.682196
1568.58, 0.681940
1569.05, 0.682043
1569.53, 0.682043
1570.0, 0.682196
1570.48, 0.682452
1570.96, 0.682605
1571.43, 0.682452
1571.91, 0.682503
1572.39, 0.682196
1572.86, 0.682247
1573.34, 0.682401
1573.82, 0.682554
1574.3, 0.682247
1574.77, 0.682196
1575.25, 0.682094
1575.73, 0.682349
1576.21, 0.682503
1576.69, 0.682809
1577.17, 0.682707
1577.65, 0.682656
1578.13, 0.682349
1578.61, 0.682247
1579.09, 0.682247
1579.57, 0.682452
1580.05, 0.682452
1580.54, 0.682554
1581.02, 0.682401
1581.5, 0.682349
1581.98, 0.682247
1582.47, 0.682605
1582.95, 0.682554
1583.43, 0.682298
1583.92, 0.682247
1584.4, 0.682656
1584.88, 0.682401
1585.37, 0.682452
1585.85, 0.682247
1586.34, 0.682349
1586.82, 0.682196
1587.31, 0.682349
1587.8, 0.682349
1588.28, 0.682503
1588.77, 0.682401
1589.26, 0.682707
1589.74, 0.682707
1590.23, 0.682758
1590.72, 0.682656
1591.21, 0.682401
1591.7, 0.682401
1592.19, 0.682503
1592.67, 0.682605
1593.16, 0.682605
1593.65, 0.682503
1594.14, 0.682912
1594.63, 0.682758
1595.12, 0.682963
1595.61, 0.682963
1596.11, 0.683065
1596.6, 0.682963
1597.09, 0.683065
1597.58, 0.683065
1598.08, 0.683321
1598.57, 0.683372
1599.06, 0.683372
1599.55, 0.683269
1600.05, 0.683321
1600.54, 0.683218
1601.04, 0.683525
1601.53, 0.683678
1602.03, 0.683883
1602.52, 0.683985
1603.02, 0.684036
1603.51, 0.683729
1604.01, 0.683832
1604.5, 0.683985
1605.0, 0.684241
1605.5, 0.684292
1606.0, 0.684394
1606.49, 0.684343
1606.99, 0.684241
1607.49, 0.684189
1607.99, 0.684189
1608.49, 0.684138
1608.99, 0.684752
1609.49, 0.684956
1609.99, 0.684854
1610.49, 0.684854
1610.99, 0.684956
1611.49, 0.684752
1611.99, 0.684701
1612.49, 0.684803
1612.99, 0.685058
1613.49, 0.685212
1614.0, 0.685314
1614.5, 0.685314
1615.0, 0.685569
1615.51, 0.685263
1616.01, 0.685416
1616.51, 0.685314
1617.02, 0.685416
1617.52, 0.685365
1618.03, 0.685876
1618.53, 0.685774
1619.04, 0.686081
1619.54, 0.685876
1620.05, 0.685876
1620.55, 0.685978
1621.06, 0.686285
1621.57, 0.686029
1622.08, 0.685978
1622.58, 0.686081
1623.09, 0.686285
1623.6, 0.686183
1624.11, 0.686285
1624.62, 0.686336
1625.13, 0.686234
1625.64, 0.686183
1626.15, 0.686387
1626.66, 0.686183
1627.17, 0.686285
1627.68, 0.686183
1628.19, 0.686387
1628.7, 0.686694
1629.21, 0.686796
1629.72, 0.686541
1630.24, 0.686541
1630.75, 0.686336
1631.26, 0.686489
1631.78, 0.686796
1632.29, 0.687052
1632.8, 0.686745
1633.32, 0.686438
1633.83, 0.686489
1634.35, 0.686643
1634.86, 0.686438
1635.38, 0.686387
1635.9, 0.686438
1636.41, 0.686489
1636.93, 0.686387
1637.45, 0.686796
1637.96, 0.686796
1638.48, 0.686489
1639.0, 0.686336
1639.52, 0.686745
1640.04, 0.686694
1640.56, 0.686438
1641.08, 0.686285
1641.59, 0.686694
1642.11, 0.686694
1642.63, 0.686541
1643.16, 0.686183
1643.68, 0.686285
1644.2, 0.686489
1644.72, 0.686438
1645.24, 0.685876
1645.76, 0.686183
1646.29, 0.686029
1646.81, 0.686029
1647.33, 0.685876
1647.86, 0.686234
1648.38, 0.686489
1648.9, 0.686183
1649.43, 0.685876
1649.95, 0.686081
1650.48, 0.685927
1651.0, 0.685825
1651.53, 0.685569
1652.06, 0.685825
1652.58, 0.685569
1653.11, 0.685672
1653.64, 0.685672
1654.17, 0.685723
1654.69, 0.685621
1655.22, 0.685518
1655.75, 0.685416
1656.28, 0.685621
1656.81, 0.685518
1657.34, 0.685672
1657.87, 0.685723
1658.4, 0.685825
1658.93, 0.685774
1659.46, 0.685569
1659.99, 0.685569
1660.52, 0.685518
1661.05, 0.685518
1661.59, 0.685621
1662.12, 0.685621
1662.65, 0.685927
1663.19, 0.685927
1663.72, 0.685825
1664.26, 0.685825
1664.79, 0.685876
1665.32, 0.685723
1665.86, 0.685876
1666.39, 0.685774
1666.93, 0.685825
1667.47, 0.685774
1668.0, 0.685876
1668.54, 0.685774
1669.08, 0.685825
1669.61, 0.685978
1670.15, 0.686132
1670.69, 0.686132
1671.23, 0.686029
1671.77, 0.685978
1672.31, 0.686234
1672.85, 0.686336
1673.39, 0.686234
1673.93, 0.686336
1674.47, 0.686336
1675.01, 0.686336
1675.55, 0.686438
1676.09, 0.686489
1676.64, 0.686694
1677.18, 0.686387
1677.72, 0.686643
1678.26, 0.686592
1678.81, 0.686796
1679.35, 0.686643
1679.89, 0.686745
1680.44, 0.686796
1680.98, 0.687001
1681.53, 0.686949
1682.07, 0.687052
1682.62, 0.687205
1683.17, 0.687154
1683.71, 0.686949
1684.26, 0.687001
1684.81, 0.687052
1685.36, 0.687052
1685.9, 0.687052
1686.45, 0.687307
1687.0, 0.687307
1687.55, 0.687512
1688.1, 0.687563
1688.65, 0.687512
1689.2, 0.687461
1689.75, 0.687410
1690.3, 0.687512
1690.85, 0.687665
1691.41, 0.687716
1691.96, 0.687716
1692.51, 0.687563
1693.06, 0.687921
1693.61, 0.687972
1694.17, 0.687972
1694.72, 0.687818
1695.28, 0.687665
1695.83, 0.687461
1696.39, 0.687614
1696.94, 0.687716
1697.5, 0.688023
1698.05, 0.688023
1698.61, 0.688176
1699.17, 0.688023
1699.72, 0.687818
1700.28, 0.687665
1700.84, 0.687665
1701.4, 0.687665
1701.95, 0.687767
1702.51, 0.687767
1703.07, 0.687767
1703.63, 0.687767
1704.19, 0.687665
1704.75, 0.687614
1705.31, 0.687870
1705.88, 0.687665
1706.44, 0.687665
1707.0, 0.687410
1707.56, 0.687461
1708.12, 0.687461
1708.69, 0.687563
1709.25, 0.687358
1709.81, 0.687461
1710.38, 0.687410
1710.94, 0.687358
1711.51, 0.687358
1712.07, 0.687512
1712.64, 0.687512
1713.2, 0.687358
1713.77, 0.687256
1714.34, 0.687205
1714.9, 0.686949
1715.47, 0.687052
1716.04, 0.687103
1716.61, 0.687001
1717.18, 0.686847
1717.74, 0.686898
1718.31, 0.686847
1718.88, 0.686694
1719.45, 0.686541
1720.02, 0.686643
1720.59, 0.686592
1721.17, 0.686694
1721.74, 0.686643
1722.31, 0.686592
1722.88, 0.686489
1723.45, 0.686489
1724.03, 0.686285
1724.6, 0.686387
1725.18, 0.686643
1725.75, 0.686541
1726.33, 0.686183
1726.9, 0.686081
1727.48, 0.686234
1728.05, 0.686336
1728.63, 0.686183
1729.2, 0.686183
1729.78, 0.686029
1730.36, 0.686029
1730.94, 0.685927
1731.51, 0.686029
1732.09, 0.685825
1732.67, 0.685876
1733.25, 0.685927
1733.83, 0.685927
1734.41, 0.685876
1734.99, 0.686029
1735.57, 0.686081
1736.15, 0.686132
1736.73, 0.685978
1737.32, 0.685927
1737.9, 0.685825
1738.48, 0.685774
1739.07, 0.685723
1739.65, 0.686029
1740.23, 0.686029
1740.82, 0.686132
1741.4, 0.686081
1741.99, 0.686029
1742.57, 0.686081
1743.16, 0.686132
1743.74, 0.686132
1744.33, 0.686285
1744.92, 0.686081
1745.51, 0.686132
1746.09, 0.686234
1746.68, 0.686234
1747.27, 0.686234
1747.86, 0.686387
1748.45, 0.686183
1749.04, 0.686234
1749.63, 0.686387
1750.22, 0.686285
1750.81, 0.686234
1751.4, 0.686387
1751.99, 0.686438
1752.59, 0.686489
1753.18, 0.686541
1753.77, 0.686694
1754.37, 0.686541
1754.96, 0.686643
1755.56, 0.686643
1756.15, 0.686592
1756.74, 0.686796
1757.34, 0.686847
1757.94, 0.686745
1758.53, 0.686847
1759.13, 0.686796
1759.73, 0.686949
1760.32, 0.686796
1760.92, 0.686847
1761.52, 0.686949
1762.12, 0.687154
1762.72, 0.686796
1763.32, 0.686796
1763.92, 0.686847
1764.52, 0.687052
1765.12, 0.687154
1765.72, 0.687205
1766.32, 0.687307
1766.92, 0.687461
1767.53, 0.687410
1768.13, 0.687358
1768.73, 0.687256
1769.34, 0.687307
1769.94, 0.687512
1770.55, 0.687461
1771.15, 0.687256
1771.76, 0.687410
1772.36, 0.687410
1772.97, 0.687461
1773.57, 0.687307
1774.18, 0.687358
1774.79, 0.687410
1775.4, 0.687512
1776.0, 0.687563
1776.61, 0.687461
1777.22, 0.687256
1777.83, 0.687307
1778.44, 0.687512
1779.05, 0.687358
1779.66, 0.687256
1780.27, 0.687307
1780.88, 0.687205
1781.5, 0.687256
1782.11, 0.687154
1782.72, 0.687103
1783.33, 0.687052
1783.95, 0.687052
1784.56, 0.686898
1785.18, 0.686898
1785.79, 0.686796
1786.41, 0.686847
1787.02, 0.686898
1787.64, 0.686745
1788.26, 0.686489
1788.87, 0.686438
1789.49, 0.686438
1790.11, 0.686387
1790.73, 0.686285
1791.35, 0.686438
1791.96, 0.686489
1792.58, 0.686438
1793.21, 0.686081
1793.83, 0.686234
1794.45, 0.686132
1795.07, 0.685876
1795.69, 0.685672
1796.31, 0.685774
1796.93, 0.685723
1797.56, 0.685621
1798.18, 0.685314
1798.8, 0.685263
1799.43, 0.685416
1800.05, 0.685518
1800.68, 0.685416
1801.3, 0.685263
1801.93, 0.684956
1802.56, 0.684803
1803.18, 0.684701
1803.81, 0.684547
1804.44, 0.684547
1805.07, 0.684752
1805.7, 0.684496
1806.33, 0.684445
1806.95, 0.684445
1807.58, 0.684292
1808.22, 0.684087
1808.85, 0.683985
1809.48, 0.684036
1810.11, 0.684138
1810.74, 0.683985
1811.38, 0.684087
1812.01, 0.683883
1812.64, 0.683627
1813.28, 0.683525
1813.91, 0.683576
1814.55, 0.683372
1815.18, 0.683372
1815.82, 0.683474
1816.45, 0.683372
1817.09, 0.683218
1817.73, 0.683321
1818.36, 0.683321
1819.0, 0.683372
1819.64, 0.683065
1820.28, 0.682656
1820.92, 0.682656
1821.56, 0.682758
1822.2, 0.682860
1822.84, 0.683065
1823.48, 0.682963
1824.12, 0.682809
1824.76, 0.682656
1825.41, 0.682554
1826.05, 0.682145
1826.69, 0.682452
1827.34, 0.682809
1827.98, 0.682758
1828.63, 0.682452
1829.27, 0.682503
1829.92, 0.682554
1830.56, 0.682452
1831.21, 0.682401
1831.86, 0.682656
1832.5, 0.682656
1833.15, 0.682656
1833.8, 0.682401
1834.45, 0.682452
1835.1, 0.682298
1835.75, 0.682043
1836.4, 0.681992
1837.05, 0.682145
1837.7, 0.681940
1838.35, 0.682196
1839.01, 0.682145
1839.66, 0.681787
1840.31, 0.681889
1840.96, 0.681889
1841.62, 0.681583
1842.27, 0.681889
1842.93, 0.682349
1843.58, 0.682554
1844.24, 0.682503
1844.9, 0.682452
1845.55, 0.682349
1846.21, 0.681787
1846.87, 0.681174
1847.53, 0.681327
1848.18, 0.681327
1848.84, 0.681838
1849.5, 0.681992
1850.16, 0.681838
1850.82, 0.681736
1851.48, 0.681838
1852.14, 0.681481
1852.81, 0.681225
1853.47, 0.680918
1854.13, 0.681481
1854.8, 0.681889
1855.46, 0.681838
1856.12, 0.681378
1856.79, 0.681429
1857.45, 0.681634
1858.12, 0.681481
1858.79, 0.681327
1859.45, 0.680867
1860.12, 0.680765
1860.79, 0.681327
1861.46, 0.681634
1862.12, 0.681481
1862.79, 0.681225
1863.46, 0.681174
1864.13, 0.680969
1864.8, 0.681174
1865.48, 0.681072
1866.15, 0.681020
1866.82, 0.680560
1867.49, 0.680152
1868.16, 0.680049
1868.84, 0.680254
1869.51, 0.680152
1870.19, 0.679692
1870.86, 0.679232
1871.54, 0.679743
1872.21, 0.679640
1872.89, 0.679180
1873.56, 0.679334
1874.24, 0.679743
1874.92, 0.679692
1875.6, 0.679487
1876.28, 0.678925
1876.96, 0.678823
1877.64, 0.679129
1878.32, 0.679180
1879.0, 0.679078
1879.68, 0.679027
1880.36, 0.678618
1881.04, 0.678414
1881.73, 0.678363
1882.41, 0.678414
1883.09, 0.678107
1883.78, 0.677851
1884.46, 0.677800
1885.15, 0.678005
1885.83, 0.677698
1886.52, 0.677596
1887.21, 0.677443
1887.89, 0.677238
1888.58, 0.676932
1889.27, 0.676778
1889.96, 0.676369
1890.65, 0.676369
1891.34, 0.676369
1892.03, 0.676318
1892.72, 0.676267
1893.41, 0.675960
1894.1, 0.675960
1894.79, 0.676114
1895.49, 0.675960
1896.18, 0.675654
1896.87, 0.675449
1897.57, 0.675347
1898.26, 0.675296
1898.96, 0.674734
1899.65, 0.674325
1900.35, 0.674427
1901.05, 0.674580
1901.74, 0.674580
1902.44, 0.673916
1903.14, 0.674018
1903.84, 0.674325
1904.54, 0.674120
1905.24, 0.673660
1905.94, 0.673865
1906.64, 0.673609
1907.34, 0.673763
1908.04, 0.674069
1908.75, 0.673967
1909.45, 0.673814
1910.15, 0.673558
1910.86, 0.673405
1911.56, 0.673405
1912.27, 0.673405
1912.97, 0.672945
1913.68, 0.672945
1914.39, 0.673302
1915.09, 0.673251
1915.8, 0.673200
1916.51, 0.673354
1917.22, 0.673405
1917.93, 0.673354
1918.64, 0.673098
1919.35, 0.672843
1920.06, 0.672536
1920.77, 0.672587
1921.48, 0.672894
1922.19, 0.672996
1922.91, 0.672996
1923.62, 0.672587
1924.33, 0.672638
1925.05, 0.672791
1925.76, 0.672791
1926.48, 0.672740
1927.19, 0.672587
1927.91, 0.672280
1928.63, 0.672331
1929.35, 0.672382
1930.07, 0.672434
1930.78, 0.672485
1931.5, 0.672587
1932.22, 0.672382
1932.94, 0.672178
1933.66, 0.672025
1934.39, 0.672178
1935.11, 0.672280
1935.83, 0.672178
1936.55, 0.672025
1937.28, 0.672127
1938.0, 0.671922
1938.73, 0.671820
1939.45, 0.671769
1940.18, 0.671820
1940.9, 0.671769
1941.63, 0.671871
1942.36, 0.671769
1943.09, 0.671616
1943.81, 0.671514
1944.54, 0.671411
1945.27, 0.671360
1946.0, 0.671462
1946.73, 0.671309
1947.47, 0.671156
1948.2, 0.671156
1948.93, 0.671002
1949.66, 0.670798
1950.4, 0.670696
1951.13, 0.670542
1951.86, 0.670542
1952.6, 0.670338
1953.34, 0.670338
1954.07, 0.670185
1954.81, 0.670185
1955.55, 0.670134
1956.29, 0.670082
1957.02, 0.669725
1957.76, 0.669622
1958.5, 0.669520
1959.24, 0.669520
1959.98, 0.669316
1960.72, 0.669162
1961.47, 0.668856
1962.21, 0.668856
1962.95, 0.668600
1963.7, 0.668396
1964.44, 0.668191
1965.18, 0.667987
1965.93, 0.667782
1966.67, 0.667629
1967.42, 0.667425
1968.17, 0.667169
1968.92, 0.666965
1969.66, 0.666965
1970.41, 0.666811
1971.16, 0.666556
1971.91, 0.666300
1972.66, 0.666096
1973.41, 0.665891
1974.16, 0.665789
1974.92, 0.665738
1975.67, 0.665482
1976.42, 0.665073
1977.18, 0.665022
1977.93, 0.664920
1978.69, 0.664767
1979.44, 0.664307
1980.2, 0.664000
1980.95, 0.663898
1981.71, 0.663693
1982.47, 0.663591
1983.23, 0.663387
1983.99, 0.663029
1984.74, 0.662824
1985.51, 0.662416
1986.27, 0.662211
1987.03, 0.661956
1987.79, 0.661853
1988.55, 0.661751
1989.32, 0.661393
1990.08, 0.661036
1990.84, 0.660933
1991.61, 0.660576
1992.37, 0.660371
1993.14, 0.660116
1993.9, 0.659962
1994.67, 0.659758
1995.44, 0.659656
1996.21, 0.659298
1996.98, 0.659247
1997.75, 0.658991
1998.52, 0.658838
1999.29, 0.658787
2000.06, 0.658736
2000.83, 0.658429
2001.6, 0.658224
2002.38, 0.658071
2003.15, 0.657969
2003.93, 0.657713
2004.7, 0.657662
2005.48, 0.657560
2006.25, 0.657407
2007.03, 0.657304
2007.81, 0.656947
2008.58, 0.656742
2009.36, 0.656947
2010.14, 0.656742
2010.92, 0.656538
2011.7, 0.656333
2012.48, 0.656333
2013.26, 0.656231
2014.05, 0.656180
2014.83, 0.656078
2015.61, 0.655975
2016.4, 0.655924
2017.18, 0.656027
2017.97, 0.655975
2018.75, 0.655822
2019.54, 0.655720
2020.32, 0.655669
2021.11, 0.655515
2021.9, 0.655413
2022.69, 0.655464
2023.48, 0.655567
2024.27, 0.655567
2025.06, 0.655413
2025.85, 0.655311
2026.64, 0.655413
2027.44, 0.655464
2028.23, 0.655362
2029.02, 0.655004
2029.82, 0.655055
2030.61, 0.655055
2031.41, 0.654800
2032.2, 0.654749
2033.0, 0.654851
2033.8, 0.654595
2034.6, 0.654391
2035.4, 0.654340
2036.2, 0.654238
2037.0, 0.653880
2037.8, 0.653675
2038.6, 0.653471
2039.4, 0.653420
2040.2, 0.653011
2041.01, 0.652755
2041.81, 0.652500
2042.61, 0.652295
2043.42, 0.651989
2044.22, 0.651938
2045.03, 0.651886
2045.84, 0.651784
2046.65, 0.651375
2047.46, 0.651018
2048.26, 0.650864
2049.07, 0.650660
2049.88, 0.650251
2050.69, 0.649944
2051.51, 0.649842
2052.32, 0.649689
2053.13, 0.649484
2053.94, 0.649126
2054.76, 0.648718
2055.57, 0.648462
2056.39, 0.648206
2057.2, 0.648104
2058.02, 0.648002
2058.84, 0.648053
2059.66, 0.648053
2060.48, 0.647849
2061.29, 0.647491
2062.11, 0.647286
2062.94, 0.647031
2063.76, 0.646877
2064.58, 0.646469
2065.4, 0.646111
2066.22, 0.645804
2067.05, 0.645702
2067.87, 0.645549
2068.7, 0.645344
2069.52, 0.645089
2070.35, 0.644884
2071.18, 0.644475
2072.0, 0.644322
2072.83, 0.644117
2073.66, 0.643760
2074.49, 0.643453
2075.32, 0.643300
2076.15, 0.642942
2076.98, 0.642635
2077.82, 0.642431
2078.65, 0.642175
2079.48, 0.641971
2080.32, 0.641562
2081.15, 0.641102
2081.99, 0.640795
2082.83, 0.640335
2083.66, 0.640028
2084.5, 0.639926
2085.34, 0.639517
2086.18, 0.638904
2087.02, 0.638699
2087.86, 0.638597
2088.7, 0.638342
2089.54, 0.638035
2090.39, 0.637677
2091.23, 0.637319
2092.07, 0.637166
2092.92, 0.637013
2093.76, 0.636808
2094.61, 0.636655
2095.45, 0.636451
2096.3, 0.636195
2097.15, 0.635991
2098.0, 0.635582
2098.85, 0.635428
2099.7, 0.635224
2100.55, 0.634968
2101.4, 0.634508
2102.25, 0.634099
2103.1, 0.633639
2103.96, 0.632975
2104.81, 0.632055
2105.67, 0.631288
2106.52, 0.630317
2107.38, 0.629039
2108.24, 0.627813
2109.09, 0.626944
2109.95, 0.626381
2110.81, 0.626228
2111.67, 0.626228
2112.53, 0.626177
2113.39, 0.626024
2114.25, 0.625819
2115.12, 0.625359
2115.98, 0.625359
2116.84, 0.625155
2117.71, 0.625257
2118.58, 0.625053
2119.44, 0.624848
2120.31, 0.624695
2121.18, 0.624695
2122.04, 0.624695
2122.91, 0.624848
2123.78, 0.624592
2124.65, 0.624490
2125.52, 0.624541
2126.4, 0.624439
2127.27, 0.624184
2128.14, 0.624081
2129.02, 0.623877
2129.89, 0.623724
2130.77, 0.623315
2131.64, 0.623315
2132.52, 0.623672
2133.4, 0.623877
2134.27, 0.623877
2135.15, 0.624235
2136.03, 0.624490
2136.91, 0.624746
2137.79, 0.624644
2138.68, 0.624541
2139.56, 0.624541
2140.44, 0.624439
2141.33, 0.624439
2142.21, 0.624337
2143.1, 0.624030
2143.99, 0.623877
2144.87, 0.623724
2145.76, 0.623519
2146.65, 0.623315
2147.54, 0.623417
2148.43, 0.623264
2149.32, 0.623264
2150.21, 0.623161
2151.1, 0.623212
2151.99, 0.623059
2152.89, 0.623008
2153.78, 0.622855
2154.68, 0.622804
2155.57, 0.622701
2156.47, 0.622650
2157.37, 0.622548
2158.27, 0.622497
2159.16, 0.622497
2160.06, 0.622344
2160.96, 0.622190
2161.86, 0.622139
2162.77, 0.621935
2163.67, 0.621730
2164.57, 0.621730
2165.48, 0.621730
2166.38, 0.621628
2167.29, 0.621577
2168.2, 0.621168
2169.1, 0.621066
2170.01, 0.620861
2170.92, 0.620606
2171.83, 0.620350
2172.74, 0.620095
2173.65, 0.619890
2174.56, 0.619583
2175.47, 0.619123
2176.39, 0.618970
2177.3, 0.618766
2178.22, 0.618510
2179.13, 0.618306
2180.05, 0.618152
2180.96, 0.617692
2181.88, 0.617539
2182.8, 0.617283
2183.72, 0.617181
2184.64, 0.617028
2185.56, 0.616823
2186.48, 0.616568
2187.41, 0.616466
2188.33, 0.616159
2189.25, 0.615903
2190.18, 0.615546
2191.1, 0.615188
2192.03, 0.614932
2192.96, 0.614728
2193.89, 0.614370
2194.82, 0.614012
2195.74, 0.613757
2196.68, 0.613706
2197.61, 0.613399
2198.54, 0.613143
2199.47, 0.612683
2200.4, 0.612377
2201.34, 0.612121
2202.28, 0.612019
2203.21, 0.611763
2204.15, 0.611559
2205.08, 0.611303
2206.02, 0.610997
2206.96, 0.610639
2207.9, 0.610485
2208.84, 0.610179
2209.78, 0.609974
2210.73, 0.609668
2211.67, 0.609463
2212.61, 0.609054
2213.56, 0.608850
2214.5, 0.608594
2215.45, 0.608390
2216.4, 0.608083
2217.35, 0.607777
2218.3, 0.607419
2219.24, 0.607214
2220.2, 0.606703
2221.15, 0.606499
2222.1, 0.606294
2223.05, 0.605936
2224.0, 0.605528
2224.96, 0.605323
2225.91, 0.604812
2226.87, 0.604556
2227.83, 0.604096
2228.79, 0.603739
2229.74, 0.603228
2230.7, 0.602819
2231.66, 0.602205
2232.63, 0.601694
2233.59, 0.600979
2234.55, 0.600110
2235.51, 0.598985
2236.48, 0.597810
2237.44, 0.596174
2238.41, 0.594794
2239.38, 0.593567
2240.34, 0.592494
2241.31, 0.591523
2242.28, 0.590603
2243.25, 0.589274
2244.22, 0.588098
2245.19, 0.586616
2246.17, 0.585338
2247.14, 0.584316
2248.12, 0.583907
2249.09, 0.583856
2250.07, 0.584214
2251.04, 0.584520
2252.02, 0.584674
2253.0, 0.584879
2253.98, 0.585187
2254.96, 0.585546
2255.94, 0.585495
2256.92, 0.585700
2257.91, 0.585649
2258.89, 0.585649
2259.88, 0.585085
2260.86, 0.584418
2261.85, 0.583649
2262.83, 0.582315
2263.82, 0.580776
2264.81, 0.579648
2265.8, 0.577597
2266.79, 0.575494
2267.78, 0.573853
2268.78, 0.572058
2269.77, 0.569904
2270.76, 0.568621
2271.76, 0.567032
2272.75, 0.565185
2273.75, 0.562928
2274.75, 0.560723
2275.75, 0.558877
2276.75, 0.557082
2277.75, 0.554723
2278.75, 0.552107
2279.75, 0.549491
2280.75, 0.546978
2281.76, 0.544209
2282.76, 0.542567
2283.77, 0.540772
2284.77, 0.538772
2285.78, 0.537234
2286.79, 0.536054
2287.8, 0.533951
2288.81, 0.531233
2289.82, 0.527643
2290.83, 0.523232
2291.84, 0.517693
2292.86, 0.511898
2293.87, 0.506307
2294.89, 0.500820
2295.91, 0.496153
2296.92, 0.492409
2297.94, 0.489485
2298.96, 0.487741
2299.98, 0.488049
2301.0, 0.490408
2302.02, 0.493691
2303.04, 0.496306
2304.07, 0.497383
2305.09, 0.497178
2306.12, 0.495947
2307.15, 0.494716
2308.17, 0.492973
2309.2, 0.491075
2310.23, 0.488100
2311.26, 0.485434
2312.29, 0.482715
2313.32, 0.480459
2314.35, 0.479382
2315.39, 0.479535
2316.42, 0.480407
2317.46, 0.481946
2318.5, 0.483587
2319.53, 0.485177
2320.57, 0.487126
2321.61, 0.490152
2322.65, 0.494101
2323.69, 0.499691
2324.73, 0.506461
2325.78, 0.513641
2326.82, 0.520052
2327.86, 0.525643
2328.91, 0.530566
2329.96, 0.535028
2331.01, 0.538926
2332.05, 0.542670
2333.1, 0.546260
2334.15, 0.549543
2335.21, 0.552312
2336.26, 0.554517
2337.31, 0.556210
2338.36, 0.557646
2339.42, 0.559031
2340.48, 0.559697
2341.53, 0.560569
2342.59, 0.562005
2343.65, 0.562775
2344.71, 0.563236
2345.77, 0.563441
2346.83, 0.563544
2347.9, 0.563441
2348.96, 0.563031
2350.02, 0.562416
2351.09, 0.561954
2352.16, 0.561595
2353.23, 0.560928
2354.29, 0.560723
2355.36, 0.560518
2356.43, 0.560262
2357.51, 0.560415
2358.58, 0.560467
2359.65, 0.559338
2360.73, 0.558415
2361.8, 0.557646
2362.88, 0.556364
2363.96, 0.554774
2365.03, 0.552979
2366.11, 0.551389
2367.19, 0.549594
2368.27, 0.547645
2369.36, 0.545952
2370.44, 0.544209
2371.53, 0.541593
2372.61, 0.538875
2373.7, 0.536208
2374.78, 0.532977
2375.87, 0.529438
2376.96, 0.525797
2378.05, 0.522001
2379.14, 0.518411
2380.24, 0.515231
2381.33, 0.512257
2382.42, 0.508820
2383.52, 0.505384
2384.61, 0.503025
2385.71, 0.502102
2386.81, 0.502153
2387.91, 0.503230
2389.01, 0.505230
2390.11, 0.507692
2391.22, 0.510154
2392.32, 0.512923
2393.42, 0.515334
2394.53, 0.517744
2395.64, 0.520822
2396.74, 0.524463
2397.85, 0.528002
2398.96, 0.531643
2400.07, 0.534926
2401.18, 0.537900
2402.3, 0.539952
2403.41, 0.541849
2404.52, 0.543337
2405.64, 0.544568
2406.76, 0.545850
2407.88, 0.546517
2408.99, 0.546927
2410.11, 0.547286
2411.23, 0.547696
2412.36, 0.547696
2413.48, 0.547645
2414.6, 0.547491
2415.73, 0.547235
2416.85, 0.546927
2417.98, 0.546773
2419.11, 0.547337
2420.24, 0.548106
2421.37, 0.549184
2422.5, 0.550209
2423.64, 0.550620
2424.77, 0.551286
2425.9, 0.551953
2427.04, 0.552363
2428.18, 0.552876
2429.31, 0.552927
2430.45, 0.553184
2431.59, 0.553389
2432.73, 0.553440
2433.88, 0.553184
2435.02, 0.552415
2436.16, 0.551286
2437.31, 0.550107
2438.45, 0.548876
2439.6, 0.547696
2440.75, 0.546927
2441.9, 0.546311
2443.05, 0.546004
2444.2, 0.546722
2445.35, 0.547029
2446.51, 0.547440
2447.67, 0.548055
2448.82, 0.548260
2449.98, 0.548414
2451.14, 0.548465
2452.3, 0.548004
2453.46, 0.547696
2454.62, 0.547029
2455.78, 0.546158
2456.94, 0.545337
2458.11, 0.544670
2459.28, 0.544055
2460.44, 0.543798
2461.61, 0.543798
2462.78, 0.544157
2463.95, 0.544465
2465.12, 0.544927
2466.3, 0.545132
2467.47, 0.545337
2468.65, 0.545850
2469.82, 0.546465
2471.0, 0.546363
2472.18, 0.546568
2473.36, 0.546568
2474.54, 0.546619
2475.72, 0.546465
2476.9, 0.546363
2478.08, 0.545952
2479.27, 0.546158
2480.46, 0.546670
2481.64, 0.547081
2482.83, 0.547388
2484.02, 0.548106
2485.21, 0.548773
2486.4, 0.549337
2487.6, 0.549645
2488.79, 0.549799
2489.99, 0.549953
2491.18, 0.550209
2492.38, 0.550261
2493.58, 0.550517
2494.78, 0.550517
2495.98, 0.550773
2497.18, 0.551491
2498.39, 0.551697
2499.59, 0.551850
2500.8, 0.552363
2502.01, 0.552979
2503.21, 0.553235
2504.42, 0.553799
2505.63, 0.554466
2506.84, 0.554569
2508.06, 0.554671
2509.27, 0.554569
2510.49, 0.554825
2511.7, 0.555133
2512.92, 0.555030
2514.14, 0.554671
2515.36, 0.554774
2516.58, 0.555389
2517.8, 0.556107
2519.03, 0.557338
2520.25, 0.558467
2521.48, 0.559338
2522.7, 0.559903
2523.93, 0.560262
2525.16, 0.560980
2526.39, 0.561595
2527.62, 0.561852
2528.86, 0.561800
2530.09, 0.561749
2531.33, 0.561749
2532.56, 0.561954
2533.8, 0.562621
2535.04, 0.562467
2536.28, 0.562211
2537.52, 0.563185
2538.76, 0.563749
2540.01, 0.563852
2541.25, 0.563339
2542.5, 0.562621
2543.75, 0.562877
2544.99, 0.563800
2546.24, 0.563800
2547.49, 0.563339
2548.75, 0.563441
2550.0, 0.562672
2551.26, 0.561441
2552.51, 0.560723
2553.77, 0.561339
2555.03, 0.561800
2556.29, 0.561492
2557.55, 0.561082
2558.81, 0.560159
2560.08, 0.557338
2561.34, 0.555133
2562.61, 0.555287
2563.88, 0.555851
2565.14, 0.558210
2566.41, 0.560518
2567.68, 0.560108
2568.96, 0.557902
2570.23, 0.558825
2571.51, 0.560621
2572.78, 0.558467
2574.06, 0.560159
2575.34, 0.562005
2576.62, 0.561800
2577.9, 0.564159
2579.18, 0.565749
2580.47, 0.564518
2581.75, 0.564364
2583.04, 0.561441
2584.32, 0.561954
2585.61, 0.564929
2586.9, 0.563903
2588.2, 0.564775
2589.49, 0.566672
2590.78, 0.568621
2592.08, 0.567544
2593.37, 0.558979
2594.67, 0.552312
2595.97, 0.559851
2597.27, 0.568314
2598.57, 0.571391
2599.88, 0.570775
2601.18, 0.569339
2602.49, 0.568365
2603.79, 0.565955
2605.1, 0.563082
2606.41, 0.565852
2607.72, 0.569596
2609.03, 0.571032
2610.35, 0.572724
2611.66, 0.574263
2612.98, 0.574263
2614.3, 0.575084
2615.62, 0.571596
2616.94, 0.569852
2618.26, 0.572878
2619.58, 0.570416
2620.91, 0.571801
2622.23, 0.577391
2623.56, 0.578930
2624.89, 0.577135
2626.22, 0.573391
2627.55, 0.575699
2628.88, 0.574827
2630.21, 0.571083
2631.55, 0.575237
2632.89, 0.577751
2634.22, 0.578212
2635.56, 0.580264
2636.9, 0.581033
2638.25, 0.581392
2639.59, 0.581238
2640.93, 0.581135
2642.28, 0.581289
2643.63, 0.581956
2644.98, 0.581084
2646.33, 0.582059
2647.68, 0.584315
2649.03, 0.585751
2650.39, 0.585238
2651.74, 0.583341
2653.1, 0.583700
2654.46, 0.584982
2655.82, 0.585546
2657.18, 0.587136
2658.54, 0.585649
2659.9, 0.585136
2661.27, 0.586315
2662.64, 0.586315
2664.01, 0.580212
2665.38, 0.574878
2666.74, 0.574878
2668.12, 0.577751
2669.49, 0.570211
2670.87, 0.566160
2672.24, 0.569596
2673.62, 0.564518
2675.0, 0.552979
2676.38, 0.539952
2677.76, 0.529540
2679.15, 0.517385
2680.54, 0.506513
2681.92, 0.492870
2683.31, 0.478356
2684.7, 0.465791
2686.09, 0.454200
2687.48, 0.444147
2688.88, 0.435172
2690.27, 0.427376
2691.67, 0.421324
2693.07, 0.415888
2694.47, 0.415734
2695.87, 0.419376
2697.27, 0.423427
2698.67, 0.426146
2700.08, 0.427838
2701.49, 0.430351
2702.9, 0.434505
2704.31, 0.437377
2705.72, 0.439480
2707.13, 0.439531
2708.54, 0.436711
2709.96, 0.431890
2711.38, 0.429325
2712.8, 0.427069
2714.22, 0.416298
2715.64, 0.388142
2717.06, 0.330033
2718.49, 0.243819
2719.91, 0.158939
2721.34, 0.118525
2722.77, 0.120115
2724.2, 0.133654
2725.63, 0.154426
2727.07, 0.181916
2728.5, 0.200738
2729.94, 0.194943
2731.38, 0.180941
2732.82, 0.180121
2734.26, 0.189250
2735.7, 0.204636
2737.15, 0.219766
2738.59, 0.232434
2740.04, 0.245461
2741.49, 0.259000
2742.94, 0.269822
2744.39, 0.278233
2745.84, 0.288388
2747.3, 0.299517
2748.76, 0.308646
2750.21, 0.316545
2751.67, 0.322956
2753.14, 0.327828
2754.6, 0.329777
2756.06, 0.334700
2757.53, 0.340752
2759.0, 0.345368
2760.46, 0.352856
2761.94, 0.362960
2763.41, 0.374140
2764.88, 0.384398
2766.36, 0.391116
2767.83, 0.396142
2769.31, 0.400861
2770.79, 0.406092
2772.27, 0.414093
2773.76, 0.423786
2775.24, 0.434095
2776.73, 0.444609
2778.22, 0.454046
2779.71, 0.461380
2781.2, 0.466611
2782.69, 0.471535
2784.18, 0.475689
2785.68, 0.477843
2787.18, 0.480972
2788.68, 0.486972
2790.18, 0.492460
2791.68, 0.496101
2793.19, 0.498409
2794.69, 0.500153
2796.2, 0.501127
2797.71, 0.501794
2799.22, 0.501897
2800.73, 0.500512
2802.24, 0.497896
2803.76, 0.497383
2805.28, 0.498153
2806.8, 0.498307
2808.32, 0.498050
2809.84, 0.497742
2811.36, 0.497537
2812.89, 0.497076
2814.42, 0.496460
2815.94, 0.496768
2817.48, 0.496460
2819.01, 0.495794
2820.54, 0.496153
2822.08, 0.497178
2823.61, 0.497845
2825.15, 0.498358
2826.69, 0.498768
2828.23, 0.499281
2829.78, 0.500153
2831.32, 0.500666
2832.87, 0.500717
2834.42, 0.500922
2835.97, 0.501384
2837.52, 0.501692
2839.08, 0.502051
2840.63, 0.502051
2842.19, 0.501794
2843.75, 0.501743
2845.31, 0.501435
2846.87, 0.500512
2848.44, 0.499384
2850.0, 0.498717
2851.57, 0.498050
2853.14, 0.496973
2854.71, 0.495947
2856.28, 0.495332
2857.86, 0.494409
2859.43, 0.493332
2861.01, 0.491947
2862.59, 0.490973
2864.17, 0.489947
2865.76, 0.488818
2867.34, 0.487588
2868.93, 0.486305
2870.52, 0.484818
2872.11, 0.483741
2873.7, 0.483074
2875.29, 0.482305
2876.89, 0.481331
2878.49, 0.480920
2880.08, 0.480510
2881.69, 0.479843
2883.29, 0.479279
2884.89, 0.479176
2886.5, 0.478920
2888.11, 0.478817
2889.72, 0.478561
2891.33, 0.478612
2892.94, 0.478561
2894.56, 0.478612
2896.17, 0.478971
2897.79, 0.479382
2899.42, 0.479484
2901.04, 0.479946
2902.66, 0.480664
2904.29, 0.481228
2905.92, 0.481843
2907.55, 0.482664
2909.18, 0.483485
2910.81, 0.484510
2912.45, 0.485434
2914.08, 0.486254
2915.72, 0.487126
2917.36, 0.488203
2919.01, 0.489075
2920.65, 0.489844
2922.3, 0.490357
2923.94, 0.491280
2925.59, 0.492306
2927.25, 0.493024
2928.9, 0.493793
2930.56, 0.494665
2932.21, 0.495076
2933.87, 0.495742
2935.53, 0.496409
2937.2, 0.496768
2938.86, 0.497230
2940.53, 0.497691
2942.2, 0.497999
2943.87, 0.498409
2945.54, 0.498717
2947.22, 0.498922
2948.89, 0.498973
2950.57, 0.499178
2952.25, 0.499384
2953.93, 0.499230
2955.62, 0.499025
2957.3, 0.498819
2958.99, 0.498461
2960.68, 0.498153
2962.37, 0.497691
2964.07, 0.497332
2965.76, 0.497127
2967.46, 0.496973
2969.16, 0.496665
2970.86, 0.496665
2972.56, 0.496665
2974.27, 0.496973
2975.98, 0.497076
2977.69, 0.497127
2979.4, 0.497383
2981.11, 0.497794
2982.83, 0.498050
2984.54, 0.498563
2986.26, 0.499178
2987.98, 0.499589
2989.71, 0.499999
2991.43, 0.500615
2993.16, 0.501333
2994.89, 0.501999
2996.62, 0.502666
2998.35, 0.503384
3000.09, 0.504051
3001.83, 0.504871
3003.57, 0.505795
3005.31, 0.506564
3007.05, 0.507384
3008.79, 0.508308
3010.54, 0.509231
3012.29, 0.509949
3014.04, 0.510821
3015.8, 0.511744
3017.55, 0.512564
3019.31, 0.513436
3021.07, 0.514154
3022.83, 0.515078
3024.59, 0.515949
3026.36, 0.516770
3028.13, 0.517539
3029.9, 0.518257
3031.67, 0.518873
3033.44, 0.519693
3035.22, 0.520258
3037.0, 0.520976
3038.78, 0.521899
3040.56, 0.522668
3042.34, 0.523232
3044.13, 0.524001
3045.92, 0.524617
3047.71, 0.525335
3049.5, 0.526156
3051.3, 0.526976
3053.09, 0.527797
3054.89, 0.528669
3056.69, 0.529489
3058.5, 0.530361
3060.3, 0.530977
3062.11, 0.531695
3063.92, 0.532361
3065.73, 0.532977
3067.55, 0.533643
3069.36, 0.534362
3071.18, 0.534977
3073.0, 0.535490
3074.82, 0.536054
3076.65, 0.536618
3078.48, 0.537234
3080.31, 0.537900
3082.14, 0.538465
3083.97, 0.539388
3085.8, 0.540157
3087.64, 0.540875
3089.48, 0.541490
3091.33, 0.542106
3093.17, 0.542465
3095.02, 0.543080
3096.87, 0.543645
3098.72, 0.544362
3100.57, 0.545081
3102.43, 0.545440
3104.28, 0.545696
3106.14, 0.546106
3108.01, 0.546670
3109.87, 0.547029
3111.74, 0.547542
3113.61, 0.548158
3115.48, 0.548619
3117.35, 0.549184
3119.23, 0.549850
3121.1, 0.550620
3122.98, 0.551235
3124.87, 0.551850
3126.75, 0.552466
3128.64, 0.553081
3130.53, 0.553645
3132.42, 0.554107
3134.31, 0.554723
3136.21, 0.555389
3138.11, 0.555851
3140.01, 0.556261
3141.91, 0.556466
3143.82, 0.556415
3145.73, 0.556210
3147.64, 0.556056
3149.55, 0.555902
3151.46, 0.555646
3153.38, 0.555389
3155.3, 0.555030
3157.22, 0.554671
3159.14, 0.554312
3161.07, 0.553748
3163.0, 0.553235
3164.93, 0.552568
3166.86, 0.551902
3168.8, 0.551286
3170.74, 0.551235
3172.68, 0.551697
3174.62, 0.552517
3176.56, 0.553543
3178.51, 0.554210
3180.46, 0.554723
3182.42, 0.555543
3184.37, 0.556466
3186.33, 0.557441
3188.29, 0.558620
3190.25, 0.560005
3192.21, 0.561236
3194.18, 0.562416
3196.15, 0.563493
3198.12, 0.564467
3200.09, 0.565390
3202.07, 0.566416
3204.05, 0.567288
3206.03, 0.568108
3208.02, 0.568878
3210.0, 0.569596
3211.99, 0.570314
3213.98, 0.570929
3215.98, 0.571545
3217.97, 0.572006
3219.97, 0.572571
3221.97, 0.572930
3223.98, 0.573237
3225.98, 0.573853
3227.99, 0.574417
3230.0, 0.574673
3232.02, 0.575084
3234.03, 0.575648
3236.05, 0.576212
3238.07, 0.576776
3240.1, 0.577135
3242.12, 0.577699
3244.15, 0.578161
3246.18, 0.578571
3248.22, 0.578981
3250.25, 0.579494
3252.29, 0.579751
3254.33, 0.580110
3256.38, 0.580417
3258.43, 0.580725
3260.47, 0.580930
3262.53, 0.581187
3264.58, 0.581392
3266.64, 0.581597
3268.7, 0.581700
3270.76, 0.581597
3272.82, 0.581392
3274.89, 0.581289
3276.96, 0.580930
3279.04, 0.580264
3281.11, 0.579187
3283.19, 0.577699
3285.27, 0.576212
3287.35, 0.574622
3289.44, 0.572981
3291.53, 0.571494
3293.62, 0.570006
3295.71, 0.568673
3297.81, 0.567237
3299.91, 0.565801
3302.01, 0.564364
3304.11, 0.563082
3306.22, 0.561903
3308.33, 0.561236
3310.44, 0.560826
3312.56, 0.560621
3314.68, 0.560415
3316.8, 0.560313
3318.92, 0.560108
3321.05, 0.559903
3323.18, 0.559800
3325.31, 0.559749
3327.44, 0.559390
3329.58, 0.558620
3331.72, 0.557441
3333.86, 0.555902
3336.01, 0.554364
3338.16, 0.553030
3340.31, 0.552107
3342.46, 0.551440
3344.61, 0.550671
3346.77, 0.550363
3348.94, 0.550517
3351.1, 0.551133
3353.27, 0.551697
3355.44, 0.552415
3357.61, 0.553133
3359.79, 0.553543
3361.97, 0.553748
3364.15, 0.553594
3366.33, 0.552979
3368.52, 0.552312
3370.71, 0.551748
3372.9, 0.551440
3375.1, 0.551491
3377.3, 0.551748
3379.5, 0.552568
3381.71, 0.553697
3383.91, 0.554671
3386.12, 0.555697
3388.34, 0.556620
3390.55, 0.556979
3392.77, 0.556774
3394.99, 0.556261
3397.22, 0.555389
3399.45, 0.554158
3401.68, 0.552774
3403.91, 0.551389
3406.15, 0.549902
3408.39, 0.548568
3410.63, 0.547542
3412.87, 0.546876
3415.12, 0.546568
3417.37, 0.547081
3419.63, 0.548773
3421.88, 0.551184
3424.14, 0.554107
3426.41, 0.557236
3428.67, 0.560364
3430.94, 0.563595
3433.21, 0.566570
3435.49, 0.568980
3437.77, 0.570981
3440.05, 0.572878
3442.33, 0.574519
3444.62, 0.576109
3446.91, 0.577545
3449.2, 0.578828
3451.5, 0.580007
3453.8, 0.581084
3456.1, 0.582161
3458.41, 0.583238
3460.72, 0.584059
3463.03, 0.584777
3465.34, 0.585187
3467.66, 0.585444
3469.98, 0.585392
3472.31, 0.585341
3474.63, 0.585290
3476.96, 0.585341
3479.3, 0.585444
3481.64, 0.585392
3483.97, 0.585238
3486.32, 0.585187
3488.66, 0.584726
3491.01, 0.583700
3493.36, 0.582418
3495.72, 0.580828
3498.08, 0.579443
3500.44, 0.578622
3502.81, 0.578674
3505.18, 0.579905
3507.55, 0.581905
3509.92, 0.584777
3512.3, 0.587905
3514.68, 0.591188
3517.06, 0.594060
3519.45, 0.596368
3521.84, 0.598214
3524.24, 0.599753
3526.64, 0.600932
3529.04, 0.601855
3531.44, 0.602727
3533.85, 0.603651
3536.26, 0.604266
3538.67, 0.604779
3541.09, 0.605446
3543.51, 0.605958
3545.93, 0.606574
3548.36, 0.607087
3550.79, 0.607497
3553.22, 0.607805
3555.66, 0.608061
3558.1, 0.608472
3560.54, 0.608933
3562.99, 0.609241
3565.44, 0.609549
3567.9, 0.609805
3570.35, 0.610061
3572.81, 0.610420
3575.28, 0.610677
3577.75, 0.611036
3580.22, 0.611241
3582.69, 0.611446
3585.17, 0.611651
3587.65, 0.611857
3590.14, 0.612062
3592.62, 0.612369
3595.11, 0.612523
3597.61, 0.612677
3600.11, 0.612934
3602.61, 0.613139
3605.11, 0.613344
3607.62, 0.613498
3610.14, 0.613652
3612.65, 0.613703
3615.17, 0.613754
3617.69, 0.613908
3620.22, 0.614113
3622.75, 0.614216
3625.28, 0.614216
3627.82, 0.614318
3630.36, 0.614472
3632.9, 0.614626
3635.45, 0.614472
3638.0, 0.614421
3640.56, 0.614575
3643.12, 0.614780
3645.68, 0.614831
3648.24, 0.614831
3650.81, 0.614882
3653.39, 0.614985
3655.96, 0.615241
3658.54, 0.615447
3661.13, 0.615549
3663.71, 0.615549
3666.3, 0.615652
3668.9, 0.615908
3671.5, 0.616062
3674.1, 0.616165
3676.7, 0.616267
3679.31, 0.616575
3681.93, 0.616729
3684.54, 0.616831
3687.17, 0.616011
3689.79, 0.614216
3692.42, 0.613754
3695.05, 0.615139
3697.69, 0.616472
3700.32, 0.616985
3702.97, 0.616985
3705.61, 0.617088
3708.27, 0.617447
3710.92, 0.617755
3713.58, 0.618062
3716.24, 0.618267
3718.91, 0.618524
3721.58, 0.618678
3724.25, 0.618729
3726.93, 0.618729
3729.61, 0.618626
3732.29, 0.618780
3734.98, 0.618934
3737.67, 0.619037
3740.37, 0.619139
3743.07, 0.619191
3745.78, 0.619242
3748.49, 0.619242
3751.2, 0.619191
3753.91, 0.619293
3756.63, 0.619344
3759.36, 0.619447
3762.09, 0.619447
3764.82, 0.619601
3767.55, 0.619703
3770.29, 0.619703
3773.04, 0.619703
3775.78, 0.619703
3778.54, 0.619601
3781.29, 0.619755
3784.05, 0.619806
3786.82, 0.619703
3789.59, 0.619601
3792.36, 0.619601
3795.13, 0.619550
3797.92, 0.619447
3800.7, 0.619498
3803.49, 0.619498
3806.28, 0.619344
3809.08, 0.619293
3811.88, 0.619242
3814.68, 0.619293
3817.49, 0.619293
3820.31, 0.619139
3823.12, 0.619088
3825.94, 0.619037
3828.77, 0.619037
3831.6, 0.618934
3834.43, 0.618832
3837.27, 0.618832
3840.11, 0.618780
3842.96, 0.618883
3845.81, 0.618883
3848.67, 0.618678
3851.53, 0.618524
3854.39, 0.618524
3857.26, 0.618421
3860.13, 0.618165
3863.01, 0.618011
3865.89, 0.618011
3868.77, 0.617908
3871.66, 0.617857
3874.55, 0.617755
3877.45, 0.617498
3880.35, 0.617396
3883.26, 0.617293
3886.17, 0.617242
3889.09, 0.617088
3892.01, 0.616934
3894.93, 0.616780
3897.86, 0.616677
3900.79, 0.616524
3903.73, 0.616267
3906.67, 0.616113
3909.62, 0.616011
3912.57, 0.615908
3915.52, 0.615703
3918.48, 0.615498
3921.45, 0.615293
3924.42, 0.615190
3927.39, 0.614934
3930.37, 0.614831
3933.35, 0.614677
3936.34, 0.614472
3939.33, 0.614267
3942.32, 0.614216
3945.32, 0.614011
3948.33, 0.613857
3951.34, 0.613652
3954.35, 0.613446
3957.37, 0.613087
3960.39, 0.612934
3963.42, 0.612780
3966.45, 0.612677
3969.49, 0.612575
3972.53, 0.612472
3975.58, 0.612421
3978.63, 0.612267
3981.68, 0.612062
3984.75, 0.612062
3987.81, 0.612062
3990.88, 0.612113
3993.95, 0.612010
3997.03, 0.612010
4000.12, 0.612010
4003.21, 0.612010
4006.3, 0.612062
4009.4, 0.612062
4012.5, 0.611908
4015.61, 0.611805
4018.72, 0.611754
4021.84, 0.611549
4024.96, 0.611344
4028.09, 0.611344
4031.22, 0.611241
4034.36, 0.611138
4037.5, 0.610985
4040.65, 0.610831
4043.8, 0.610574
4046.96, 0.610472
4050.12, 0.610267
4053.29, 0.610113
4056.46, 0.609856
4059.64, 0.609754
4062.82, 0.609600
4066.0, 0.609292
4069.19, 0.608984
4072.39, 0.608779
4075.59, 0.608625
4078.8, 0.608472
4082.01, 0.608318
4085.23, 0.608113
4088.45, 0.607754
4091.68, 0.607548
4094.91, 0.607343
4098.15, 0.607138
4101.39, 0.606933
4104.63, 0.606779
4107.89, 0.606574
4111.14, 0.606318
4114.41, 0.606112
4117.67, 0.605907
4120.95, 0.605753
4124.23, 0.605548
4127.51, 0.605394
4130.8, 0.605240
4134.09, 0.604984
4137.39, 0.604728
4140.7, 0.604522
4144.01, 0.604369
4147.32, 0.604215
4150.64, 0.604010
4153.97, 0.603856
4157.3, 0.603804
4160.64, 0.603753
4163.98, 0.603497
4167.33, 0.603292
4170.68, 0.603189
4174.04, 0.602933
4177.4, 0.602830
4180.77, 0.602727
4184.14, 0.602676
4187.52, 0.602317
4190.91, 0.602009
4194.3, 0.601548
4197.69, 0.600625
4201.1, 0.599137
4204.5, 0.597137
4207.92, 0.594521
4211.34, 0.591444
4214.76, 0.588059
4218.19, 0.584777
4221.62, 0.581802
4225.06, 0.579289
4228.51, 0.577443
4231.96, 0.576212
4235.42, 0.575904
4238.88, 0.576571
4242.35, 0.578212
4245.83, 0.580879
4249.31, 0.584777
4252.79, 0.589598
4256.28, 0.592470
4259.78, 0.590316
4263.29, 0.585956
4266.79, 0.582931
4270.31, 0.581135
4273.83, 0.580212
4277.35, 0.579956
4280.89, 0.580007
4284.42, 0.580161
4287.97, 0.580520
4291.52, 0.581238
4295.07, 0.582366
4298.63, 0.583597
4302.2, 0.584623
4305.78, 0.585751
4309.35, 0.587034
4312.94, 0.588264
4316.53, 0.589495
4320.13, 0.590521
4323.73, 0.591290
4327.34, 0.592060
4330.96, 0.592726
4334.58, 0.593188
4338.21, 0.593547
4341.84, 0.593855
4345.48, 0.593957
4349.12, 0.593906
4352.77, 0.593803
4356.43, 0.593752
4360.1, 0.593752
4363.76, 0.593598
4367.44, 0.593496
4371.12, 0.593393
4374.81, 0.593137
4378.51, 0.592778
4382.21, 0.592470
4385.92, 0.592111
4389.63, 0.591701
4393.35, 0.591290
4397.08, 0.590829
4400.81, 0.590470
4404.55, 0.590059
4408.29, 0.589495
4412.04, 0.589034
4415.8, 0.588470
4419.57, 0.587905
4423.34, 0.587444
4427.12, 0.586982
4430.9, 0.586469
4434.69, 0.585854
4438.49, 0.585136
4442.29, 0.584520
4446.1, 0.583905
4449.92, 0.583290
4453.74, 0.582418
4457.57, 0.581648
4461.41, 0.580828
4465.25, 0.580007
4469.1, 0.579135
4472.95, 0.578263
4476.82, 0.577340
4480.69, 0.576468
4484.56, 0.575545
4488.44, 0.574519
4492.33, 0.573442
4496.23, 0.572417
4500.13, 0.571340
4504.04, 0.570211
4507.96, 0.569083
4511.88, 0.567903
4515.81, 0.566621
4519.75, 0.565339
4523.69, 0.564006
4527.65, 0.562775
4531.6, 0.561595
4535.57, 0.560313
4539.54, 0.558928
4543.52, 0.557492
4547.5, 0.555697
4551.5, 0.553697
4555.5, 0.551543
4559.5, 0.549389
4563.52, 0.547132
4567.54, 0.544927
4571.56, 0.542773
4575.6, 0.540721
4579.64, 0.538721
4583.69, 0.536772
4587.75, 0.534977
4591.81, 0.533182
4595.88, 0.531438
4599.96, 0.529489
4604.04, 0.527386
4608.14, 0.525284
4612.24, 0.523130
4616.34, 0.520719
4620.46, 0.518103
4624.58, 0.515437
4628.71, 0.512821
4632.84, 0.510154
4636.99, 0.507384
4641.14, 0.504615
4645.3, 0.502051
4649.47, 0.499486
4653.64, 0.496973
4657.82, 0.494409
4662.01, 0.491793
4666.21, 0.489229
4670.41, 0.486664
4674.62, 0.484100
4678.84, 0.481587
4683.07, 0.479074
4687.3, 0.476612
4691.54, 0.474458
4695.79, 0.472407
4700.05, 0.470560
4704.31, 0.468714
4708.59, 0.466970
4712.87, 0.465226
4717.15, 0.463483
4721.45, 0.461534
4725.76, 0.459533
4730.07, 0.457482
4734.39, 0.455225
4738.72, 0.452764
4743.05, 0.450045
4747.39, 0.447225
4751.75, 0.444455
4756.1, 0.441532
4760.47, 0.438506
4764.85, 0.435480
4769.23, 0.432403
4773.62, 0.429428
4778.02, 0.426504
4782.43, 0.423632
4786.85, 0.421017
4791.27, 0.418760
4795.7, 0.416863
4800.14, 0.415273
4804.59, 0.414144
4809.05, 0.413375
4813.51, 0.412811
4817.99, 0.412247
4822.47, 0.411990
4826.96, 0.411785
4831.46, 0.411477
4835.96, 0.411118
4840.48, 0.410708
4845.0, 0.410298
4849.54, 0.409939
4854.08, 0.409272
4858.63, 0.408605
4863.18, 0.407990
4867.75, 0.407169
4872.33, 0.406297
4876.91, 0.405323
4881.5, 0.404246
4886.1, 0.403015
4890.71, 0.401784
4895.33, 0.400399
4899.96, 0.398604
4904.59, 0.396655
4909.24, 0.394655
4913.89, 0.392604
4918.55, 0.390501
4923.22, 0.388347
4927.9, 0.386295
4932.59, 0.384295
4937.29, 0.382398
4942.0, 0.380602
4946.71, 0.378654
4951.44, 0.376756
4956.17, 0.374961
4960.91, 0.373320
4965.67, 0.371627
4970.43, 0.369781
4975.2, 0.367935
4979.98, 0.366088
4984.76, 0.364088
4989.56, 0.362139
4994.37, 0.360293
4999.18, 0.358292
5004.01, 0.356292
5008.84, 0.354343
5013.69, 0.352189
5018.54, 0.349830
5023.4, 0.348035
5028.28, 0.346394
5033.16, 0.344855
5038.05, 0.343265
5042.95, 0.341522
5047.86, 0.340034
5052.78, 0.338547
5057.71, 0.337265
5062.65, 0.335983
5067.6, 0.334854
5072.56, 0.333777
5077.53, 0.332598
5082.5, 0.331315
5087.49, 0.330290
5092.49, 0.329008
5097.5, 0.327469
5102.51, 0.325930
5107.54, 0.324289
5112.58, 0.322648
5117.62, 0.321520
5122.68, 0.320750
5127.75, 0.320494
5132.82, 0.320750
5137.91, 0.321622
5143.01, 0.322904
5148.12, 0.324751
5153.23, 0.327469
5158.36, 0.330238
5163.5, 0.332854
5168.65, 0.335418
5173.81, 0.337829
5178.98, 0.339932
5184.15, 0.341573
5189.34, 0.342599
5194.54, 0.342804
5199.75, 0.342240
5204.98, 0.341419
5210.21, 0.339162
5215.45, 0.336649
5220.7, 0.334341
5225.96, 0.331008
5231.23, 0.327212
5236.52, 0.323315
5241.81, 0.320186
5247.12, 0.317776
5252.44, 0.316134
5257.76, 0.315057
5263.1, 0.314339
5268.45, 0.313570
5273.81, 0.312493
5279.18, 0.311262
5284.56, 0.309723
5289.95, 0.307313
5295.36, 0.305262
5300.77, 0.303210
5306.2, 0.300646
5311.63, 0.298184
5317.08, 0.296030
5322.54, 0.294337
5328.01, 0.293260
5333.49, 0.292645
5338.98, 0.292645
5344.49, 0.292183
5350.0, 0.291927
5355.53, 0.293363
5361.07, 0.294953
5366.62, 0.295927
5372.18, 0.296543
5377.75, 0.297158
5383.34, 0.297671
5388.93, 0.298030
5394.54, 0.298133
5400.16, 0.298030
5405.79, 0.297415
5411.44, 0.296338
5417.09, 0.293927
5422.76, 0.291568
5428.43, 0.291465
5434.12, 0.290337
5439.83, 0.288285
5445.54, 0.286337
5451.26, 0.284900
5457.0, 0.283413
5462.75, 0.282182
5468.52, 0.282900
5474.29, 0.283977
5480.08, 0.284952
5485.88, 0.286747
5491.69, 0.287875
5497.51, 0.288439
5503.35, 0.288593
5509.2, 0.288542
5515.06, 0.287721
5520.93, 0.286490
5526.82, 0.285413
5532.71, 0.284388
5538.63, 0.282900
5544.55, 0.281003
5550.49, 0.278797
5556.44, 0.277156
5562.4, 0.275771
5568.37, 0.274028
5574.36, 0.270848
5580.36, 0.268591
5586.37, 0.268437
5592.4, 0.267719
5598.44, 0.265770
5604.49, 0.264180
5610.56, 0.262898
5616.63, 0.261565
5622.73, 0.260847
5628.83, 0.259872
5634.95, 0.257770
5641.08, 0.255667
5647.23, 0.256590
5653.39, 0.257359
5659.56, 0.257770
5665.74, 0.258180
5671.94, 0.257103
5678.15, 0.257000
5684.38, 0.257872
5690.62, 0.257770
5696.87, 0.258282
5703.14, 0.257770
5709.42, 0.256026
5715.72, 0.255923
5722.03, 0.256180
5728.35, 0.255872
5734.69, 0.254538
5741.03, 0.252795
5747.4, 0.250743
5753.78, 0.250128
5760.17, 0.246589
5766.58, 0.242691
5773.0, 0.243922
5779.44, 0.244589
5785.88, 0.243973
5792.35, 0.243050
5798.83, 0.241665
5805.32, 0.240383
5811.83, 0.238024
5818.35, 0.233767
5824.89, 0.231921
5831.45, 0.232434
5838.01, 0.232177
5844.59, 0.230946
5851.19, 0.228741
5857.8, 0.226228
5864.43, 0.223869
5871.07, 0.221920
5877.73, 0.216740
5884.4, 0.215355
5891.09, 0.215252
5897.79, 0.214022
5904.5, 0.216381
5911.23, 0.217253
5917.98, 0.217201
5924.75, 0.217253
5931.53, 0.215047
5938.32, 0.215047
5945.13, 0.219971
5951.96, 0.223151
5958.8, 0.224843
5965.65, 0.224946
5972.53, 0.227151
5979.42, 0.229767
5986.32, 0.230177
5993.24, 0.231870
6000.18, 0.234177
6007.13, 0.233767
6014.1, 0.232331
6021.08, 0.232177
6028.09, 0.231049
6035.1, 0.228126
6042.14, 0.221202
6049.19, 0.214842
6056.25, 0.216535
6063.34, 0.215817
6070.44, 0.211252
6077.55, 0.209303
6084.69, 0.208790
6091.84, 0.206841
6099.0, 0.204072
6106.19, 0.200071
6113.39, 0.196327
6120.61, 0.196533
6127.84, 0.196584
6135.09, 0.194891
6142.36, 0.193250
6149.65, 0.192019
6156.95, 0.190327
6164.27, 0.189763
6171.61, 0.189609
6178.97, 0.187198
6186.34, 0.185455
6193.73, 0.187044
6201.14, 0.187762
6208.57, 0.188019
6216.01, 0.188686
6223.47, 0.189917
6230.95, 0.191250
6238.45, 0.192789
6245.97, 0.194481
6253.5, 0.196379
6261.06, 0.198276
6268.63, 0.200482
6276.21, 0.202841
6283.82, 0.205508
6291.45, 0.208124
6299.1, 0.210996
6306.76, 0.213919
6314.44, 0.216996
6322.14, 0.220073
6329.86, 0.223202
6337.6, 0.224176
6345.35, 0.226023
6353.13, 0.231664
6360.92, 0.234895
6368.74, 0.235973
6376.57, 0.239357
6384.43, 0.242537
6392.3, 0.244794
6400.19, 0.245666
6408.1, 0.242383
6416.03, 0.242742
6423.98, 0.249205
6431.95, 0.253051
6439.94, 0.256180
6447.95, 0.258436
6455.98, 0.260283
6464.03, 0.261565
6472.1, 0.261514
6480.19, 0.261001
6488.31, 0.259257
6496.44, 0.260744
6504.59, 0.266642
6512.76, 0.268591
6520.95, 0.268181
6529.16, 0.270181
6537.4, 0.270694
6545.65, 0.269617
6553.92, 0.268386
6562.22, 0.266847
6570.54, 0.263565
6578.88, 0.263514
6587.23, 0.263411
6595.61, 0.262078
6604.02, 0.261308
6612.44, 0.259308
6620.89, 0.256795
6629.35, 0.251564
6637.84, 0.247717
6646.35, 0.250025
6654.88, 0.251461
6663.44, 0.249358
6672.01, 0.246538
6680.61, 0.244281
6689.23, 0.244435
6697.88, 0.244127
6706.54, 0.241665
6715.23, 0.240332
6723.94, 0.240127
6732.67, 0.239922
6741.42, 0.238998
6750.2, 0.237460
6759.0, 0.236075
6767.82, 0.233921
6776.67, 0.231254
6785.54, 0.228023
6794.44, 0.226946
6803.35, 0.227715
6812.29, 0.226638
6821.26, 0.224125
6830.24, 0.222792
6839.25, 0.222689
6848.29, 0.220638
6857.35, 0.216483
6866.43, 0.215047
6875.54, 0.217304
6884.67, 0.217355
6893.82, 0.216278
6903.0, 0.214483
6912.2, 0.213457
6921.43, 0.212586
6930.69, 0.211098
6939.96, 0.209303
6949.27, 0.206636
6958.59, 0.203200
6967.95, 0.202636
6977.33, 0.202072
6986.73, 0.200123
6996.16, 0.198225
7005.61, 0.196892
7015.09, 0.195045
7024.6, 0.193250
7034.13, 0.191045
7043.69, 0.187968
7053.27, 0.187096
7062.88, 0.186839
7072.52, 0.185455
7082.18, 0.183762
7091.87, 0.182121
7101.58, 0.180428
7111.32, 0.178223
7121.09, 0.176274
7130.88, 0.174684
7140.71, 0.172530
7150.56, 0.170530
7160.43, 0.168786
7170.33, 0.166837
7180.27, 0.165760
7190.23, 0.164273
7200.21, 0.162016
7210.23, 0.159862
7220.27, 0.158426
7230.34, 0.156529
7240.44, 0.154426
7250.56, 0.152169
7260.72, 0.149964
7270.9, 0.147451
7281.12, 0.145348
7291.36, 0.143553
7301.63, 0.141604
7311.93, 0.139655
7322.25, 0.137706
7332.61, 0.135347
7343.0, 0.133552
7353.41, 0.132116
7363.86, 0.130629
7374.33, 0.129141
7384.83, 0.127808
7395.37, 0.126474
7405.93, 0.125346
7416.53, 0.124269
7427.15, 0.123243
7437.81, 0.122166
7448.5, 0.121192
7459.22, 0.120166
7469.96, 0.119448
7480.74, 0.118730
7491.55, 0.118166
7502.39, 0.117602
7513.27, 0.117037
7524.17, 0.116422
7535.11, 0.115755
7546.08, 0.114781
7557.08, 0.113601
7568.11, 0.112216
7579.17, 0.110678
7590.27, 0.109190
7601.4, 0.107652
7612.56, 0.105857
7623.76, 0.104113
7634.98, 0.102215
7646.24, 0.100267
7657.54, 0.0981640
7668.87, 0.0960610
7680.23, 0.0938560
7691.62, 0.0917530
7703.05, 0.0895470
7714.51, 0.0874450
7726.01, 0.0855980
7737.54, 0.0838030
7749.11, 0.0819570
7760.71, 0.0802650
7772.35, 0.0787260
7784.02, 0.0770330
7795.72, 0.0752380
7807.46, 0.0734430
7819.23, 0.0717510
7831.04, 0.0701100
7842.89, 0.0681610
7854.77, 0.0661610
7866.69, 0.0642120
7878.65, 0.0621600
7890.64, 0.0600060
7902.67, 0.0578520
7914.74, 0.0556470
7926.84, 0.0534930
7938.98, 0.0511850
7951.16, 0.0489280
7963.37, 0.0468250
7975.62, 0.0448250
7987.91, 0.0426710
8000.24, 0.0405680
8012.6, 0.0386190
8025.01, 0.0367730
8037.45, 0.0350800
8049.93, 0.0334910
8062.45, 0.0318490
8075.01, 0.0303110
8087.61, 0.0289260
8100.24, 0.0277980
8112.91, 0.0267720
8125.63, 0.0257460
8138.39, 0.0246690
8151.18, 0.0239000
8164.02, 0.0231820
8176.9, 0.0223610
8189.81, 0.0216430
8202.77, 0.0211300
8215.77, 0.0205660
8228.82, 0.0201560
8241.9, 0.0198990
8255.02, 0.0198990
8268.19, 0.0198990
8281.39, 0.0200530
8294.65, 0.0205660
8307.94, 0.0212330
8321.28, 0.0220020
8334.66, 0.0231820
8348.08, 0.0247200
8361.54, 0.0265670
8375.05, 0.0288230
8388.6, 0.0315930
8402.2, 0.0345680
8415.84, 0.0381060
8429.52, 0.0423630
8443.25, 0.0473890
8457.02, 0.0528260
8470.84, 0.0588260
8484.7, 0.0655960
8498.61, 0.0731870
8512.57, 0.0812900
8526.57, 0.0901120
8540.62, 0.0993950
8554.71, 0.109037
8568.85, 0.118935
8583.04, 0.128987
8597.27, 0.138783
8611.55, 0.147758
8625.88, 0.155195
8640.26, 0.160273
8654.68, 0.162786
8669.16, 0.163606
8683.68, 0.163452
8698.25, 0.162221
8712.87, 0.160119
8727.53, 0.157195
8742.25, 0.153503
8757.02, 0.149143
8771.83, 0.143861
8786.7, 0.138116
8801.62, 0.131962
8816.59, 0.125449
8831.61, 0.118679
8846.68, 0.112216
8861.8, 0.106575
8876.97, 0.102780
8892.2, 0.101241
8907.48, 0.101138
8922.81, 0.101138
8938.2, 0.100523
8953.63, 0.0999080
8969.13, 0.100010
8984.67, 0.100677
9000.27, 0.102267
9015.92, 0.104677
9031.63, 0.107960
9047.39, 0.111806
9063.21, 0.116473
9079.08, 0.121858
9095.01, 0.127705
9111.0, 0.133808
9127.04, 0.139912
9143.13, 0.145656
9159.28, 0.151092
9175.49, 0.155913
9191.76, 0.159708
9208.09, 0.161965
9224.47, 0.162837
9240.92, 0.162221
9257.42, 0.160426
9273.98, 0.157554
9290.6, 0.153759
9307.28, 0.149143
9324.02, 0.143963
9340.82, 0.138681
9357.68, 0.133501
9374.6, 0.128833
9391.58, 0.124987
9408.62, 0.121807
9425.73, 0.119756
9442.9, 0.118627
9460.13, 0.118217
9477.42, 0.118063
9494.78, 0.118012
9512.2, 0.118268
9529.69, 0.118832
9547.24, 0.119602
9564.86, 0.121089
9582.54, 0.123756
9600.28, 0.127192
9618.1, 0.129962
9635.97, 0.130629
9653.92, 0.129193
9671.93, 0.126782
9690.01, 0.124218
9708.16, 0.122833
9726.37, 0.123448
9744.65, 0.126731
9763.0, 0.132936
9781.43, 0.140937
9799.92, 0.149297
9818.48, 0.157400
9837.1, 0.164324
9855.8, 0.170171
9874.58, 0.175505
9893.42, 0.180223
9912.34, 0.184326
9931.33, 0.188122
9950.39, 0.191660
9969.52, 0.194943
9988.74, 0.197456
10008.0, 0.199251
10027.4, 0.200584
10046.8, 0.201559
10066.3, 0.201661
10085.9, 0.200841
10105.6, 0.199097
10125.3, 0.196225
10145.1, 0.192276
10165.0, 0.187916
10185.0, 0.183557
10205.0, 0.179557
10225.2, 0.176223
10245.4, 0.173505
10265.7, 0.170838
10286.0, 0.168479
10306.5, 0.166068
10327.0, 0.163658
10347.6, 0.161042
10368.3, 0.158221
10389.1, 0.155195
10409.9, 0.152220
10430.9, 0.148784
10451.9, 0.144681
10473.0, 0.140630
10494.2, 0.136527
10515.5, 0.131295
10536.9, 0.125500
10558.4, 0.119243
10579.9, 0.112832
10601.5, 0.106626
10623.3, 0.100779
10645.1, 0.0953430
10667.0, 0.0901630
10689.0, 0.0852390
10711.1, 0.0810850
10733.2, 0.0778030
10755.5, 0.0765210
10777.9, 0.0772900
10800.3, 0.0795980
10822.9, 0.0826240
10845.5, 0.0859570
10868.2, 0.0884700
10891.1, 0.0892910
10914.0, 0.0885730
10937.0, 0.0870340
10960.2, 0.0854450
10983.4, 0.0841620
11006.7, 0.0826750
11030.1, 0.0815980
11053.6, 0.0805720
11077.3, 0.0794950
11101.0, 0.0786230
11124.8, 0.0783670
11148.7, 0.0780590
11172.7, 0.0777000
11196.9, 0.0775980
11221.1, 0.0779050
11245.4, 0.0782640
11269.9, 0.0788280
11294.4, 0.0798030
11319.1, 0.0809830
11343.9, 0.0819570
11368.8, 0.0828800
11393.7, 0.0837010
11418.8, 0.0845210
11444.0, 0.0849830
11469.4, 0.0853930
11494.8, 0.0858040
11520.3, 0.0862650
11546.0, 0.0864190
11571.8, 0.0865730
11597.7, 0.0863160
11623.7, 0.0860600
11649.8, 0.0859060
11676.0, 0.0854960
11702.4, 0.0849320
11728.9, 0.0846240
11755.5, 0.0846240
11782.2, 0.0850340
11809.0, 0.0857520
11836.0, 0.0869320
11863.0, 0.0880090
11890.3, 0.0889320
11917.6, 0.0891880
11945.0, 0.0891880
11972.6, 0.0890860
12000.4, 0.0891370
12028.2, 0.0887780
12056.2, 0.0883170
12084.3, 0.0880090
12112.5, 0.0875990
12140.9, 0.0870340
12169.4, 0.0865730
12198.0, 0.0860090
12226.8, 0.0854450
12255.7, 0.0848800
12284.7, 0.0844700
12313.9, 0.0840080
12343.2, 0.0832900
12372.7, 0.0826240
12402.3, 0.0815470
12432.0, 0.0799570
12461.9, 0.0780590
12491.9, 0.0751360
12522.1, 0.0717510
12552.4, 0.0678530
12582.9, 0.0642630
12613.5, 0.0607750
12644.3, 0.0572880
12675.2, 0.0537490
12706.3, 0.0506200
12737.5, 0.0476970
12768.9, 0.0448250
12800.4, 0.0429270
12832.1, 0.0422090
12863.9, 0.0419530
12895.9, 0.0429790
12928.1, 0.0453890
12960.4, 0.0493900
12992.9, 0.0544160
13025.5, 0.0590830
13058.3, 0.0627760
13091.3, 0.0654420
13124.4, 0.0662630
13157.8, 0.0653400
13191.2, 0.0628270
13224.9, 0.0599550
13258.7, 0.0573900
13292.7, 0.0552880
13326.9, 0.0533390
13361.2, 0.0522100
13395.7, 0.0516460
13430.4, 0.0513390
13465.3, 0.0506720
13500.4, 0.0498510
13535.7, 0.0493380
13571.1, 0.0500050
13606.7, 0.0506200
13642.5, 0.0506200
13678.5, 0.0500560
13714.7, 0.0497490
13751.1, 0.0489790
13787.6, 0.0485180
13824.4, 0.0484660
13861.4, 0.0485690
13898.5, 0.0481590
13935.9, 0.0475430
13973.5, 0.0466200
14011.2, 0.0456970
14049.2, 0.0445690
14087.4, 0.0436450
14125.8, 0.0429790
14164.3, 0.0426200
14203.2, 0.0425170
14242.2, 0.0430300
14281.4, 0.0437480
14320.9, 0.0450810
14360.5, 0.0467740
14400.4, 0.0486200
14440.5, 0.0501590
14480.9, 0.0517490
14521.4, 0.0530820
14562.2, 0.0539540
14603.3, 0.0538520
14644.5, 0.0529800
14686.0, 0.0512360
14727.7, 0.0492870
14769.7, 0.0472360
14811.9, 0.0453380
14854.3, 0.0430810
14897.0, 0.0408760
14939.9, 0.0381580
14983.1, 0.0360550
15026.5, 0.0349780
15070.2, 0.0344650
15114.2, 0.0340550
15158.3, 0.0335420
15202.8, 0.0330800
15247.5, 0.0329780
15292.5, 0.0325670
15337.7, 0.0323110
15383.2, 0.0318490
15429.0, 0.0319010
15475.1, 0.0322600
15521.4, 0.0325670
15568.0, 0.0327210
15614.9, 0.0328750
15662.1, 0.0330290
15709.6, 0.0332850
15757.3, 0.0327210
15805.4, 0.0323620
15853.7, 0.0319010
15902.3, 0.0314390
15951.2, 0.0307720
16000.5, 0.0300030
16050.0, 0.0287720
16099.8, 0.0273870
16150.0, 0.0259000
16200.5, 0.0251310
16251.3, 0.0244640
16302.4, 0.0242080
16353.8, 0.0241560
16405.5, 0.0241560
16457.6, 0.0249260
16510.0, 0.0265670
16562.8, 0.0287210
16615.9, 0.0320550
16669.3, 0.0357470
16723.1, 0.0407220
16777.2, 0.0462610
16831.7, 0.0529280
16886.5, 0.0606730
16941.7, 0.0693920
16997.2, 0.0784180
17053.1, 0.0877520
17109.4, 0.0971890
17166.1, 0.106883
17223.1, 0.116730
17280.5, 0.126115
17338.3, 0.135603
17396.5, 0.145707
17455.1, 0.155093
17514.0, 0.163658
17573.4, 0.170889
17633.2, 0.177300
17693.4, 0.181146
17754.0, 0.183095
17815.0, 0.182788
17876.4, 0.181300
17938.3, 0.178685
18000.5, 0.175710
18063.3, 0.172889
18126.4, 0.172633
18190.0, 0.175300
18254.1, 0.180685
18318.6, 0.186891
18383.5, 0.193814
18449.0, 0.200636
18514.9, 0.207406
18581.2, 0.212278
18648.0, 0.215663
18715.4, 0.216945
18783.2, 0.216381
18851.5, 0.213970
18920.3, 0.210893
18989.6, 0.206739
19059.4, 0.201815
19129.7, 0.196533
19200.6, 0.194544
19272.0, 0.191676
19343.9, 0.191366
19416.3, 0.188266
19489.3, 0.182221
19562.8, 0.179663
19637.0, 0.179973
19711.6, 0.178268
19786.8, 0.176175
19862.6, 0.176485
19939.0, 0.180670
20016.0, 0.185088
20093.6, 0.187103
20171.8, 0.187646
20250.6, 0.186561
20330.0, 0.184623
20410.0, 0.182763
20490.7, 0.181523
20572.0, 0.180825
20654.0, 0.180903
20736.6, 0.181368
20819.9, 0.181755
20903.8, 0.181755
20988.5, 0.182531
21073.8, 0.182763
21159.8, 0.182143
21246.5, 0.181910
21334.0, 0.181910
21422.1, 0.185321
21511.0, 0.188111
21600.7, 0.188189
21691.0, 0.187336
21782.1, 0.187181
21874.0, 0.189196
21966.7, 0.189506
22060.2, 0.187879
22154.5, 0.184546
22249.6, 0.180593
22345.5, 0.177338
22442.2, 0.174702
22539.8, 0.171912
22638.2, 0.169664
22737.5, 0.165091
22837.7, 0.160286
22938.7, 0.155558
23040.7, 0.151217
23143.5, 0.146722
23247.3, 0.142382
23352.1, 0.138894
23457.7, 0.135948
23564.4, 0.134863
23672.0, 0.135096
23780.5, 0.134941
23890.1, 0.132926
24000.7, 0.130600
24112.3, 0.128663
24225.0, 0.124710
24338.7, 0.119207
24453.5, 0.113006
24569.4, 0.107503
24686.4, 0.103163
24804.5, 0.100062
24923.8, 0.0996750
25044.2, 0.0996750
25165.8, 0.0999070
25288.6, 0.102155
25412.5, 0.107193
25537.7, 0.112851
25664.1, 0.116416
25791.8, 0.119207
25920.8, 0.119362
26051.1, 0.118044
26182.6, 0.116804
26315.5, 0.113781
26449.8, 0.108898
26585.4, 0.105410
26722.5, 0.105720
26860.9, 0.105333
27000.8, 0.101613
27142.1, 0.0981250
27285.0, 0.0951790
27429.4, 0.0956440
27575.3, 0.0994420
27722.7, 0.105023
27871.8, 0.111456
28022.4, 0.116339
28174.7, 0.118664
28328.7, 0.119672
28484.4, 0.121454
28641.7, 0.124245
28800.9, 0.127035
28961.8, 0.128740
29124.5, 0.130755
29289.0, 0.131918
29455.4, 0.134321
29623.8, 0.137654
29794.0, 0.140599
29966.3, 0.144009
30140.5, 0.148040
30316.7, 0.150675
30495.1, 0.151527
30675.5, 0.151682
30858.1, 0.149667
31042.8, 0.146334
31229.8, 0.141839
31419.1, 0.139281
31610.7, 0.139669
31804.6, 0.142382
32000.9, 0.147497
32199.7, 0.150752
32400.9, 0.150675
32604.8, 0.147265
32811.1, 0.137189
33020.1, 0.125562
33231.8, 0.124477
33446.2, 0.132538
33663.4, 0.143854
33883.4, 0.152070
34106.3, 0.156410
34332.1, 0.155868
34561.0, 0.153853
34792.9, 0.154705
35028.0, 0.156720
35266.3, 0.156255
35507.8, 0.157651
35752.7, 0.162999
36001.0, 0.171214
36252.8, 0.181988
36508.1, 0.189816
36767.0, 0.195474
37029.7, 0.198265
37296.1, 0.197257
37566.3, 0.192684
37840.5, 0.187181
38118.8, 0.177958
38401.2, 0.165711
38687.8, 0.151527
38978.6, 0.135096
39273.9, 0.117269
39573.7, 0.104945
39878.1, 0.0982020
40187.3, 0.0900640
40501.2, 0.0840960
40820.0, 0.0816930
41144.0, 0.0820030
41473.2, 0.0885910
41807.6, 0.0964970
42147.5, 0.104325
42493.0, 0.111611
42844.2, 0.115331
43201.2, 0.117114
43564.3, 0.116184
43933.5, 0.111534
44309.0, 0.111301
44691.0, 0.114169
45079.6, 0.114401
45475.0, 0.115409
45877.5, 0.121454
46287.1, 0.132383
46704.2, 0.145327
47128.7, 0.158736
47561.1, 0.167959
48001.5, 0.174315
48450.1, 0.181678
48907.2, 0.183151
49373.0, 0.180438
49847.7, 0.180438
50331.5, 0.176175
50825.0, 0.164394
51328.2, 0.148582
51841.5, 0.131453
52365.1, 0.116339
52899.4, 0.105488
53444.8, 0.100450
54001.5, 0.100760
54570.1, 0.102310
55150.6, 0.102853
55743.6, 0.102000
56349.5, 0.105953
56968.7, 0.113006
57601.7, 0.116959
58248.9, 0.117037
58910.9, 0.116416
59588.1, 0.112309
60281.0, 0.105565
60990.2, 0.102465
61716.3, 0.0995970
62459.8, 0.0965750
63221.6, 0.0947140
64002.1, 0.0941720
64802.1, 0.0938620
65622.1, 0.0939390
66463.4, 0.0944040
67326.6, 0.0953340
68212.4, 0.0939390
69121.9, 0.0917690
70056.0, 0.0924670
71015.7, 0.0952570
72002.0, 0.0999070
73016.3, 0.107193
74059.4, 0.112929
75132.7, 0.118819
76237.6, 0.128818
77375.5, 0.140986
78547.9, 0.150442
79756.3, 0.156720
81002.5, 0.164549
82288.5, 0.177338
83615.7, 0.189584
84986.5, 0.198497
86402.9, 0.206868
87867.4, 0.212448
89382.4, 0.198497
90950.5, 0.172610
92574.6, 0.198497
94257.2, 0.219889
96002.7, 0.221207
97814.1, 0.224075
99695.1, 0.213301
101650.0, 0.201055
103683.0, 0.215471
105799.0, 0.229190
108003.0, 0.230585
110301.0, 0.229578
112699.0, 0.225160
115204.0, 0.221672
117822.0, 0.222292
120562.0, 0.217331
123433.0, 0.203535
126443.0, 0.198265
129604.0, 0.200125
132926.0, 0.199040
136424.0, 0.189816
140111.0, 0.187026
144003.0, 0.178345
148118.0, 0.164316
152474.0, 0.157651
157095.0, 0.157341
162004.0, 0.173850
167231.0, 0.184546
172805.0, 0.162534
178764.0, 0.158968
185148.0, 0.173385
192005.0, 0.175090
199390.0, 0.185553
207366.0, 0.204775
216006.0, 0.154550
