Database of Origin, USGS Spectral Database
Sample Description, See USGS database for additional info
Date Added,2016-08-10 05:24:16.490364

Data ID,USGS_phl04          
Sample ID, phlogopite_hs23.17687
Mineral Name, phlogopite
Material Class,Phyllosilicate

Wavelength
1354.63, 0.717247
1354.98, 0.717075
1355.33, 0.716961
1355.69, 0.716273
1356.04, 0.716617
1356.4, 0.716846
1356.75, 0.716445
1357.11, 0.716559
1357.46, 0.716674
1357.82, 0.715757
1358.18, 0.715471
1358.53, 0.715757
1358.89, 0.715872
1359.24, 0.714382
1359.6, 0.714612
1359.96, 0.714898
1360.31, 0.714039
1360.67, 0.713809
1361.03, 0.714153
1361.39, 0.713638
1361.74, 0.713351
1362.1, 0.712664
1362.46, 0.713007
1362.82, 0.714268
1363.18, 0.714898
1363.53, 0.713867
1363.89, 0.712893
1364.25, 0.711289
1364.61, 0.711289
1364.97, 0.711976
1365.33, 0.711861
1365.69, 0.712033
1366.05, 0.711690
1366.41, 0.711289
1366.77, 0.710888
1367.13, 0.710143
1367.49, 0.709226
1367.85, 0.709226
1368.21, 0.708424
1368.57, 0.708252
1368.93, 0.707736
1369.3, 0.706877
1369.66, 0.705788
1370.02, 0.704700
1370.38, 0.702580
1370.74, 0.700460
1371.11, 0.699773
1371.47, 0.698512
1371.83, 0.695762
1372.19, 0.693070
1372.56, 0.690721
1372.92, 0.687455
1373.29, 0.683788
1373.65, 0.680465
1374.01, 0.677028
1374.38, 0.673819
1374.74, 0.671012
1375.11, 0.668147
1375.47, 0.665397
1375.84, 0.663277
1376.2, 0.661501
1376.57, 0.658866
1376.93, 0.657663
1377.3, 0.657434
1377.67, 0.657032
1378.03, 0.656173
1378.4, 0.655715
1378.76, 0.656230
1379.13, 0.657090
1379.5, 0.657319
1379.87, 0.658121
1380.23, 0.658809
1380.6, 0.660241
1380.97, 0.662475
1381.34, 0.664423
1381.7, 0.666257
1382.07, 0.666486
1382.44, 0.666486
1382.81, 0.669408
1383.18, 0.672272
1383.55, 0.673017
1383.92, 0.673877
1384.29, 0.675996
1384.66, 0.676798
1385.03, 0.677601
1385.4, 0.678918
1385.77, 0.680064
1386.14, 0.680924
1386.51, 0.681955
1386.88, 0.682241
1387.25, 0.681668
1387.62, 0.681554
1387.99, 0.681840
1388.36, 0.682298
1388.74, 0.683330
1389.11, 0.683616
1389.48, 0.683215
1389.85, 0.681955
1390.23, 0.682069
1390.6, 0.682413
1390.97, 0.682528
1391.35, 0.681726
1391.72, 0.679892
1392.09, 0.678804
1392.47, 0.678632
1392.84, 0.678918
1393.21, 0.678976
1393.59, 0.678632
1393.96, 0.678689
1394.34, 0.678288
1394.71, 0.677486
1395.09, 0.677257
1395.46, 0.677371
1395.84, 0.677142
1396.22, 0.676397
1396.59, 0.676741
1396.97, 0.677085
1397.35, 0.677715
1397.72, 0.678116
1398.1, 0.678173
1398.48, 0.677887
1398.85, 0.677601
1399.23, 0.677486
1399.61, 0.677944
1399.99, 0.677658
1400.37, 0.676569
1400.74, 0.676569
1401.12, 0.677028
1401.5, 0.677887
1401.88, 0.677944
1402.26, 0.678173
1402.64, 0.678345
1403.02, 0.677944
1403.4, 0.678002
1403.78, 0.677944
1404.16, 0.677601
1404.54, 0.676684
1404.92, 0.677028
1405.3, 0.677887
1405.68, 0.677486
1406.06, 0.677371
1406.44, 0.677085
1406.83, 0.676225
1407.21, 0.676111
1407.59, 0.676684
1407.97, 0.676455
1408.35, 0.676283
1408.74, 0.675595
1409.12, 0.674850
1409.5, 0.674392
1409.89, 0.674965
1410.27, 0.675251
1410.65, 0.674908
1411.04, 0.674908
1411.42, 0.675137
1411.81, 0.674793
1412.19, 0.674335
1412.58, 0.674392
1412.96, 0.673762
1413.35, 0.672788
1413.73, 0.672215
1414.12, 0.671585
1414.5, 0.671757
1414.89, 0.671871
1415.28, 0.672100
1415.66, 0.671528
1416.05, 0.671356
1416.44, 0.671069
1416.82, 0.670955
1417.21, 0.670725
1417.6, 0.670439
1417.98, 0.670210
1418.37, 0.669580
1418.76, 0.668892
1419.15, 0.668606
1419.54, 0.668663
1419.93, 0.668663
1420.32, 0.668835
1420.71, 0.668491
1421.09, 0.668204
1421.48, 0.667689
1421.88, 0.667402
1422.27, 0.667231
1422.66, 0.667116
1423.05, 0.666944
1423.44, 0.666543
1423.83, 0.666600
1424.22, 0.666371
1424.61, 0.665970
1425.0, 0.665225
1425.39, 0.664996
1425.78, 0.664710
1426.18, 0.664824
1426.57, 0.664767
1426.96, 0.664652
1427.36, 0.664366
1427.75, 0.664309
1428.14, 0.664194
1428.54, 0.663678
1428.93, 0.663392
1429.32, 0.663335
1429.72, 0.662991
1430.11, 0.662533
1430.51, 0.662647
1430.9, 0.662819
1431.3, 0.662533
1431.69, 0.661788
1432.09, 0.661501
1432.48, 0.661157
1432.88, 0.661215
1433.28, 0.661043
1433.67, 0.660928
1434.07, 0.660470
1434.46, 0.660355
1434.86, 0.660355
1435.26, 0.660183
1435.66, 0.659725
1436.05, 0.659553
1436.45, 0.659783
1436.85, 0.659611
1437.25, 0.658980
1437.65, 0.658579
1438.05, 0.658751
1438.44, 0.658809
1438.84, 0.658236
1439.24, 0.657835
1439.64, 0.658350
1440.04, 0.658637
1440.44, 0.658006
1440.84, 0.657835
1441.24, 0.657777
1441.65, 0.657663
1442.05, 0.657434
1442.45, 0.657147
1442.85, 0.656975
1443.25, 0.656803
1443.65, 0.656746
1444.05, 0.656803
1444.46, 0.656918
1444.86, 0.656517
1445.26, 0.655944
1445.67, 0.655600
1446.07, 0.655715
1446.47, 0.655772
1446.88, 0.655486
1447.28, 0.655084
1447.68, 0.654798
1448.09, 0.654512
1448.49, 0.654855
1448.9, 0.654913
1449.3, 0.654454
1449.71, 0.654110
1450.11, 0.653824
1450.52, 0.653824
1450.93, 0.653767
1451.33, 0.653652
1451.74, 0.653595
1452.14, 0.653595
1452.55, 0.652965
1452.96, 0.652621
1453.36, 0.652793
1453.77, 0.652907
1454.18, 0.652621
1454.59, 0.652907
1455.0, 0.653079
1455.41, 0.652678
1455.81, 0.652564
1456.22, 0.652449
1456.63, 0.652850
1457.04, 0.652678
1457.45, 0.652793
1457.86, 0.652736
1458.27, 0.652334
1458.68, 0.651933
1459.09, 0.651475
1459.5, 0.651131
1459.91, 0.651303
1460.32, 0.651246
1460.74, 0.650788
1461.15, 0.650730
1461.56, 0.650444
1461.97, 0.650444
1462.39, 0.650616
1462.8, 0.650845
1463.21, 0.650788
1463.62, 0.650501
1464.04, 0.650501
1464.45, 0.650558
1464.86, 0.650272
1465.28, 0.649928
1465.69, 0.650043
1466.11, 0.650043
1466.52, 0.649699
1466.94, 0.649699
1467.35, 0.650100
1467.77, 0.649871
1468.18, 0.649584
1468.6, 0.649527
1469.02, 0.649527
1469.43, 0.649527
1469.85, 0.649527
1470.27, 0.649126
1470.68, 0.649183
1471.1, 0.649183
1471.52, 0.649298
1471.94, 0.649355
1472.35, 0.649756
1472.77, 0.649470
1473.19, 0.649413
1473.61, 0.649126
1474.03, 0.649069
1474.45, 0.649069
1474.87, 0.649298
1475.29, 0.649527
1475.71, 0.649413
1476.13, 0.649298
1476.55, 0.649183
1476.97, 0.649241
1477.39, 0.649183
1477.81, 0.649011
1478.23, 0.649355
1478.65, 0.649699
1479.07, 0.649756
1479.5, 0.649814
1479.92, 0.649928
1480.34, 0.649699
1480.76, 0.649756
1481.19, 0.649470
1481.61, 0.649241
1482.03, 0.649584
1482.46, 0.649642
1482.88, 0.649756
1483.31, 0.649985
1483.73, 0.650272
1484.16, 0.649985
1484.58, 0.650157
1485.01, 0.650673
1485.43, 0.650501
1485.86, 0.650444
1486.28, 0.650386
1486.71, 0.650558
1487.14, 0.650902
1487.56, 0.651246
1487.99, 0.651017
1488.42, 0.650959
1488.84, 0.651074
1489.27, 0.650959
1489.7, 0.651131
1490.13, 0.651189
1490.56, 0.651246
1490.98, 0.651418
1491.41, 0.651819
1491.84, 0.651876
1492.27, 0.651876
1492.7, 0.652163
1493.13, 0.651819
1493.56, 0.651590
1493.99, 0.651876
1494.42, 0.652105
1494.85, 0.652220
1495.29, 0.652449
1495.72, 0.652793
1496.15, 0.652850
1496.58, 0.652850
1497.01, 0.653022
1497.44, 0.653079
1497.88, 0.653022
1498.31, 0.653022
1498.74, 0.653366
1499.18, 0.653652
1499.61, 0.653767
1500.04, 0.654053
1500.48, 0.654397
1500.91, 0.654168
1501.35, 0.654340
1501.78, 0.654512
1502.22, 0.654569
1502.65, 0.654798
1503.09, 0.654569
1503.53, 0.654569
1503.96, 0.654741
1504.4, 0.655142
1504.83, 0.655428
1505.27, 0.655371
1505.71, 0.655600
1506.15, 0.655657
1506.58, 0.655657
1507.02, 0.655944
1507.46, 0.656001
1507.9, 0.656001
1508.34, 0.656288
1508.78, 0.656345
1509.21, 0.656288
1509.66, 0.656746
1510.09, 0.657032
1510.53, 0.656975
1510.97, 0.657032
1511.42, 0.657204
1511.86, 0.657376
1512.3, 0.657663
1512.74, 0.657777
1513.18, 0.657720
1513.62, 0.657663
1514.06, 0.658006
1514.51, 0.658579
1514.95, 0.658694
1515.39, 0.658465
1515.83, 0.658809
1516.28, 0.658809
1516.72, 0.658408
1517.16, 0.658637
1517.61, 0.658980
1518.05, 0.659381
1518.5, 0.659496
1518.94, 0.659611
1519.39, 0.659611
1519.83, 0.660126
1520.28, 0.660355
1520.73, 0.660355
1521.17, 0.660413
1521.62, 0.660642
1522.07, 0.660871
1522.51, 0.660871
1522.96, 0.660527
1523.41, 0.660470
1523.85, 0.660814
1524.3, 0.661501
1524.75, 0.661444
1525.2, 0.661501
1525.65, 0.661730
1526.1, 0.661845
1526.55, 0.661788
1527.0, 0.661730
1527.45, 0.661960
1527.9, 0.662418
1528.35, 0.662475
1528.8, 0.662704
1529.25, 0.662762
1529.7, 0.662876
1530.15, 0.663277
1530.6, 0.663564
1531.05, 0.663564
1531.51, 0.663621
1531.96, 0.663736
1532.41, 0.664194
1532.87, 0.664710
1533.32, 0.664939
1533.77, 0.664824
1534.23, 0.665111
1534.68, 0.665340
1535.14, 0.665455
1535.59, 0.665512
1536.05, 0.665741
1536.5, 0.665798
1536.96, 0.666199
1537.41, 0.666428
1537.87, 0.666600
1538.32, 0.666715
1538.78, 0.666772
1539.24, 0.667059
1539.7, 0.667345
1540.15, 0.667574
1540.61, 0.668090
1541.07, 0.668319
1541.53, 0.668491
1541.98, 0.669007
1542.44, 0.669121
1542.9, 0.669293
1543.36, 0.669293
1543.82, 0.669293
1544.28, 0.669350
1544.74, 0.669580
1545.2, 0.670095
1545.66, 0.670210
1546.12, 0.670095
1546.59, 0.670267
1547.05, 0.670840
1547.51, 0.671126
1547.97, 0.671241
1548.43, 0.671012
1548.9, 0.671298
1549.36, 0.671585
1549.82, 0.672100
1550.29, 0.672502
1550.75, 0.672903
1551.21, 0.673189
1551.68, 0.673304
1552.14, 0.673304
1552.61, 0.673418
1553.07, 0.673819
1553.54, 0.674048
1554.0, 0.674106
1554.47, 0.674621
1554.93, 0.674679
1555.4, 0.674965
1555.87, 0.675251
1556.34, 0.675538
1556.8, 0.675882
1557.27, 0.676283
1557.74, 0.676397
1558.21, 0.676684
1558.68, 0.676627
1559.14, 0.676856
1559.61, 0.677142
1560.08, 0.677314
1560.55, 0.677486
1561.02, 0.677715
1561.49, 0.677887
1561.96, 0.677944
1562.43, 0.678059
1562.9, 0.678574
1563.38, 0.678804
1563.85, 0.679147
1564.32, 0.679205
1564.79, 0.679319
1565.26, 0.679663
1565.74, 0.679720
1566.21, 0.679720
1566.68, 0.679950
1567.16, 0.680465
1567.63, 0.681095
1568.1, 0.681038
1568.58, 0.681095
1569.05, 0.681153
1569.53, 0.681496
1570.0, 0.681611
1570.48, 0.681783
1570.96, 0.681783
1571.43, 0.682012
1571.91, 0.682069
1572.39, 0.682642
1572.86, 0.682929
1573.34, 0.682986
1573.82, 0.682929
1574.3, 0.683387
1574.77, 0.683616
1575.25, 0.683731
1575.73, 0.683788
1576.21, 0.683788
1576.69, 0.684533
1577.17, 0.684590
1577.65, 0.684189
1578.13, 0.684533
1578.61, 0.684762
1579.09, 0.685163
1579.57, 0.685163
1580.05, 0.685335
1580.54, 0.685507
1581.02, 0.685736
1581.5, 0.685736
1581.98, 0.685793
1582.47, 0.686137
1582.95, 0.686424
1583.43, 0.686538
1583.92, 0.686825
1584.4, 0.687054
1584.88, 0.687168
1585.37, 0.687226
1585.85, 0.687569
1586.34, 0.687799
1586.82, 0.687856
1587.31, 0.688142
1587.8, 0.688314
1588.28, 0.688372
1588.77, 0.688773
1589.26, 0.688773
1589.74, 0.688944
1590.23, 0.689231
1590.72, 0.689575
1591.21, 0.689918
1591.7, 0.689804
1592.19, 0.689632
1592.67, 0.689976
1593.16, 0.690262
1593.65, 0.690319
1594.14, 0.690491
1594.63, 0.690892
1595.12, 0.691351
1595.61, 0.691523
1596.11, 0.691523
1596.6, 0.691752
1597.09, 0.691866
1597.58, 0.691924
1598.08, 0.692439
1598.57, 0.692783
1599.06, 0.692840
1599.55, 0.692898
1600.05, 0.693299
1600.54, 0.693642
1601.04, 0.693700
1601.53, 0.693872
1602.03, 0.693814
1602.52, 0.694215
1603.02, 0.694674
1603.51, 0.695075
1604.01, 0.695132
1604.5, 0.695304
1605.0, 0.695419
1605.5, 0.695533
1606.0, 0.695877
1606.49, 0.696106
1606.99, 0.696335
1607.49, 0.696622
1607.99, 0.696851
1608.49, 0.697195
1608.99, 0.697481
1609.49, 0.697538
1609.99, 0.697424
1610.49, 0.697710
1610.99, 0.698111
1611.49, 0.698512
1611.99, 0.698570
1612.49, 0.698913
1612.99, 0.698856
1613.49, 0.698971
1614.0, 0.699200
1614.5, 0.699544
1615.0, 0.699945
1615.51, 0.700288
1616.01, 0.700575
1616.51, 0.700575
1617.02, 0.700804
1617.52, 0.700861
1618.03, 0.700861
1618.53, 0.701492
1619.04, 0.701835
1619.54, 0.702065
1620.05, 0.702007
1620.55, 0.702408
1621.06, 0.702695
1621.57, 0.702867
1622.08, 0.703038
1622.58, 0.703325
1623.09, 0.703382
1623.6, 0.703783
1624.11, 0.703955
1624.62, 0.704012
1625.13, 0.704528
1625.64, 0.704986
1626.15, 0.704814
1626.66, 0.705158
1627.17, 0.705273
1627.68, 0.705502
1628.19, 0.705559
1628.7, 0.705617
1629.21, 0.705617
1629.72, 0.705960
1630.24, 0.706190
1630.75, 0.706533
1631.26, 0.706820
1631.78, 0.706992
1632.29, 0.706992
1632.8, 0.707335
1633.32, 0.707565
1633.83, 0.707794
1634.35, 0.707851
1634.86, 0.707908
1635.38, 0.708023
1635.9, 0.708367
1636.41, 0.708653
1636.93, 0.708539
1637.45, 0.708768
1637.96, 0.709283
1638.48, 0.709226
1639.0, 0.709341
1639.52, 0.709513
1640.04, 0.709398
1640.56, 0.709455
1641.08, 0.709799
1641.59, 0.710257
1642.11, 0.710315
1642.63, 0.710487
1643.16, 0.710601
1643.68, 0.710773
1644.2, 0.710716
1644.72, 0.710773
1645.24, 0.711403
1645.76, 0.711403
1646.29, 0.711231
1646.81, 0.711518
1647.33, 0.711976
1647.86, 0.711976
1648.38, 0.712205
1648.9, 0.712205
1649.43, 0.712091
1649.95, 0.712033
1650.48, 0.712434
1651.0, 0.712549
1651.53, 0.712836
1652.06, 0.712836
1652.58, 0.713007
1653.11, 0.713122
1653.64, 0.713294
1654.17, 0.713351
1654.69, 0.713351
1655.22, 0.713867
1655.75, 0.714153
1656.28, 0.714153
1656.81, 0.714096
1657.34, 0.714211
1657.87, 0.714440
1658.4, 0.714497
1658.93, 0.714841
1659.46, 0.715242
1659.99, 0.715242
1660.52, 0.714841
1661.05, 0.715356
1661.59, 0.715700
1662.12, 0.715929
1662.65, 0.716216
1663.19, 0.716273
1663.72, 0.715987
1664.26, 0.716101
1664.79, 0.716731
1665.32, 0.716789
1665.86, 0.716731
1666.39, 0.717075
1666.93, 0.717304
1667.47, 0.717534
1668.0, 0.717820
1668.54, 0.718393
1669.08, 0.718336
1669.61, 0.718278
1670.15, 0.718336
1670.69, 0.718622
1671.23, 0.718737
1671.77, 0.718794
1672.31, 0.719023
1672.85, 0.719138
1673.39, 0.719482
1673.93, 0.719711
1674.47, 0.719825
1675.01, 0.720054
1675.55, 0.719997
1676.09, 0.720169
1676.64, 0.720455
1677.18, 0.720513
1677.72, 0.720341
1678.26, 0.720513
1678.81, 0.721028
1679.35, 0.721601
1679.89, 0.721716
1680.44, 0.721773
1680.98, 0.721773
1681.53, 0.722117
1682.07, 0.722346
1682.62, 0.722518
1683.17, 0.722461
1683.71, 0.722804
1684.26, 0.723091
1684.81, 0.723320
1685.36, 0.723492
1685.9, 0.723664
1686.45, 0.723836
1687.0, 0.724008
1687.55, 0.724065
1688.1, 0.724351
1688.65, 0.724638
1689.2, 0.725039
1689.75, 0.725154
1690.3, 0.725154
1690.85, 0.725383
1691.41, 0.725612
1691.96, 0.725669
1692.51, 0.725612
1693.06, 0.725898
1693.61, 0.726357
1694.17, 0.726242
1694.72, 0.726242
1695.28, 0.726700
1695.83, 0.726872
1696.39, 0.726930
1696.94, 0.727101
1697.5, 0.727445
1698.05, 0.727961
1698.61, 0.727846
1699.17, 0.727903
1699.72, 0.728362
1700.28, 0.728362
1700.84, 0.728247
1701.4, 0.728534
1701.95, 0.728877
1702.51, 0.728935
1703.07, 0.728877
1703.63, 0.728935
1704.19, 0.729221
1704.75, 0.729508
1705.31, 0.729450
1705.88, 0.729508
1706.44, 0.729851
1707.0, 0.729794
1707.56, 0.729966
1708.12, 0.730138
1708.69, 0.730367
1709.25, 0.730539
1709.81, 0.730253
1710.38, 0.730310
1710.94, 0.730539
1711.51, 0.730883
1712.07, 0.730940
1712.64, 0.731112
1713.2, 0.731284
1713.77, 0.731628
1714.34, 0.731799
1714.9, 0.731799
1715.47, 0.731742
1716.04, 0.732029
1716.61, 0.732143
1717.18, 0.732086
1717.74, 0.732200
1718.31, 0.732430
1718.88, 0.732601
1719.45, 0.732659
1720.02, 0.732544
1720.59, 0.732716
1721.17, 0.732831
1721.74, 0.732831
1722.31, 0.733060
1722.88, 0.733346
1723.45, 0.733404
1724.03, 0.733518
1724.6, 0.733862
1725.18, 0.733976
1725.75, 0.733976
1726.33, 0.733976
1726.9, 0.733919
1727.48, 0.734263
1728.05, 0.734320
1728.63, 0.734206
1729.2, 0.734206
1729.78, 0.734492
1730.36, 0.734549
1730.94, 0.734549
1731.51, 0.735008
1732.09, 0.735065
1732.67, 0.734950
1733.25, 0.735065
1733.83, 0.735237
1734.41, 0.735409
1734.99, 0.735352
1735.57, 0.735638
1736.15, 0.735810
1736.73, 0.735982
1737.32, 0.736268
1737.9, 0.736440
1738.48, 0.736440
1739.07, 0.736555
1739.65, 0.736727
1740.23, 0.736898
1740.82, 0.736784
1741.4, 0.736841
1741.99, 0.737013
1742.57, 0.737357
1743.16, 0.737414
1743.74, 0.737586
1744.33, 0.737758
1744.92, 0.737930
1745.51, 0.738102
1746.09, 0.738159
1746.68, 0.738102
1747.27, 0.738331
1747.86, 0.738388
1748.45, 0.738503
1749.04, 0.738789
1749.63, 0.739076
1750.22, 0.739076
1750.81, 0.739305
1751.4, 0.739190
1751.99, 0.739190
1752.59, 0.739419
1753.18, 0.739706
1753.77, 0.739820
1754.37, 0.739992
1754.96, 0.739878
1755.56, 0.740049
1756.15, 0.740221
1756.74, 0.740508
1757.34, 0.740737
1757.94, 0.740680
1758.53, 0.740794
1759.13, 0.741195
1759.73, 0.741138
1760.32, 0.741253
1760.92, 0.741425
1761.52, 0.741425
1762.12, 0.741654
1762.72, 0.741768
1763.32, 0.741826
1763.92, 0.741997
1764.52, 0.742112
1765.12, 0.742399
1765.72, 0.742742
1766.32, 0.743029
1766.92, 0.742971
1767.53, 0.743029
1768.13, 0.743029
1768.73, 0.743430
1769.34, 0.743487
1769.94, 0.743602
1770.55, 0.743716
1771.15, 0.743945
1771.76, 0.744060
1772.36, 0.744003
1772.97, 0.744003
1773.57, 0.744117
1774.18, 0.744346
1774.79, 0.744690
1775.4, 0.744690
1776.0, 0.744748
1776.61, 0.744919
1777.22, 0.745034
1777.83, 0.744805
1778.44, 0.744805
1779.05, 0.744919
1779.66, 0.744919
1780.27, 0.745091
1780.88, 0.745435
1781.5, 0.745320
1782.11, 0.745263
1782.72, 0.745492
1783.33, 0.745722
1783.95, 0.745722
1784.56, 0.745893
1785.18, 0.745664
1785.79, 0.745664
1786.41, 0.745836
1787.02, 0.745951
1787.64, 0.746065
1788.26, 0.746065
1788.87, 0.746123
1789.49, 0.745951
1790.11, 0.745836
1790.73, 0.745893
1791.35, 0.745893
1791.96, 0.746065
1792.58, 0.746352
1793.21, 0.746466
1793.83, 0.746409
1794.45, 0.746409
1795.07, 0.746409
1795.69, 0.746581
1796.31, 0.746753
1796.93, 0.746753
1797.56, 0.746581
1798.18, 0.746524
1798.8, 0.746638
1799.43, 0.746638
1800.05, 0.746696
1800.68, 0.746524
1801.3, 0.746581
1801.93, 0.746753
1802.56, 0.746925
1803.18, 0.747097
1803.81, 0.747154
1804.44, 0.746982
1805.07, 0.746925
1805.7, 0.746867
1806.33, 0.746982
1806.95, 0.747097
1807.58, 0.746982
1808.22, 0.746982
1808.85, 0.747383
1809.48, 0.747498
1810.11, 0.747154
1810.74, 0.747039
1811.38, 0.747211
1812.01, 0.747211
1812.64, 0.747440
1813.28, 0.747784
1813.91, 0.747612
1814.55, 0.747440
1815.18, 0.747097
1815.82, 0.747268
1816.45, 0.747555
1817.09, 0.747784
1817.73, 0.747956
1818.36, 0.747899
1819.0, 0.747784
1819.64, 0.747039
1820.28, 0.746753
1820.92, 0.747498
1821.56, 0.747727
1822.2, 0.747727
1822.84, 0.747956
1823.48, 0.748472
1824.12, 0.748414
1824.76, 0.748529
1825.41, 0.747841
1826.05, 0.746982
1826.69, 0.747899
1827.34, 0.748529
1827.98, 0.748185
1828.63, 0.748300
1829.27, 0.748357
1829.92, 0.748414
1830.56, 0.748128
1831.21, 0.748414
1831.86, 0.748930
1832.5, 0.748987
1833.15, 0.749274
1833.8, 0.749274
1834.45, 0.748701
1835.1, 0.748643
1835.75, 0.748357
1836.4, 0.748414
1837.05, 0.748357
1837.7, 0.748242
1838.35, 0.749388
1839.01, 0.749216
1839.66, 0.748643
1840.31, 0.749445
1840.96, 0.749274
1841.62, 0.748128
1842.27, 0.748987
1842.93, 0.750133
1843.58, 0.750305
1844.24, 0.750420
1844.9, 0.750649
1845.55, 0.750706
1846.21, 0.749503
1846.87, 0.748128
1847.53, 0.748586
1848.18, 0.749388
1848.84, 0.750649
1849.5, 0.751164
1850.16, 0.750992
1850.82, 0.751107
1851.48, 0.751279
1852.14, 0.751050
1852.81, 0.750420
1853.47, 0.749617
1854.13, 0.750190
1854.8, 0.751393
1855.46, 0.751451
1856.12, 0.750477
1856.79, 0.750477
1857.45, 0.751623
1858.12, 0.751737
1858.79, 0.750992
1859.45, 0.749961
1860.12, 0.750649
1860.79, 0.751565
1861.46, 0.752081
1862.12, 0.752081
1862.79, 0.752024
1863.46, 0.751680
1864.13, 0.751565
1864.8, 0.751966
1865.48, 0.752253
1866.15, 0.752024
1866.82, 0.751279
1867.49, 0.750076
1868.16, 0.750878
1868.84, 0.751565
1869.51, 0.751222
1870.19, 0.750190
1870.86, 0.749388
1871.54, 0.750821
1872.21, 0.750649
1872.89, 0.749216
1873.56, 0.750305
1874.24, 0.751451
1874.92, 0.751279
1875.6, 0.751336
1876.28, 0.750992
1876.96, 0.750477
1877.64, 0.751393
1878.32, 0.751909
1879.0, 0.752024
1879.68, 0.751909
1880.36, 0.751737
1881.04, 0.751623
1881.73, 0.751852
1882.41, 0.751795
1883.09, 0.751508
1883.78, 0.750763
1884.46, 0.751565
1885.15, 0.751966
1885.83, 0.751623
1886.52, 0.751336
1887.21, 0.751565
1887.89, 0.751795
1888.58, 0.751737
1889.27, 0.750992
1889.96, 0.750477
1890.65, 0.750992
1891.34, 0.751222
1892.03, 0.750878
1892.72, 0.751164
1893.41, 0.750992
1894.1, 0.751107
1894.79, 0.751451
1895.49, 0.751279
1896.18, 0.751222
1896.87, 0.751107
1897.57, 0.750706
1898.26, 0.750362
1898.96, 0.749274
1899.65, 0.748987
1900.35, 0.749847
1901.05, 0.750534
1901.74, 0.750362
1902.44, 0.749331
1903.14, 0.749732
1903.84, 0.750591
1904.54, 0.749732
1905.24, 0.749044
1905.94, 0.749274
1906.64, 0.749503
1907.34, 0.750420
1908.04, 0.750706
1908.75, 0.750477
1909.45, 0.750477
1910.15, 0.750477
1910.86, 0.750305
1911.56, 0.750190
1912.27, 0.750305
1912.97, 0.749445
1913.68, 0.749503
1914.39, 0.750534
1915.09, 0.750706
1915.8, 0.750305
1916.51, 0.750420
1917.22, 0.750821
1917.93, 0.751050
1918.64, 0.750935
1919.35, 0.750076
1920.06, 0.749216
1920.77, 0.749617
1921.48, 0.750821
1922.19, 0.751050
1922.91, 0.750706
1923.62, 0.750362
1924.33, 0.750649
1925.05, 0.751508
1925.76, 0.751565
1926.48, 0.751336
1927.19, 0.751222
1927.91, 0.750992
1928.63, 0.750992
1929.35, 0.751508
1930.07, 0.751623
1930.78, 0.751680
1931.5, 0.751795
1932.22, 0.752138
1932.94, 0.751966
1933.66, 0.751966
1934.39, 0.752196
1935.11, 0.752196
1935.83, 0.752081
1936.55, 0.752196
1937.28, 0.752425
1938.0, 0.752539
1938.73, 0.752310
1939.45, 0.752425
1940.18, 0.752940
1940.9, 0.752769
1941.63, 0.752883
1942.36, 0.753170
1943.09, 0.753112
1943.81, 0.752998
1944.54, 0.753112
1945.27, 0.753112
1946.0, 0.753112
1946.73, 0.753227
1947.47, 0.753399
1948.2, 0.753341
1948.93, 0.753456
1949.66, 0.753513
1950.4, 0.753341
1951.13, 0.753227
1951.86, 0.753399
1952.6, 0.753399
1953.34, 0.753456
1954.07, 0.753513
1954.81, 0.753399
1955.55, 0.753399
1956.29, 0.753513
1957.02, 0.753628
1957.76, 0.753628
1958.5, 0.753685
1959.24, 0.753685
1959.98, 0.753513
1960.72, 0.753227
1961.47, 0.753399
1962.21, 0.753456
1962.95, 0.753456
1963.7, 0.753628
1964.44, 0.753742
1965.18, 0.753399
1965.93, 0.753170
1966.67, 0.753170
1967.42, 0.753456
1968.17, 0.753112
1968.92, 0.753055
1969.66, 0.753112
1970.41, 0.753284
1971.16, 0.753170
1971.91, 0.753112
1972.66, 0.753055
1973.41, 0.753170
1974.16, 0.753284
1974.92, 0.753112
1975.67, 0.753055
1976.42, 0.752998
1977.18, 0.752998
1977.93, 0.752883
1978.69, 0.752998
1979.44, 0.752826
1980.2, 0.752769
1980.95, 0.752998
1981.71, 0.752940
1982.47, 0.752883
1983.23, 0.752826
1983.99, 0.752883
1984.74, 0.752711
1985.51, 0.752654
1986.27, 0.752539
1987.03, 0.752539
1987.79, 0.752482
1988.55, 0.752482
1989.32, 0.752482
1990.08, 0.752253
1990.84, 0.752196
1991.61, 0.752138
1992.37, 0.752253
1993.14, 0.752482
1993.9, 0.752425
1994.67, 0.752425
1995.44, 0.752081
1996.21, 0.752081
1996.98, 0.752138
1997.75, 0.752425
1998.52, 0.752482
1999.29, 0.752310
2000.06, 0.752138
2000.83, 0.752310
2001.6, 0.752425
2002.38, 0.752253
2003.15, 0.752367
2003.93, 0.752367
2004.7, 0.752138
2005.48, 0.752196
2006.25, 0.752482
2007.03, 0.752367
2007.81, 0.752310
2008.58, 0.752482
2009.36, 0.752367
2010.14, 0.752253
2010.92, 0.752196
2011.7, 0.752310
2012.48, 0.752425
2013.26, 0.752482
2014.05, 0.752711
2014.83, 0.752769
2015.61, 0.752597
2016.4, 0.752539
2017.18, 0.752539
2017.97, 0.752654
2018.75, 0.752711
2019.54, 0.752539
2020.32, 0.752482
2021.11, 0.752482
2021.9, 0.752482
2022.69, 0.752367
2023.48, 0.752425
2024.27, 0.752711
2025.06, 0.752769
2025.85, 0.752769
2026.64, 0.752769
2027.44, 0.752826
2028.23, 0.752711
2029.02, 0.752654
2029.82, 0.752654
2030.61, 0.752654
2031.41, 0.752769
2032.2, 0.752883
2033.0, 0.752883
2033.8, 0.752711
2034.6, 0.752769
2035.4, 0.752883
2036.2, 0.752998
2037.0, 0.752998
2037.8, 0.752998
2038.6, 0.753055
2039.4, 0.753055
2040.2, 0.753284
2041.01, 0.753456
2041.81, 0.753227
2042.61, 0.753055
2043.42, 0.753055
2044.22, 0.753055
2045.03, 0.752998
2045.84, 0.753170
2046.65, 0.753170
2047.46, 0.753170
2048.26, 0.753170
2049.07, 0.753112
2049.88, 0.752940
2050.69, 0.752883
2051.51, 0.753112
2052.32, 0.753055
2053.13, 0.753112
2053.94, 0.753112
2054.76, 0.752998
2055.57, 0.752942
2056.39, 0.753387
2057.2, 0.753276
2058.02, 0.753109
2058.84, 0.752720
2059.66, 0.752831
2060.48, 0.752775
2061.29, 0.752886
2062.11, 0.752608
2062.94, 0.752441
2063.76, 0.752441
2064.58, 0.751830
2065.4, 0.751051
2066.22, 0.750662
2067.05, 0.750273
2067.87, 0.750273
2068.7, 0.750384
2069.52, 0.750217
2070.35, 0.749828
2071.18, 0.749272
2072.0, 0.749049
2072.83, 0.748438
2073.66, 0.748104
2074.49, 0.747381
2075.32, 0.746825
2076.15, 0.745713
2076.98, 0.745490
2077.82, 0.744879
2078.65, 0.744045
2079.48, 0.743822
2080.32, 0.743322
2081.15, 0.743266
2081.99, 0.742988
2082.83, 0.742376
2083.66, 0.742321
2084.5, 0.741987
2085.34, 0.742043
2086.18, 0.741820
2087.02, 0.741653
2087.86, 0.741097
2088.7, 0.741042
2089.54, 0.741264
2090.39, 0.741209
2091.23, 0.741598
2092.07, 0.741598
2092.92, 0.741375
2093.76, 0.740374
2094.61, 0.739540
2095.45, 0.739596
2096.3, 0.739652
2097.15, 0.739652
2098.0, 0.739373
2098.85, 0.739985
2099.7, 0.740208
2100.55, 0.739151
2101.4, 0.738706
2102.25, 0.738929
2103.1, 0.738706
2103.96, 0.738428
2104.81, 0.738373
2105.67, 0.738094
2106.52, 0.737705
2107.38, 0.737538
2108.24, 0.737538
2109.09, 0.737594
2109.95, 0.737594
2110.81, 0.737483
2111.67, 0.737372
2112.53, 0.737705
2113.39, 0.737705
2114.25, 0.737038
2115.12, 0.736982
2115.98, 0.736704
2116.84, 0.736204
2117.71, 0.735648
2118.58, 0.735370
2119.44, 0.735592
2120.31, 0.735481
2121.18, 0.735370
2122.04, 0.735092
2122.91, 0.734925
2123.78, 0.735258
2124.65, 0.735703
2125.52, 0.735926
2126.4, 0.735815
2127.27, 0.735147
2128.14, 0.735425
2129.02, 0.736315
2129.89, 0.736426
2130.77, 0.736204
2131.64, 0.735981
2132.52, 0.735592
2133.4, 0.735258
2134.27, 0.735592
2135.15, 0.735536
2136.03, 0.735981
2136.91, 0.736093
2137.79, 0.735703
2138.68, 0.735926
2139.56, 0.735703
2140.44, 0.735536
2141.33, 0.736204
2142.21, 0.736315
2143.1, 0.736148
2143.99, 0.736315
2144.87, 0.735759
2145.76, 0.735481
2146.65, 0.736037
2147.54, 0.736371
2148.43, 0.736315
2149.32, 0.736259
2150.21, 0.736259
2151.1, 0.736204
2151.99, 0.735815
2152.89, 0.736093
2153.78, 0.736371
2154.68, 0.736259
2155.57, 0.735815
2156.47, 0.736093
2157.37, 0.736593
2158.27, 0.736259
2159.16, 0.736037
2160.06, 0.736259
2160.96, 0.736815
2161.86, 0.736649
2162.77, 0.736649
2163.67, 0.736371
2164.57, 0.736259
2165.48, 0.736426
2166.38, 0.736593
2167.29, 0.736649
2168.2, 0.736482
2169.1, 0.736871
2170.01, 0.736649
2170.92, 0.736982
2171.83, 0.737149
2172.74, 0.736815
2173.65, 0.736815
2174.56, 0.737372
2175.47, 0.737761
2176.39, 0.737761
2177.3, 0.737816
2178.22, 0.736927
2179.13, 0.736537
2180.05, 0.737038
2180.96, 0.736982
2181.88, 0.737149
2182.8, 0.736871
2183.72, 0.736371
2184.64, 0.735815
2185.56, 0.736426
2186.48, 0.736704
2187.41, 0.736537
2188.33, 0.736593
2189.25, 0.736593
2190.18, 0.736537
2191.1, 0.736927
2192.03, 0.736593
2192.96, 0.736649
2193.89, 0.736593
2194.82, 0.736204
2195.74, 0.736204
2196.68, 0.736148
2197.61, 0.736204
2198.54, 0.735981
2199.47, 0.735592
2200.4, 0.735314
2201.34, 0.735203
2202.28, 0.735203
2203.21, 0.735258
2204.15, 0.735425
2205.08, 0.735314
2206.02, 0.734647
2206.96, 0.734202
2207.9, 0.734035
2208.84, 0.733813
2209.78, 0.733701
2210.73, 0.733423
2211.67, 0.733368
2212.61, 0.734035
2213.56, 0.733757
2214.5, 0.733868
2215.45, 0.733979
2216.4, 0.733813
2217.35, 0.733090
2218.3, 0.733090
2219.24, 0.732589
2220.2, 0.732589
2221.15, 0.732812
2222.1, 0.731978
2223.05, 0.731199
2224.0, 0.730810
2224.96, 0.730865
2225.91, 0.730532
2226.87, 0.729308
2227.83, 0.728419
2228.79, 0.727640
2229.74, 0.726417
2230.7, 0.724915
2231.66, 0.723914
2232.63, 0.722913
2233.59, 0.721467
2234.55, 0.718910
2235.51, 0.716185
2236.48, 0.714016
2237.44, 0.710957
2238.41, 0.707120
2239.38, 0.703561
2240.34, 0.700447
2241.31, 0.697945
2242.28, 0.695832
2243.25, 0.693496
2244.22, 0.691550
2245.19, 0.690883
2246.17, 0.690382
2247.14, 0.689659
2248.12, 0.689882
2249.09, 0.690771
2250.07, 0.691939
2251.04, 0.693385
2252.02, 0.694887
2253.0, 0.696833
2253.98, 0.699057
2254.96, 0.700781
2255.94, 0.702171
2256.92, 0.704006
2257.91, 0.705730
2258.89, 0.707120
2259.88, 0.708066
2260.86, 0.708677
2261.85, 0.709067
2262.83, 0.709400
2263.82, 0.710290
2264.81, 0.710679
2265.8, 0.710735
2266.79, 0.710679
2267.78, 0.710346
2268.78, 0.709901
2269.77, 0.709678
2270.76, 0.709234
2271.76, 0.708956
2272.75, 0.708177
2273.75, 0.707009
2274.75, 0.705897
2275.75, 0.705174
2276.75, 0.704229
2277.75, 0.702894
2278.75, 0.701337
2279.75, 0.699947
2280.75, 0.698223
2281.76, 0.696332
2282.76, 0.694497
2283.77, 0.692440
2284.77, 0.690493
2285.78, 0.688102
2286.79, 0.685544
2287.8, 0.683375
2288.81, 0.681374
2289.82, 0.679205
2290.83, 0.677147
2291.84, 0.675368
2292.86, 0.673533
2293.87, 0.671753
2294.89, 0.669473
2295.91, 0.667583
2296.92, 0.665859
2297.94, 0.663912
2298.96, 0.661466
2299.98, 0.658630
2301.0, 0.656461
2302.02, 0.653736
2303.04, 0.650900
2304.07, 0.648008
2305.09, 0.645061
2306.12, 0.642169
2307.15, 0.638888
2308.17, 0.635552
2309.2, 0.631826
2310.23, 0.627934
2311.26, 0.624653
2312.29, 0.621594
2313.32, 0.618591
2314.35, 0.615811
2315.39, 0.612864
2316.42, 0.610417
2317.46, 0.608026
2318.5, 0.605746
2319.53, 0.603577
2320.57, 0.602020
2321.61, 0.600685
2322.65, 0.599406
2323.69, 0.598461
2324.73, 0.597905
2325.78, 0.597738
2326.82, 0.598405
2327.86, 0.599740
2328.91, 0.601464
2329.96, 0.604189
2331.01, 0.607748
2332.05, 0.612085
2333.1, 0.616478
2334.15, 0.620593
2335.21, 0.624764
2336.26, 0.628657
2337.31, 0.632549
2338.36, 0.636553
2339.42, 0.640056
2340.48, 0.642392
2341.53, 0.644672
2342.59, 0.647119
2343.65, 0.648954
2344.71, 0.650733
2345.77, 0.652401
2346.83, 0.653402
2347.9, 0.654237
2348.96, 0.655071
2350.02, 0.655794
2351.09, 0.656072
2352.16, 0.656183
2353.23, 0.656127
2354.29, 0.656461
2355.36, 0.656516
2356.43, 0.655960
2357.51, 0.655460
2358.58, 0.655126
2359.65, 0.654237
2360.73, 0.653680
2361.8, 0.653013
2362.88, 0.651734
2363.96, 0.650455
2365.03, 0.648731
2366.11, 0.646896
2367.19, 0.644894
2368.27, 0.642948
2369.36, 0.641002
2370.44, 0.638555
2371.53, 0.635830
2372.61, 0.633050
2373.7, 0.630881
2374.78, 0.628545
2375.87, 0.626099
2376.96, 0.623874
2378.05, 0.621761
2379.14, 0.620704
2380.24, 0.619592
2381.33, 0.618981
2382.42, 0.619370
2383.52, 0.620538
2384.61, 0.622317
2385.71, 0.624653
2386.81, 0.627322
2387.91, 0.630047
2389.01, 0.633161
2390.11, 0.636497
2391.22, 0.639611
2392.32, 0.642447
2393.42, 0.645506
2394.53, 0.648175
2395.64, 0.650121
2396.74, 0.651957
2397.85, 0.653625
2398.96, 0.655349
2400.07, 0.656461
2401.18, 0.657295
2402.3, 0.657796
2403.41, 0.658518
2404.52, 0.659241
2405.64, 0.659909
2406.76, 0.660520
2407.88, 0.661076
2408.99, 0.661799
2410.11, 0.662300
2411.23, 0.663078
2412.36, 0.664357
2413.48, 0.665025
2414.6, 0.665358
2415.73, 0.666192
2416.85, 0.667082
2417.98, 0.667916
2419.11, 0.668528
2420.24, 0.669084
2421.37, 0.669585
2422.5, 0.669306
2423.64, 0.669195
2424.77, 0.668750
2425.9, 0.668139
2427.04, 0.667805
2428.18, 0.666915
2429.31, 0.665970
2430.45, 0.665191
2431.59, 0.664135
2432.73, 0.663190
2433.88, 0.662467
2435.02, 0.661911
2436.16, 0.661243
2437.31, 0.660353
2438.45, 0.659519
2439.6, 0.659297
2440.75, 0.658908
2441.9, 0.658908
2443.05, 0.659241
2444.2, 0.659464
2445.35, 0.659797
2446.51, 0.660298
2447.67, 0.660854
2448.82, 0.661076
2449.98, 0.661966
2451.14, 0.663245
2452.3, 0.663746
2453.46, 0.664469
2454.62, 0.665525
2455.78, 0.666304
2456.94, 0.667416
2458.11, 0.668250
2459.28, 0.668862
2460.44, 0.669473
2461.61, 0.670196
2462.78, 0.670752
2463.95, 0.671420
2465.12, 0.672198
2466.3, 0.672643
2467.47, 0.672754
2468.65, 0.672810
2469.82, 0.673144
2471.0, 0.673032
2472.18, 0.673032
2473.36, 0.673533
2474.54, 0.673866
2475.72, 0.673811
2476.9, 0.673755
2478.08, 0.674144
2479.27, 0.674423
2480.46, 0.674200
2481.64, 0.674256
2482.83, 0.674812
2484.02, 0.674867
2485.21, 0.674867
2486.4, 0.674645
2487.6, 0.674645
2488.79, 0.674645
2489.99, 0.674478
2491.18, 0.674423
2492.38, 0.674144
2493.58, 0.673422
2494.78, 0.673032
2495.98, 0.672699
2497.18, 0.672198
2498.39, 0.671531
2499.59, 0.671308
2500.8, 0.671030
2502.01, 0.670752
2503.21, 0.670419
2504.42, 0.669974
2505.63, 0.669585
2506.84, 0.670085
2508.06, 0.670307
2509.27, 0.670307
2510.49, 0.670530
2511.7, 0.670641
2512.92, 0.671197
2514.14, 0.671475
2515.36, 0.671809
2516.58, 0.672699
2517.8, 0.673199
2519.03, 0.673755
2520.25, 0.674089
2521.48, 0.674589
2522.7, 0.674923
2523.93, 0.675257
2525.16, 0.675535
2526.39, 0.675813
2527.62, 0.675646
2528.86, 0.675479
2530.09, 0.675145
2531.33, 0.674478
2532.56, 0.673922
2533.8, 0.673866
2535.04, 0.672977
2536.28, 0.672365
2537.52, 0.672810
2538.76, 0.672810
2540.01, 0.672532
2541.25, 0.671086
2542.5, 0.669084
2543.75, 0.669251
2544.99, 0.669640
2546.24, 0.668750
2547.49, 0.667027
2548.75, 0.666915
2550.0, 0.665636
2551.26, 0.664024
2552.51, 0.662967
2553.77, 0.664135
2555.03, 0.664691
2556.29, 0.664135
2557.55, 0.663412
2558.81, 0.661466
2560.08, 0.656906
2561.34, 0.654070
2562.61, 0.654125
2563.88, 0.654959
2565.14, 0.658185
2566.41, 0.661076
2567.68, 0.659964
2568.96, 0.656572
2570.23, 0.657962
2571.51, 0.659631
2572.78, 0.655460
2574.06, 0.657239
2575.34, 0.658574
2576.62, 0.657128
2577.9, 0.660075
2579.18, 0.661410
2580.47, 0.658908
2581.75, 0.658908
2583.04, 0.655404
2584.32, 0.656906
2585.61, 0.660576
2586.9, 0.659464
2588.2, 0.660798
2589.49, 0.663523
2590.78, 0.665970
2592.08, 0.663634
2593.37, 0.652679
2594.67, 0.645284
2595.97, 0.656405
2597.27, 0.665692
2598.57, 0.668584
2599.88, 0.667527
2601.18, 0.665581
2602.49, 0.664135
2603.79, 0.660854
2605.1, 0.657351
2606.41, 0.660520
2607.72, 0.663523
2609.03, 0.663912
2610.35, 0.665470
2611.66, 0.666415
2612.98, 0.665247
2614.3, 0.665025
2615.62, 0.659575
2616.94, 0.657239
2618.26, 0.661021
2619.58, 0.657406
2620.91, 0.658796
2622.23, 0.664135
2623.56, 0.664246
2624.89, 0.660409
2626.22, 0.654737
2627.55, 0.656739
2628.88, 0.653569
2630.21, 0.647953
2631.55, 0.652290
2632.89, 0.653458
2634.22, 0.652624
2635.56, 0.654237
2636.9, 0.653958
2638.25, 0.653569
2639.59, 0.653013
2640.93, 0.652123
2642.28, 0.652401
2643.63, 0.653291
2644.98, 0.652179
2646.33, 0.654237
2647.68, 0.657796
2649.03, 0.660187
2650.39, 0.660409
2651.74, 0.658852
2653.1, 0.660965
2654.46, 0.663301
2655.82, 0.664580
2657.18, 0.667249
2658.54, 0.665080
2659.9, 0.664246
2661.27, 0.665080
2662.64, 0.664302
2664.01, 0.656238
2665.38, 0.649287
2666.74, 0.648564
2668.12, 0.650678
2669.49, 0.640334
2670.87, 0.637165
2672.24, 0.641669
2673.62, 0.636164
2675.0, 0.622984
2676.38, 0.606469
2677.76, 0.590231
2679.15, 0.566820
2680.54, 0.540405
2681.92, 0.508597
2683.31, 0.476344
2684.7, 0.448095
2686.09, 0.422626
2687.48, 0.399938
2688.88, 0.380530
2690.27, 0.364626
2691.67, 0.351002
2693.07, 0.338768
2694.47, 0.333096
2695.87, 0.332485
2697.27, 0.334375
2698.67, 0.336766
2700.08, 0.340325
2701.49, 0.347054
2702.9, 0.356619
2704.31, 0.366128
2705.72, 0.376971
2707.13, 0.386981
2708.54, 0.395600
2709.96, 0.403775
2711.38, 0.415898
2712.8, 0.428131
2714.22, 0.434749
2715.64, 0.437752
2717.06, 0.436862
2718.49, 0.432024
2719.91, 0.424795
2721.34, 0.427019
2722.77, 0.426964
2724.2, 0.423294
2725.63, 0.425407
2727.07, 0.427575
2728.5, 0.428243
2729.94, 0.428298
2731.38, 0.429132
2732.82, 0.429633
2734.26, 0.429744
2735.7, 0.434360
2737.15, 0.437084
2738.59, 0.435527
2740.04, 0.437974
2741.49, 0.445537
2742.94, 0.453990
2744.39, 0.459328
2745.84, 0.463443
2747.3, 0.467669
2748.76, 0.471451
2750.21, 0.474287
2751.67, 0.476734
2753.14, 0.477456
2754.6, 0.474231
2756.06, 0.479292
2757.53, 0.487299
2759.0, 0.491192
2760.46, 0.492471
2761.94, 0.492804
2763.41, 0.496753
2764.88, 0.501702
2766.36, 0.503593
2767.83, 0.505428
2769.31, 0.506818
2770.79, 0.508152
2772.27, 0.511378
2773.76, 0.513546
2775.24, 0.513880
2776.73, 0.513658
2778.22, 0.514381
2779.71, 0.514214
2781.2, 0.514158
2782.69, 0.515437
2784.18, 0.516661
2785.68, 0.515548
2787.18, 0.516271
2788.68, 0.520331
2790.18, 0.523723
2791.68, 0.525502
2793.19, 0.527282
2794.69, 0.529173
2796.2, 0.530785
2797.71, 0.532064
2799.22, 0.532954
2800.73, 0.532120
2802.24, 0.529840
2803.76, 0.530841
2805.28, 0.533621
2806.8, 0.535067
2808.32, 0.535846
2809.84, 0.536847
2811.36, 0.537792
2812.89, 0.538126
2814.42, 0.538237
2815.94, 0.539071
2817.48, 0.539683
2819.01, 0.539571
2820.54, 0.540350
2822.08, 0.541685
2823.61, 0.542908
2825.15, 0.543631
2826.69, 0.544020
2828.23, 0.544743
2829.78, 0.545855
2831.32, 0.546300
2832.87, 0.546356
2834.42, 0.546745
2835.97, 0.547523
2837.52, 0.548191
2839.08, 0.549136
2840.63, 0.549970
2842.19, 0.550526
2843.75, 0.551082
2845.31, 0.551360
2846.87, 0.551360
2848.44, 0.551472
2850.0, 0.552250
2851.57, 0.552806
2853.14, 0.552528
2854.71, 0.552751
2856.28, 0.553640
2857.86, 0.554196
2859.43, 0.554141
2861.01, 0.554363
2862.59, 0.554641
2864.17, 0.554753
2865.76, 0.554474
2867.34, 0.554474
2868.93, 0.554808
2870.52, 0.554753
2872.11, 0.554641
2873.7, 0.554975
2875.29, 0.555253
2876.89, 0.555142
2878.49, 0.555142
2880.08, 0.555197
2881.69, 0.555309
2883.29, 0.555531
2884.89, 0.555420
2886.5, 0.555364
2888.11, 0.555420
2889.72, 0.555587
2891.33, 0.555420
2892.94, 0.555309
2894.56, 0.555309
2896.17, 0.555197
2897.79, 0.555142
2899.42, 0.554753
2901.04, 0.554641
2902.66, 0.555031
2904.29, 0.554808
2905.92, 0.554808
2907.55, 0.555197
2909.18, 0.555197
2910.81, 0.555253
2912.45, 0.555420
2914.08, 0.555420
2915.72, 0.555531
2917.36, 0.555587
2919.01, 0.555865
2920.65, 0.556032
2922.3, 0.555920
2923.94, 0.556087
2925.59, 0.556476
2927.25, 0.556532
2928.9, 0.556810
2930.56, 0.557144
2932.21, 0.557366
2933.87, 0.557589
2935.53, 0.557922
2937.2, 0.558089
2938.86, 0.558256
2940.53, 0.558478
2942.2, 0.558478
2943.87, 0.558756
2945.54, 0.558979
2947.22, 0.559090
2948.89, 0.559535
2950.57, 0.559869
2952.25, 0.560091
2953.93, 0.560258
2955.62, 0.560703
2957.3, 0.561036
2958.99, 0.561370
2960.68, 0.561815
2962.37, 0.561982
2964.07, 0.562315
2965.76, 0.562705
2967.46, 0.562983
2969.16, 0.563261
2970.86, 0.563261
2972.56, 0.563594
2974.27, 0.563928
2975.98, 0.564206
2977.69, 0.564595
2979.4, 0.564818
2981.11, 0.564873
2982.83, 0.565318
2984.54, 0.565541
2986.26, 0.565708
2987.98, 0.565930
2989.71, 0.566152
2991.43, 0.566375
2993.16, 0.566542
2994.89, 0.566486
2996.62, 0.566931
2998.35, 0.567209
3000.09, 0.567431
3001.83, 0.567543
3003.57, 0.567543
3005.31, 0.567987
3007.05, 0.568377
3008.79, 0.568655
3010.54, 0.568933
3012.29, 0.569266
3014.04, 0.569544
3015.8, 0.569878
3017.55, 0.570156
3019.31, 0.570490
3021.07, 0.570879
3022.83, 0.570990
3024.59, 0.571380
3026.36, 0.571769
3028.13, 0.572158
3029.9, 0.572436
3031.67, 0.572659
3033.44, 0.572881
3035.22, 0.573048
3037.0, 0.573270
3038.78, 0.573381
3040.56, 0.573604
3042.34, 0.573826
3044.13, 0.574049
3045.92, 0.574216
3047.71, 0.574438
3049.5, 0.574716
3051.3, 0.574883
3053.09, 0.574938
3054.89, 0.575217
3056.69, 0.575606
3058.5, 0.575773
3060.3, 0.575939
3062.11, 0.576106
3063.92, 0.576329
3065.73, 0.576551
3067.55, 0.576774
3069.36, 0.576996
3071.18, 0.576885
3073.0, 0.576940
3074.82, 0.577218
3076.65, 0.576996
3078.48, 0.576996
3080.31, 0.576829
3082.14, 0.576440
3083.97, 0.576051
3085.8, 0.575884
3087.64, 0.575661
3089.48, 0.575439
3091.33, 0.575105
3093.17, 0.574938
3095.02, 0.574660
3096.87, 0.574438
3098.72, 0.574494
3100.57, 0.574494
3102.43, 0.574438
3104.28, 0.574549
3106.14, 0.574938
3108.01, 0.575272
3109.87, 0.575495
3111.74, 0.575828
3113.61, 0.576496
3115.48, 0.577052
3117.35, 0.577663
3119.23, 0.578497
3121.1, 0.579165
3122.98, 0.579832
3124.87, 0.580666
3126.75, 0.581500
3128.64, 0.582501
3130.53, 0.583391
3132.42, 0.584003
3134.31, 0.584781
3136.21, 0.585615
3138.11, 0.586394
3140.01, 0.587061
3141.91, 0.587784
3143.82, 0.588563
3145.73, 0.589174
3147.64, 0.589786
3149.55, 0.590620
3151.46, 0.591565
3153.38, 0.592233
3155.3, 0.592678
3157.22, 0.593289
3159.14, 0.593790
3161.07, 0.594346
3163.0, 0.594902
3164.93, 0.595402
3166.86, 0.595736
3168.8, 0.596070
3170.74, 0.596403
3172.68, 0.596737
3174.62, 0.596960
3176.56, 0.597015
3178.51, 0.596960
3180.46, 0.596904
3182.42, 0.596904
3184.37, 0.596793
3186.33, 0.596515
3188.29, 0.596292
3190.25, 0.595847
3192.21, 0.595236
3194.18, 0.594958
3196.15, 0.594624
3198.12, 0.594290
3200.09, 0.593901
3202.07, 0.593456
3204.05, 0.593067
3206.03, 0.592900
3208.02, 0.592789
3210.0, 0.592566
3211.99, 0.592678
3213.98, 0.592678
3215.98, 0.592789
3217.97, 0.592900
3219.97, 0.593178
3221.97, 0.593512
3223.98, 0.593901
3225.98, 0.594402
3227.99, 0.595069
3230.0, 0.595736
3232.02, 0.596348
3234.03, 0.597126
3236.05, 0.597794
3238.07, 0.598461
3240.1, 0.599240
3242.12, 0.600018
3244.15, 0.600908
3246.18, 0.601909
3248.22, 0.602854
3250.25, 0.603633
3252.29, 0.604411
3254.33, 0.605412
3256.38, 0.606469
3258.43, 0.607470
3260.47, 0.608359
3262.53, 0.609138
3264.58, 0.609972
3266.64, 0.610973
3268.7, 0.611751
3270.76, 0.612530
3272.82, 0.613420
3274.89, 0.614476
3276.96, 0.615366
3279.04, 0.616256
3281.11, 0.616979
3283.19, 0.617924
3285.27, 0.618981
3287.35, 0.619870
3289.44, 0.620649
3291.53, 0.621483
3293.62, 0.622373
3295.71, 0.623207
3297.81, 0.623763
3299.91, 0.624708
3302.01, 0.625654
3304.11, 0.626321
3306.22, 0.627211
3308.33, 0.628212
3310.44, 0.628990
3312.56, 0.629824
3314.68, 0.630658
3316.8, 0.631159
3318.92, 0.631659
3321.05, 0.632215
3323.18, 0.632772
3325.31, 0.633272
3327.44, 0.633773
3329.58, 0.634217
3331.72, 0.634718
3333.86, 0.635274
3336.01, 0.635774
3338.16, 0.636219
3340.31, 0.636497
3342.46, 0.636831
3344.61, 0.637276
3346.77, 0.637331
3348.94, 0.637276
3351.1, 0.637276
3353.27, 0.637220
3355.44, 0.637053
3357.61, 0.636831
3359.79, 0.636442
3361.97, 0.636108
3364.15, 0.635719
3366.33, 0.635274
3368.52, 0.634940
3370.71, 0.634607
3372.9, 0.634217
3375.1, 0.634106
3377.3, 0.634106
3379.5, 0.634273
3381.71, 0.634607
3383.91, 0.635051
3386.12, 0.635330
3388.34, 0.635719
3390.55, 0.635774
3392.77, 0.635608
3394.99, 0.635330
3397.22, 0.634718
3399.45, 0.634106
3401.68, 0.633383
3403.91, 0.632327
3406.15, 0.631270
3408.39, 0.630380
3410.63, 0.629657
3412.87, 0.629046
3415.12, 0.628990
3417.37, 0.629435
3419.63, 0.630380
3421.88, 0.631826
3424.14, 0.633494
3426.41, 0.635441
3428.67, 0.637610
3430.94, 0.639445
3433.21, 0.641113
3435.49, 0.642447
3437.77, 0.643615
3440.05, 0.644561
3442.33, 0.645562
3444.62, 0.646340
3446.91, 0.647063
3449.2, 0.647730
3451.5, 0.648453
3453.8, 0.649065
3456.1, 0.649677
3458.41, 0.650066
3460.72, 0.650344
3463.03, 0.650622
3465.34, 0.650622
3467.66, 0.650566
3469.98, 0.650455
3472.31, 0.650344
3474.63, 0.650177
3476.96, 0.650010
3479.3, 0.650121
3481.64, 0.650121
3483.97, 0.650010
3486.32, 0.649899
3488.66, 0.649677
3491.01, 0.649287
3493.36, 0.648676
3495.72, 0.647897
3498.08, 0.647285
3500.44, 0.646952
3502.81, 0.647063
3505.18, 0.647897
3507.55, 0.649232
3509.92, 0.650844
3512.3, 0.652624
3514.68, 0.654125
3517.06, 0.655404
3519.45, 0.656850
3521.84, 0.657962
3524.24, 0.658852
3526.64, 0.659686
3529.04, 0.660576
3531.44, 0.661132
3533.85, 0.661688
3536.26, 0.662077
3538.67, 0.662411
3541.09, 0.662800
3543.51, 0.663134
3545.93, 0.663412
3548.36, 0.663801
3550.79, 0.664135
3553.22, 0.664357
3555.66, 0.664524
3558.1, 0.664802
3560.54, 0.664969
3562.99, 0.665080
3565.44, 0.665080
3567.9, 0.665247
3570.35, 0.665358
3572.81, 0.665470
3575.28, 0.665525
3577.75, 0.665692
3580.22, 0.665803
3582.69, 0.665859
3585.17, 0.665914
3587.65, 0.665970
3590.14, 0.666081
3592.62, 0.666192
3595.11, 0.666248
3597.61, 0.666415
3600.11, 0.666526
3602.61, 0.666582
3605.11, 0.666582
3607.62, 0.666637
3610.14, 0.666637
3612.65, 0.666693
3615.17, 0.666693
3617.69, 0.666693
3620.22, 0.666637
3622.75, 0.666693
3625.28, 0.666748
3627.82, 0.666860
3630.36, 0.666748
3632.9, 0.666693
3635.45, 0.666582
3638.0, 0.666637
3640.56, 0.666470
3643.12, 0.666248
3645.68, 0.666026
3648.24, 0.665859
3650.81, 0.665636
3653.39, 0.665358
3655.96, 0.665358
3658.54, 0.665581
3661.13, 0.665748
3663.71, 0.665859
3666.3, 0.666026
3668.9, 0.666137
3671.5, 0.666192
3674.1, 0.666359
3676.7, 0.666526
3679.31, 0.666804
3681.93, 0.666860
3684.54, 0.666860
3687.17, 0.666860
3689.79, 0.667027
3692.42, 0.667027
3695.05, 0.667027
3697.69, 0.667027
3700.32, 0.666860
3702.97, 0.666860
3705.61, 0.666971
3708.27, 0.667193
3710.92, 0.667249
3713.58, 0.667471
3716.24, 0.667583
3718.91, 0.667583
3721.58, 0.667471
3724.25, 0.667471
3726.93, 0.667694
3729.61, 0.667749
3732.29, 0.667638
3734.98, 0.667638
3737.67, 0.667694
3740.37, 0.667916
3743.07, 0.667916
3745.78, 0.667972
3748.49, 0.668083
3751.2, 0.668194
3753.91, 0.668250
3756.63, 0.668361
3759.36, 0.668306
3762.09, 0.668139
3764.82, 0.668083
3767.55, 0.668139
3770.29, 0.668083
3773.04, 0.668139
3775.78, 0.668028
3778.54, 0.667972
3781.29, 0.667861
3784.05, 0.667861
3786.82, 0.667916
3789.59, 0.667805
3792.36, 0.667694
3795.13, 0.667583
3797.92, 0.667416
3800.7, 0.667360
3803.49, 0.667305
3806.28, 0.667082
3809.08, 0.666971
3811.88, 0.666971
3814.68, 0.666915
3817.49, 0.666804
3820.31, 0.666582
3823.12, 0.666415
3825.94, 0.666137
3828.77, 0.665914
3831.6, 0.665692
3834.43, 0.665581
3837.27, 0.665414
3840.11, 0.665191
3842.96, 0.664913
3845.81, 0.664691
3848.67, 0.664413
3851.53, 0.664190
3854.39, 0.663857
3857.26, 0.663634
3860.13, 0.663579
3863.01, 0.663301
3865.89, 0.662800
3868.77, 0.662578
3871.66, 0.662300
3874.55, 0.662022
3877.45, 0.661744
3880.35, 0.661410
3883.26, 0.661076
3886.17, 0.660854
3889.09, 0.660465
3892.01, 0.660020
3894.93, 0.659631
3897.86, 0.659186
3900.79, 0.658908
3903.73, 0.658574
3906.67, 0.658129
3909.62, 0.657740
3912.57, 0.657406
3915.52, 0.656961
3918.48, 0.656516
3921.45, 0.656127
3924.42, 0.655738
3927.39, 0.655293
3930.37, 0.654793
3933.35, 0.654403
3936.34, 0.654014
3939.33, 0.653514
3942.32, 0.652957
3945.32, 0.652513
3948.33, 0.652012
3951.34, 0.651567
3954.35, 0.651067
3957.37, 0.650566
3960.39, 0.650233
3963.42, 0.649843
3966.45, 0.649510
3969.49, 0.649009
3972.53, 0.648620
3975.58, 0.648342
3978.63, 0.647897
3981.68, 0.647619
3984.75, 0.647452
3987.81, 0.647285
3990.88, 0.647063
3993.95, 0.646841
3997.03, 0.646729
4000.12, 0.646451
4003.21, 0.646229
4006.3, 0.646006
4009.4, 0.645840
4012.5, 0.645617
4015.61, 0.645395
4018.72, 0.645284
4021.84, 0.644950
4024.96, 0.644672
4028.09, 0.644394
4031.22, 0.644116
4034.36, 0.643838
4037.5, 0.643560
4040.65, 0.643282
4043.8, 0.643059
4046.96, 0.642726
4050.12, 0.642559
4053.29, 0.642336
4056.46, 0.642058
4059.64, 0.641780
4062.82, 0.641558
4066.0, 0.641335
4069.19, 0.640946
4072.39, 0.640557
4075.59, 0.640334
4078.8, 0.640056
4082.01, 0.639778
4085.23, 0.639556
4088.45, 0.639333
4091.68, 0.639000
4094.91, 0.638722
4098.15, 0.638444
4101.39, 0.638166
4104.63, 0.637943
4107.89, 0.637665
4111.14, 0.637387
4114.41, 0.637276
4117.67, 0.637053
4120.95, 0.636775
4124.23, 0.636664
4127.51, 0.636442
4130.8, 0.636108
4134.09, 0.635886
4137.39, 0.635719
4140.7, 0.635608
4144.01, 0.635441
4147.32, 0.635274
4150.64, 0.634885
4153.97, 0.634718
4157.3, 0.634607
4160.64, 0.634495
4163.98, 0.634217
4167.33, 0.634051
4170.68, 0.634051
4174.04, 0.633884
4177.4, 0.633606
4180.77, 0.633383
4184.14, 0.633161
4187.52, 0.632883
4190.91, 0.632327
4194.3, 0.631214
4197.69, 0.629435
4201.1, 0.626766
4204.5, 0.623207
4207.92, 0.618869
4211.34, 0.614309
4214.76, 0.609694
4218.19, 0.605356
4221.62, 0.601464
4225.06, 0.598405
4228.51, 0.596237
4231.96, 0.594791
4235.42, 0.594402
4238.88, 0.595013
4242.35, 0.596904
4245.83, 0.600240
4249.31, 0.605468
4252.79, 0.612363
4256.28, 0.616756
4259.78, 0.613309
4263.29, 0.607192
4266.79, 0.603744
4270.31, 0.602131
4273.83, 0.601575
4277.35, 0.601686
4280.89, 0.602076
4284.42, 0.602465
4287.97, 0.602798
4291.52, 0.603688
4295.07, 0.605190
4298.63, 0.606691
4302.2, 0.607915
4305.78, 0.609527
4309.35, 0.611418
4312.94, 0.613475
4316.53, 0.615422
4320.13, 0.617090
4323.73, 0.618591
4327.34, 0.619982
4330.96, 0.621261
4334.58, 0.622428
4338.21, 0.623262
4341.84, 0.623763
4345.48, 0.624152
4349.12, 0.624597
4352.77, 0.625042
4356.43, 0.625264
4360.1, 0.625487
4363.76, 0.625709
4367.44, 0.625709
4371.12, 0.625876
4374.81, 0.626043
4378.51, 0.625987
4382.21, 0.625876
4385.92, 0.625654
4389.63, 0.625431
4393.35, 0.625320
4397.08, 0.625153
4400.81, 0.625098
4404.55, 0.624820
4408.29, 0.624653
4412.04, 0.624430
4415.8, 0.624208
4419.57, 0.624097
4423.34, 0.624041
4427.12, 0.623874
4430.9, 0.623652
4434.69, 0.623541
4438.49, 0.623318
4442.29, 0.623096
4446.1, 0.622929
4449.92, 0.622706
4453.74, 0.622373
4457.57, 0.622206
4461.41, 0.621928
4465.25, 0.621594
4469.1, 0.621316
4472.95, 0.621094
4476.82, 0.620704
4480.69, 0.620260
4484.56, 0.619926
4488.44, 0.619481
4492.33, 0.618925
4496.23, 0.618480
4500.13, 0.617980
4504.04, 0.617535
4507.96, 0.616979
4511.88, 0.616256
4515.81, 0.615422
4519.75, 0.614476
4523.69, 0.613587
4527.65, 0.612586
4531.6, 0.611585
4535.57, 0.610417
4539.54, 0.609138
4543.52, 0.607748
4547.5, 0.606302
4551.5, 0.604745
4555.5, 0.603077
4559.5, 0.601408
4563.52, 0.599796
4567.54, 0.598016
4571.56, 0.596125
4575.6, 0.594235
4579.64, 0.592344
4583.69, 0.590286
4587.75, 0.588285
4591.81, 0.586116
4595.88, 0.584058
4599.96, 0.581945
4604.04, 0.579888
4608.14, 0.577830
4612.24, 0.575717
4616.34, 0.573548
4620.46, 0.571324
4624.58, 0.569266
4628.71, 0.567153
4632.84, 0.565040
4636.99, 0.562871
4641.14, 0.560703
4645.3, 0.558701
4649.47, 0.556476
4653.64, 0.554308
4657.82, 0.552195
4662.01, 0.550248
4666.21, 0.548358
4670.41, 0.546411
4674.62, 0.544576
4678.84, 0.542685
4683.07, 0.540850
4687.3, 0.539071
4691.54, 0.537291
4695.79, 0.535568
4700.05, 0.533732
4704.31, 0.531953
4708.59, 0.530118
4712.87, 0.528338
4717.15, 0.526281
4721.45, 0.524168
4725.76, 0.522055
4730.07, 0.519941
4734.39, 0.517662
4738.72, 0.515326
4743.05, 0.513046
4747.39, 0.510710
4751.75, 0.508486
4756.1, 0.506317
4760.47, 0.504204
4764.85, 0.502035
4769.23, 0.499867
4773.62, 0.497920
4778.02, 0.495974
4782.43, 0.494139
4786.85, 0.492471
4791.27, 0.490802
4795.7, 0.489245
4800.14, 0.487633
4804.59, 0.486020
4809.05, 0.484630
4813.51, 0.483184
4817.99, 0.481850
4822.47, 0.480459
4826.96, 0.479180
4831.46, 0.477901
4835.96, 0.476622
4840.48, 0.475399
4845.0, 0.474342
4849.54, 0.473230
4854.08, 0.472174
4858.63, 0.471228
4863.18, 0.470338
4867.75, 0.469338
4872.33, 0.468503
4876.91, 0.467836
4881.5, 0.467113
4886.1, 0.466557
4890.71, 0.466112
4895.33, 0.465723
4899.96, 0.465612
4904.59, 0.465723
4909.24, 0.465834
4913.89, 0.466001
4918.55, 0.466112
4923.22, 0.466223
4927.9, 0.466557
4932.59, 0.466780
4937.29, 0.467058
4942.0, 0.467224
4946.71, 0.467169
4951.44, 0.467002
4956.17, 0.466724
4960.91, 0.466557
4965.67, 0.466279
4970.43, 0.465779
4975.2, 0.465223
4979.98, 0.464611
4984.76, 0.464055
4989.56, 0.463554
4994.37, 0.462998
4999.18, 0.462386
5004.01, 0.461775
5008.84, 0.461330
5013.69, 0.460774
5018.54, 0.460273
5023.4, 0.460440
5028.28, 0.460663
5033.16, 0.460774
5038.05, 0.460829
5042.95, 0.460996
5047.86, 0.461274
5052.78, 0.461608
5057.71, 0.461942
5062.65, 0.462331
5067.6, 0.462831
5072.56, 0.463499
5077.53, 0.463721
5082.5, 0.463944
5087.49, 0.464833
5092.49, 0.465779
5097.5, 0.466390
5102.51, 0.467002
5107.54, 0.467614
5112.58, 0.468114
5117.62, 0.468726
5122.68, 0.469449
5127.75, 0.469949
5132.82, 0.470338
5137.91, 0.470561
5143.01, 0.470394
5148.12, 0.470505
5153.23, 0.471506
5158.36, 0.472062
5163.5, 0.472229
5168.65, 0.472285
5173.81, 0.472229
5178.98, 0.472229
5184.15, 0.472229
5189.34, 0.472062
5194.54, 0.471506
5199.75, 0.470895
5204.98, 0.470839
5210.21, 0.469560
5215.45, 0.469171
5220.7, 0.469949
5225.96, 0.469616
5231.23, 0.468670
5236.52, 0.467781
5241.81, 0.467336
5247.12, 0.466613
5252.44, 0.465779
5257.76, 0.464666
5263.1, 0.463332
5268.45, 0.461664
5273.81, 0.459606
5279.18, 0.457660
5284.56, 0.455324
5289.95, 0.451876
5295.36, 0.449263
5300.77, 0.446705
5306.2, 0.443313
5311.63, 0.439754
5317.08, 0.436028
5322.54, 0.432080
5328.01, 0.427965
5333.49, 0.423905
5338.98, 0.419623
5344.49, 0.414285
5350.0, 0.409169
5355.53, 0.406333
5361.07, 0.403608
5366.62, 0.399938
5372.18, 0.395990
5377.75, 0.392153
5383.34, 0.388482
5388.93, 0.384924
5394.54, 0.381253
5400.16, 0.377861
5405.79, 0.374302
5411.44, 0.370632
5417.09, 0.365627
5422.76, 0.361679
5428.43, 0.361290
5434.12, 0.359677
5439.83, 0.356841
5445.54, 0.354394
5451.26, 0.352448
5457.0, 0.349668
5462.75, 0.346220
5468.52, 0.345052
5474.29, 0.343829
5480.08, 0.342216
5485.88, 0.341660
5491.69, 0.340659
5497.51, 0.339491
5503.35, 0.338157
5509.2, 0.337156
5515.06, 0.335654
5520.93, 0.334208
5526.82, 0.333152
5532.71, 0.332540
5538.63, 0.331484
5544.55, 0.329871
5550.49, 0.327925
5556.44, 0.327035
5562.4, 0.326479
5568.37, 0.325144
5574.36, 0.322030
5580.36, 0.320584
5586.37, 0.321585
5592.4, 0.321363
5598.44, 0.319472
5604.49, 0.318137
5610.56, 0.316803
5616.63, 0.315301
5622.73, 0.314245
5628.83, 0.312410
5634.95, 0.308906
5641.08, 0.305459
5647.23, 0.305681
5653.39, 0.305236
5659.56, 0.304791
5665.74, 0.304180
5671.94, 0.301677
5678.15, 0.300676
5684.38, 0.300510
5690.62, 0.299119
5696.87, 0.299064
5703.14, 0.297451
5709.42, 0.294782
5715.72, 0.294893
5722.03, 0.295338
5728.35, 0.295449
5734.69, 0.294726
5741.03, 0.293558
5747.4, 0.292224
5753.78, 0.292724
5760.17, 0.289054
5766.58, 0.285773
5773.0, 0.288776
5779.44, 0.289944
5785.88, 0.289833
5792.35, 0.289499
5798.83, 0.288442
5805.32, 0.287831
5811.83, 0.285662
5818.35, 0.281324
5824.89, 0.280824
5831.45, 0.282993
5838.01, 0.284383
5844.59, 0.284661
5851.19, 0.283660
5857.8, 0.282047
5864.43, 0.281158
5871.07, 0.280435
5877.73, 0.275041
5884.4, 0.275819
5891.09, 0.276987
5897.79, 0.276820
5904.5, 0.280657
5911.23, 0.281158
5917.98, 0.280268
5924.75, 0.279045
5931.53, 0.274485
5938.32, 0.272872
5945.13, 0.276820
5951.96, 0.277710
5958.8, 0.276987
5965.65, 0.273762
5972.53, 0.273484
5979.42, 0.273150
5986.32, 0.270370
5993.24, 0.270147
6000.18, 0.271148
6007.13, 0.269146
6014.1, 0.266977
6021.08, 0.267144
6028.09, 0.266588
6035.1, 0.264197
6042.14, 0.257413
6049.19, 0.252853
6056.25, 0.258469
6063.34, 0.259359
6070.44, 0.256245
6077.55, 0.257023
6084.69, 0.259137
6091.84, 0.258859
6099.0, 0.257858
6106.19, 0.254855
6113.39, 0.252742
6120.61, 0.255856
6127.84, 0.258024
6135.09, 0.257691
6142.36, 0.257691
6149.65, 0.258247
6156.95, 0.257913
6164.27, 0.259526
6171.61, 0.261472
6178.97, 0.260082
6186.34, 0.260249
6193.73, 0.264475
6201.14, 0.266644
6208.57, 0.267756
6216.01, 0.268868
6223.47, 0.270481
6230.95, 0.271815
6238.45, 0.273150
6245.97, 0.274540
6253.5, 0.275986
6261.06, 0.277321
6268.63, 0.278766
6276.21, 0.280324
6283.82, 0.281936
6291.45, 0.283326
6299.1, 0.285106
6306.76, 0.286719
6314.44, 0.288498
6322.14, 0.290166
6329.86, 0.291501
6337.6, 0.289833
6345.35, 0.290389
6353.13, 0.295950
6360.92, 0.297896
6368.74, 0.297673
6376.57, 0.300843
6384.43, 0.303679
6392.3, 0.305514
6400.19, 0.305403
6408.1, 0.299675
6416.03, 0.300065
6423.98, 0.308183
6431.95, 0.312076
6439.94, 0.315579
6447.95, 0.317693
6455.98, 0.319694
6464.03, 0.320807
6472.1, 0.319917
6480.19, 0.318527
6488.31, 0.315913
6496.44, 0.318304
6504.59, 0.325533
6512.76, 0.326979
6520.95, 0.326256
6529.16, 0.328981
6537.4, 0.329704
6545.65, 0.328369
6553.92, 0.327424
6562.22, 0.326201
6570.54, 0.323142
6578.88, 0.324977
6587.23, 0.326090
6595.61, 0.326423
6604.02, 0.327424
6612.44, 0.326534
6620.89, 0.324866
6629.35, 0.319472
6637.84, 0.316358
6646.35, 0.321696
6654.88, 0.324588
6663.44, 0.322920
6672.01, 0.320195
6680.61, 0.318360
6689.23, 0.319861
6697.88, 0.319973
6706.54, 0.317025
6715.23, 0.315969
6723.94, 0.316525
6732.67, 0.317025
6741.42, 0.316525
6750.2, 0.315246
6759.0, 0.314300
6767.82, 0.311798
6776.67, 0.309129
6785.54, 0.305848
6794.44, 0.305625
6803.35, 0.307516
6812.29, 0.306348
6821.26, 0.303123
6830.24, 0.301955
6839.25, 0.301900
6848.29, 0.298396
6857.35, 0.292224
6866.43, 0.290778
6875.54, 0.293948
6884.67, 0.293503
6893.82, 0.291612
6903.0, 0.288887
6912.2, 0.287553
6921.43, 0.286385
6930.69, 0.284661
6939.96, 0.282548
6949.27, 0.278933
6958.59, 0.274540
6967.95, 0.274485
6977.33, 0.273817
6986.73, 0.271204
6996.16, 0.268924
7005.61, 0.267255
7015.09, 0.264531
7024.6, 0.262139
7034.13, 0.258914
7043.69, 0.254632
7053.27, 0.253687
7062.88, 0.253186
7072.52, 0.251351
7082.18, 0.249349
7091.87, 0.247348
7101.58, 0.245234
7111.32, 0.242565
7121.09, 0.240452
7130.88, 0.238728
7140.71, 0.235892
7150.56, 0.233390
7160.43, 0.231221
7170.33, 0.228885
7180.27, 0.227829
7190.23, 0.226049
7200.21, 0.223158
7210.23, 0.220878
7220.27, 0.219599
7230.34, 0.217430
7240.44, 0.215261
7250.56, 0.212870
7260.72, 0.210646
7270.9, 0.207921
7281.12, 0.205808
7291.36, 0.203917
7301.63, 0.201804
7311.93, 0.199635
7322.25, 0.197578
7332.61, 0.194742
7343.0, 0.192629
7353.41, 0.190905
7363.86, 0.189125
7374.33, 0.186901
7384.83, 0.185010
7395.37, 0.183064
7405.93, 0.181173
7416.53, 0.179227
7427.15, 0.177447
7437.81, 0.175557
7448.5, 0.173722
7459.22, 0.171553
7469.96, 0.169829
7480.74, 0.168161
7491.55, 0.166492
7502.39, 0.164657
7513.27, 0.162822
7524.17, 0.160876
7535.11, 0.158930
7546.08, 0.156817
7557.08, 0.154815
7568.11, 0.152757
7579.17, 0.150588
7590.27, 0.148420
7601.4, 0.146473
7612.56, 0.144416
7623.76, 0.142525
7634.98, 0.140468
7646.24, 0.138688
7657.54, 0.136742
7668.87, 0.134740
7680.23, 0.132794
7691.62, 0.130959
7703.05, 0.129012
7714.51, 0.127066
7726.01, 0.125008
7737.54, 0.123118
7749.11, 0.121005
7760.71, 0.118947
7772.35, 0.116890
7784.02, 0.115054
7795.72, 0.112886
7807.46, 0.110773
7819.23, 0.108604
7831.04, 0.106602
7842.89, 0.104433
7854.77, 0.102264
7866.69, 0.0999290
7878.65, 0.0977600
7890.64, 0.0955360
7902.67, 0.0934230
7914.74, 0.0911430
7926.84, 0.0889180
7938.98, 0.0865830
7951.16, 0.0842470
7963.37, 0.0819120
7975.62, 0.0796870
7987.91, 0.0772410
8000.24, 0.0749050
8012.6, 0.0724580
8025.01, 0.0700670
8037.45, 0.0676200
8049.93, 0.0652850
8062.45, 0.0628380
8075.01, 0.0604470
8087.61, 0.0580000
8100.24, 0.0556640
8112.91, 0.0532730
8125.63, 0.0508820
8138.39, 0.0482680
8151.18, 0.0457660
8164.02, 0.0434300
8176.9, 0.0410950
8189.81, 0.0387040
8202.77, 0.0365350
8215.77, 0.0343110
8228.82, 0.0321970
8241.9, 0.0299730
8255.02, 0.0278040
8268.19, 0.0256360
8281.39, 0.0238010
8294.65, 0.0220210
8307.94, 0.0202970
8321.28, 0.0185180
8334.66, 0.0170720
8348.08, 0.0155700
8361.54, 0.0144030
8375.05, 0.0131790
8388.6, 0.0122900
8402.2, 0.0115670
8415.84, 0.0109550
8429.52, 0.0104540
8443.25, 0.0102880
8457.02, 0.0101760
8470.84, 0.0102880
8484.7, 0.0107880
8498.61, 0.0117330
8512.57, 0.0127340
8526.57, 0.0140690
8540.62, 0.0154590
8554.71, 0.0173500
8568.85, 0.0195740
8583.04, 0.0226330
8597.27, 0.0259690
8611.55, 0.0298060
8625.88, 0.0340880
8640.26, 0.0391490
8654.68, 0.0447090
8669.16, 0.0513270
8683.68, 0.0588900
8698.25, 0.0671200
8712.87, 0.0759060
8727.53, 0.0859710
8742.25, 0.0969820
8757.02, 0.108882
8771.83, 0.121561
8786.7, 0.135463
8801.62, 0.150477
8816.59, 0.166659
8831.61, 0.183676
8846.68, 0.201637
8861.8, 0.220099
8876.97, 0.239229
8892.2, 0.258970
8907.48, 0.279156
8922.81, 0.299620
8938.2, 0.320751
8953.63, 0.341882
8969.13, 0.363014
8984.67, 0.383589
9000.27, 0.403219
9015.92, 0.421848
9031.63, 0.439086
9047.39, 0.455769
9063.21, 0.472285
9079.08, 0.488634
9095.01, 0.504927
9111.0, 0.520831
9127.04, 0.535957
9143.13, 0.549970
9159.28, 0.562149
9175.49, 0.571936
9191.76, 0.579109
9208.09, 0.583613
9224.47, 0.585337
9240.92, 0.585337
9257.42, 0.583502
9273.98, 0.580611
9290.6, 0.577107
9307.28, 0.573715
9324.02, 0.570156
9340.82, 0.566820
9357.68, 0.564150
9374.6, 0.562204
9391.58, 0.560870
9408.62, 0.560202
9425.73, 0.560147
9442.9, 0.560814
9460.13, 0.562204
9477.42, 0.563817
9494.78, 0.565374
9512.2, 0.567209
9529.69, 0.569711
9547.24, 0.573381
9564.86, 0.578164
9582.54, 0.584781
9600.28, 0.593567
9618.1, 0.604411
9635.97, 0.617146
9653.92, 0.631771
9671.93, 0.647063
9690.01, 0.662244
9708.16, 0.676869
9726.37, 0.691161
9744.65, 0.704173
9763.0, 0.715406
9781.43, 0.723469
9799.92, 0.726305
9818.48, 0.721634
9837.1, 0.709122
9855.8, 0.689715
9874.58, 0.665859
9893.42, 0.638944
9912.34, 0.610528
9931.33, 0.582279
9950.39, 0.555142
9969.52, 0.529228
9988.74, 0.504927
10008.0, 0.482183
10027.4, 0.460996
10046.8, 0.440977
10066.3, 0.422904
10085.9, 0.406778
10105.6, 0.392431
10125.3, 0.380252
10145.1, 0.370966
10165.0, 0.364404
10185.0, 0.360400
10205.0, 0.358398
10225.2, 0.357675
10245.4, 0.357675
10265.7, 0.357230
10286.0, 0.355896
10306.5, 0.353338
10327.0, 0.349223
10347.6, 0.343884
10368.3, 0.337545
10389.1, 0.329982
10409.9, 0.321696
10430.9, 0.312855
10451.9, 0.304013
10473.0, 0.295227
10494.2, 0.286496
10515.5, 0.278099
10536.9, 0.270147
10558.4, 0.262251
10579.9, 0.254521
10601.5, 0.247236
10623.3, 0.240786
10645.1, 0.235114
10667.0, 0.230443
10689.0, 0.226383
10711.1, 0.222824
10733.2, 0.219877
10755.5, 0.217430
10777.9, 0.215150
10800.3, 0.213204
10822.9, 0.211702
10845.5, 0.210646
10868.2, 0.209700
10891.1, 0.209033
10914.0, 0.208366
10937.0, 0.208143
10960.2, 0.208310
10983.4, 0.208588
11006.7, 0.209367
11030.1, 0.210479
11053.6, 0.211980
11077.3, 0.214483
11101.0, 0.217319
11124.8, 0.220544
11148.7, 0.224381
11172.7, 0.228719
11196.9, 0.232834
11221.1, 0.237060
11245.4, 0.241231
11269.9, 0.244400
11294.4, 0.246513
11319.1, 0.248293
11343.9, 0.249461
11368.8, 0.250017
11393.7, 0.250406
11418.8, 0.250684
11444.0, 0.250684
11469.4, 0.251018
11494.8, 0.251463
11520.3, 0.251741
11546.0, 0.251741
11571.8, 0.251518
11597.7, 0.250795
11623.7, 0.249906
11649.8, 0.248960
11676.0, 0.247626
11702.4, 0.246402
11728.9, 0.245624
11755.5, 0.244845
11782.2, 0.243844
11809.0, 0.242788
11836.0, 0.241342
11863.0, 0.239062
11890.3, 0.236003
11917.6, 0.232111
11945.0, 0.227273
11972.6, 0.221434
12000.4, 0.214928
12028.2, 0.207309
12056.2, 0.198857
12084.3, 0.189959
12112.5, 0.180784
12140.9, 0.171608
12169.4, 0.163045
12198.0, 0.155760
12226.8, 0.149476
12255.7, 0.144360
12284.7, 0.140634
12313.9, 0.137465
12343.2, 0.134962
12372.7, 0.132960
12402.3, 0.131181
12432.0, 0.129735
12461.9, 0.128289
12491.9, 0.126899
12522.1, 0.125898
12552.4, 0.125120
12582.9, 0.124508
12613.5, 0.123785
12644.3, 0.122784
12675.2, 0.121116
12706.3, 0.118669
12737.5, 0.115110
12768.9, 0.110939
12800.4, 0.106157
12832.1, 0.101319
12863.9, 0.0972040
12895.9, 0.0939790
12928.1, 0.0915880
12960.4, 0.0895860
12992.9, 0.0874730
13025.5, 0.0854710
13058.3, 0.0834130
13091.3, 0.0813560
13124.4, 0.0794090
13157.8, 0.0775190
13191.2, 0.0754050
13224.9, 0.0731250
13258.7, 0.0704560
13292.7, 0.0683430
13326.9, 0.0658410
13361.2, 0.0636160
13395.7, 0.0616700
13430.4, 0.0600020
13465.3, 0.0587780
13500.4, 0.0586670
13535.7, 0.0591680
13571.1, 0.0601690
13606.7, 0.0617260
13642.5, 0.0637280
13678.5, 0.0656180
13714.7, 0.0675090
13751.1, 0.0692330
13787.6, 0.0711240
13824.4, 0.0719020
13861.4, 0.0721250
13898.5, 0.0719020
13935.9, 0.0719580
13973.5, 0.0719580
14011.2, 0.0723470
14049.2, 0.0729590
14087.4, 0.0739040
14125.8, 0.0741820
14164.3, 0.0737930
14203.2, 0.0731250
14242.2, 0.0723470
14281.4, 0.0710680
14320.9, 0.0695670
14360.5, 0.0674530
14400.4, 0.0657290
14440.5, 0.0646170
14480.9, 0.0634500
14521.4, 0.0618370
14562.2, 0.0605020
14603.3, 0.0595570
14644.5, 0.0589450
14686.0, 0.0581110
14727.7, 0.0574440
14769.7, 0.0566100
14811.9, 0.0561090
14854.3, 0.0555530
14897.0, 0.0547750
14939.9, 0.0533290
14983.1, 0.0533840
15026.5, 0.0548300
15070.2, 0.0557760
15114.2, 0.0562200
15158.3, 0.0568880
15202.8, 0.0573880
15247.5, 0.0579440
15292.5, 0.0580000
15337.7, 0.0580000
15383.2, 0.0575550
15429.0, 0.0566100
15475.1, 0.0559420
15521.4, 0.0554420
15568.0, 0.0543300
15614.9, 0.0536620
15662.1, 0.0531620
15709.6, 0.0529390
15757.3, 0.0525500
15805.4, 0.0520500
15853.7, 0.0521050
15902.3, 0.0526060
15951.2, 0.0526610
16000.5, 0.0531620
16050.0, 0.0535510
16099.8, 0.0541070
16150.0, 0.0546080
16200.5, 0.0551640
16251.3, 0.0562760
16302.4, 0.0573330
16353.8, 0.0577220
16405.5, 0.0587230
16457.6, 0.0600570
16510.0, 0.0610030
16562.8, 0.0607800
16615.9, 0.0611140
16669.3, 0.0616700
16723.1, 0.0621150
16777.2, 0.0623930
16831.7, 0.0627270
16886.5, 0.0632270
16941.7, 0.0650070
16997.2, 0.0673980
17053.1, 0.0711240
17109.4, 0.0764620
17166.1, 0.0850810
17223.1, 0.0980940
17280.5, 0.116222
17338.3, 0.138688
17396.5, 0.166771
17455.1, 0.200914
17514.0, 0.240063
17573.4, 0.283215
17633.2, 0.330149
17693.4, 0.379085
17754.0, 0.427965
17815.0, 0.475454
17876.4, 0.521165
17938.3, 0.564540
18000.5, 0.604912
18063.3, 0.641280
18126.4, 0.672087
18190.0, 0.699057
18254.1, 0.720578
18318.6, 0.737483
18383.5, 0.751663
18449.0, 0.761895
18514.9, 0.768179
18581.2, 0.772850
18648.0, 0.774073
18715.4, 0.771404
18783.2, 0.767400
18851.5, 0.762785
18920.3, 0.754388
18989.6, 0.744934
19059.4, 0.738539
19129.7, 0.733034
19200.6, 0.728419
19272.0, 0.725749
19343.9, 0.724192
19416.3, 0.722135
19489.3, 0.721356
19562.8, 0.720856
19637.0, 0.719076
19711.6, 0.720300
19786.8, 0.726973
19862.6, 0.733646
19939.0, 0.737928
20016.0, 0.740208
20093.6, 0.735536
20171.8, 0.725026
20250.6, 0.713015
20330.0, 0.704396
20410.0, 0.697500
20490.7, 0.697389
20572.0, 0.706008
20654.0, 0.718075
20736.6, 0.731699
20819.9, 0.746825
20903.8, 0.760116
20988.5, 0.768179
21073.8, 0.770348
21159.8, 0.768401
21246.5, 0.762618
21334.0, 0.752664
21422.1, 0.737038
21511.0, 0.715573
21600.7, 0.689715
21691.0, 0.666693
21782.1, 0.644505
21874.0, 0.623207
21966.7, 0.607303
22060.2, 0.590787
22154.5, 0.572770
22249.6, 0.558312
22345.5, 0.543909
22442.2, 0.529617
22539.8, 0.515493
22638.2, 0.501535
22737.5, 0.488467
22837.7, 0.475176
22938.7, 0.463165
23040.7, 0.457771
23143.5, 0.450542
23247.3, 0.438530
23352.1, 0.428743
23457.7, 0.419790
23564.4, 0.414118
23672.0, 0.410114
23780.5, 0.402051
23890.1, 0.392492
24000.7, 0.384878
24112.3, 0.383236
24225.0, 0.379802
24338.7, 0.373084
24453.5, 0.369501
24569.4, 0.363380
24686.4, 0.361588
24804.5, 0.368307
24923.8, 0.368456
25044.2, 0.372337
25165.8, 0.372785
25288.6, 0.366067
25412.5, 0.366216
25537.7, 0.368904
25664.1, 0.368754
25791.8, 0.365022
25920.8, 0.367859
26051.1, 0.369053
26182.6, 0.371143
26315.5, 0.376070
26449.8, 0.378011
26585.4, 0.383982
26722.5, 0.385177
26860.9, 0.373532
27000.8, 0.371591
27142.1, 0.379802
27285.0, 0.386371
27429.4, 0.387416
27575.3, 0.390551
27722.7, 0.395179
27871.8, 0.401450
28022.4, 0.405630
28174.7, 0.412796
28328.7, 0.417275
28484.4, 0.419066
28641.7, 0.414886
28800.9, 0.412348
28961.8, 0.419962
29124.5, 0.430860
29289.0, 0.435936
29455.4, 0.434294
29623.8, 0.439818
29794.0, 0.448029
29966.3, 0.453702
30140.5, 0.455942
30316.7, 0.459077
30495.1, 0.468632
30675.5, 0.472065
30858.1, 0.468034
31042.8, 0.463854
31229.8, 0.460271
31419.1, 0.456987
31610.7, 0.460719
31804.6, 0.466691
32000.9, 0.465646
32199.7, 0.462212
32400.9, 0.468034
32604.8, 0.473409
32811.1, 0.477291
33020.1, 0.485800
33231.8, 0.487293
33446.2, 0.482516
33663.4, 0.479082
33883.4, 0.484755
34106.3, 0.495952
34332.1, 0.501028
34561.0, 0.501924
34792.9, 0.504014
35028.0, 0.511927
35266.3, 0.522377
35507.8, 0.525512
35752.7, 0.533276
36001.0, 0.546115
36252.8, 0.551041
36508.1, 0.558805
36767.0, 0.570898
37029.7, 0.578810
37296.1, 0.588962
37566.3, 0.600010
37840.5, 0.611207
38118.8, 0.626435
38401.2, 0.639423
38687.8, 0.650322
38978.6, 0.660324
39273.9, 0.676746
39573.7, 0.677194
39878.1, 0.670924
40187.3, 0.682420
40501.2, 0.688690
40820.0, 0.691377
41144.0, 0.702425
41473.2, 0.719146
41807.6, 0.746019
42147.5, 0.771100
42493.0, 0.786626
42844.2, 0.802601
43201.2, 0.814246
43564.3, 0.824248
43933.5, 0.846642
44309.0, 0.854555
44691.0, 0.852315
45079.6, 0.851121
45475.0, 0.842462
45877.5, 0.838730
46287.1, 0.852315
46704.2, 0.877247
47128.7, 0.893819
47561.1, 0.906807
48001.5, 0.929201
48450.1, 0.936666
48907.2, 0.951894
49373.0, 0.976527
49847.7, 0.963539
50331.5, 0.949356
50825.0, 0.952193
51328.2, 0.970705
51841.5, 0.977871
52365.1, 0.949505
52899.4, 0.950849
53444.8, 0.956522
54001.5, 0.961598
54570.1, 0.971153
55150.6, 0.988172
55743.6, 0.995786
56349.5, 0.999071
56968.7, 0.965778
57601.7, 0.942638
58248.9, 0.923379
58910.9, 0.881278
59588.1, 0.798868
60281.0, 0.704067
60990.2, 0.607773
61716.3, 0.547757
62459.8, 0.538352
63221.6, 0.543726
64002.1, 0.501625
64802.1, 0.524019
65622.1, 0.642260
66463.4, 0.618821
67326.6, 0.614640
68212.4, 0.616880
69121.9, 0.624792
70056.0, 0.643156
71015.7, 0.669133
72002.0, 0.675254
73016.3, 0.670178
74059.4, 0.672417
75132.7, 0.685107
76237.6, 0.696901
77375.5, 0.696453
78547.9, 0.688690
79756.3, 0.672566
81002.5, 0.654352
82288.5, 0.627480
83615.7, 0.603294
84986.5, 0.554177
86402.9, 0.496848
87867.4, 0.459226
89382.4, 0.410706
90950.5, 0.366664
92574.6, 0.304260
94257.2, 0.234241
96002.7, 0.190200
97814.1, 0.179600
99695.1, 0.167806
101650.0, 0.188557
103683.0, 0.219760
105799.0, 0.253201
108003.0, 0.309186
110301.0, 0.380101
112699.0, 0.416379
115204.0, 0.428770
117822.0, 0.446088
120562.0, 0.462660
123433.0, 0.465795
126443.0, 0.469229
129604.0, 0.473708
132926.0, 0.526408
136424.0, 0.594635
140111.0, 0.589709
144003.0, 0.601204
148118.0, 0.616880
152474.0, 0.679285
157095.0, 0.675104
162004.0, 0.645246
167231.0, 0.621359
172805.0, 0.546413
178764.0, 0.620314
185148.0, 0.684958
192005.0, 0.301722
199390.0,0.0102311
207366.0, 0.490279
216006.0, 0.935173
