Database of Origin,USGS Spectral Database
Sample Description,See USGS database for additional info
Date Added,2017-02-22 02:49:15.852333

Data ID,USGS_thu07          
Sample ID,thuringite_smr15.21924
Mineral Name,thuringite

Wavelength
1368.93, 0.316032
1369.3, 0.316485
1369.66, 0.316743
1370.02, 0.316355
1370.38, 0.316549
1370.74, 0.317326
1371.11, 0.317455
1371.47, 0.316808
1371.83, 0.317002
1372.19, 0.317326
1372.56, 0.317261
1372.92, 0.318037
1373.29, 0.318296
1373.65, 0.317908
1374.01, 0.317908
1374.38, 0.317843
1374.74, 0.318425
1375.11, 0.318943
1375.47, 0.318814
1375.84, 0.319525
1376.2, 0.319913
1376.57, 0.319655
1376.93, 0.319784
1377.3, 0.320560
1377.67, 0.320496
1378.03, 0.320237
1378.4, 0.320237
1378.76, 0.320366
1379.13, 0.320366
1379.5, 0.320948
1379.87, 0.321466
1380.23, 0.322178
1380.6, 0.322307
1380.97, 0.322307
1381.34, 0.322695
1381.7, 0.322825
1382.07, 0.323471
1382.44, 0.323342
1382.81, 0.323213
1383.18, 0.322760
1383.55, 0.322630
1383.92, 0.323277
1384.29, 0.323730
1384.66, 0.323666
1385.03, 0.323407
1385.4, 0.323601
1385.77, 0.324054
1386.14, 0.324313
1386.51, 0.324248
1386.88, 0.323860
1387.25, 0.323666
1387.62, 0.323795
1387.99, 0.324054
1388.36, 0.324701
1388.74, 0.325024
1389.11, 0.325089
1389.48, 0.324959
1389.85, 0.324895
1390.23, 0.324507
1390.6, 0.324636
1390.97, 0.324830
1391.35, 0.324830
1391.72, 0.325218
1392.09, 0.325348
1392.47, 0.325283
1392.84, 0.325089
1393.21, 0.324571
1393.59, 0.324054
1393.96, 0.324118
1394.34, 0.324571
1394.71, 0.324701
1395.09, 0.324442
1395.46, 0.323924
1395.84, 0.323407
1396.22, 0.323536
1396.59, 0.323083
1396.97, 0.322630
1397.35, 0.322307
1397.72, 0.322048
1398.1, 0.321919
1398.48, 0.321337
1398.85, 0.321013
1399.23, 0.321207
1399.61, 0.321337
1399.99, 0.320948
1400.37, 0.320431
1400.74, 0.319655
1401.12, 0.318684
1401.5, 0.317649
1401.88, 0.316873
1402.26, 0.315902
1402.64, 0.314414
1403.02, 0.313703
1403.4, 0.312991
1403.78, 0.311568
1404.16, 0.310403
1404.54, 0.310468
1404.92, 0.310080
1405.3, 0.308980
1405.68, 0.308074
1406.06, 0.307945
1406.44, 0.307815
1406.83, 0.307815
1407.21, 0.307233
1407.59, 0.306974
1407.97, 0.307039
1408.35, 0.306845
1408.74, 0.306910
1409.12, 0.306780
1409.5, 0.306328
1409.89, 0.305810
1410.27, 0.305422
1410.65, 0.305034
1411.04, 0.304710
1411.42, 0.303416
1411.81, 0.302640
1412.19, 0.302640
1412.58, 0.302316
1412.96, 0.301281
1413.35, 0.300246
1413.73, 0.300828
1414.12, 0.301411
1414.5, 0.301993
1414.89, 0.303804
1415.28, 0.305034
1415.66, 0.305228
1416.05, 0.306004
1416.44, 0.308074
1416.82, 0.310015
1417.21, 0.311632
1417.6, 0.313509
1417.98, 0.314738
1418.37, 0.316032
1418.76, 0.317520
1419.15, 0.319008
1419.54, 0.319978
1419.93, 0.320819
1420.32, 0.321725
1420.71, 0.322825
1421.09, 0.323924
1421.48, 0.325024
1421.88, 0.326059
1422.27, 0.326577
1422.66, 0.326900
1423.05, 0.327547
1423.44, 0.327741
1423.83, 0.328194
1424.22, 0.329165
1424.61, 0.329617
1425.0, 0.329812
1425.39, 0.330200
1425.78, 0.330458
1426.18, 0.330458
1426.57, 0.330847
1426.96, 0.331364
1427.36, 0.331882
1427.75, 0.332335
1428.14, 0.332464
1428.54, 0.332593
1428.93, 0.332399
1429.32, 0.332270
1429.72, 0.332658
1430.11, 0.333111
1430.51, 0.333434
1430.9, 0.333693
1431.3, 0.333628
1431.69, 0.333628
1432.09, 0.333499
1432.48, 0.333111
1432.88, 0.333046
1433.28, 0.333240
1433.67, 0.333370
1434.07, 0.333628
1434.46, 0.333952
1434.86, 0.333823
1435.26, 0.333887
1435.66, 0.333952
1436.05, 0.333952
1436.45, 0.333887
1436.85, 0.334081
1437.25, 0.333952
1437.65, 0.333952
1438.05, 0.334664
1438.44, 0.335181
1438.84, 0.334858
1439.24, 0.334534
1439.64, 0.334858
1440.04, 0.334987
1440.44, 0.335116
1440.84, 0.335246
1441.24, 0.335699
1441.65, 0.335634
1442.05, 0.335311
1442.45, 0.335569
1442.85, 0.335763
1443.25, 0.335634
1443.65, 0.335893
1444.05, 0.336152
1444.46, 0.336087
1444.86, 0.336281
1445.26, 0.336669
1445.67, 0.336993
1446.07, 0.336993
1446.47, 0.336993
1446.88, 0.337316
1447.28, 0.337704
1447.68, 0.337898
1448.09, 0.337704
1448.49, 0.337510
1448.9, 0.337834
1449.3, 0.338545
1449.71, 0.338481
1450.11, 0.338481
1450.52, 0.338481
1450.93, 0.338157
1451.33, 0.338933
1451.74, 0.339128
1452.14, 0.338998
1452.55, 0.339516
1452.96, 0.339580
1453.36, 0.339322
1453.77, 0.339580
1454.18, 0.339839
1454.59, 0.340033
1455.0, 0.340163
1455.41, 0.340421
1455.81, 0.341004
1456.22, 0.341327
1456.63, 0.341521
1457.04, 0.341586
1457.45, 0.341715
1457.86, 0.342039
1458.27, 0.342362
1458.68, 0.342427
1459.09, 0.342427
1459.5, 0.342298
1459.91, 0.342686
1460.32, 0.343009
1460.74, 0.343139
1461.15, 0.342945
1461.56, 0.343333
1461.97, 0.343786
1462.39, 0.344238
1462.8, 0.344497
1463.21, 0.344238
1463.62, 0.344109
1464.04, 0.344368
1464.45, 0.344691
1464.86, 0.345079
1465.28, 0.344885
1465.69, 0.344691
1466.11, 0.345079
1466.52, 0.345597
1466.94, 0.345532
1467.35, 0.346050
1467.77, 0.346567
1468.18, 0.346438
1468.6, 0.346309
1469.02, 0.346632
1469.43, 0.346761
1469.85, 0.347020
1470.27, 0.347602
1470.68, 0.347797
1471.1, 0.347602
1471.52, 0.347667
1471.94, 0.348120
1472.35, 0.348508
1472.77, 0.348638
1473.19, 0.349349
1473.61, 0.349349
1474.03, 0.349090
1474.45, 0.349349
1474.87, 0.349414
1475.29, 0.349867
1475.71, 0.350190
1476.13, 0.350449
1476.55, 0.350449
1476.97, 0.350384
1477.39, 0.350837
1477.81, 0.351549
1478.23, 0.352002
1478.65, 0.351678
1479.07, 0.351484
1479.5, 0.351808
1479.92, 0.352002
1480.34, 0.352325
1480.76, 0.352390
1481.19, 0.352390
1481.61, 0.352455
1482.03, 0.352649
1482.46, 0.352843
1482.88, 0.353425
1483.31, 0.353748
1483.73, 0.354137
1484.16, 0.354460
1484.58, 0.354654
1485.01, 0.354654
1485.43, 0.354913
1485.86, 0.355172
1486.28, 0.355236
1486.71, 0.355366
1487.14, 0.355819
1487.56, 0.355948
1487.99, 0.356013
1488.42, 0.356336
1488.84, 0.356530
1489.27, 0.356595
1489.7, 0.356918
1490.13, 0.357371
1490.56, 0.357371
1490.98, 0.357242
1491.41, 0.357565
1491.84, 0.357630
1492.27, 0.357630
1492.7, 0.357954
1493.13, 0.358342
1493.56, 0.358795
1493.99, 0.359053
1494.42, 0.359312
1494.85, 0.359636
1495.29, 0.359247
1495.72, 0.359247
1496.15, 0.359830
1496.58, 0.360218
1497.01, 0.360541
1497.44, 0.361059
1497.88, 0.361124
1498.31, 0.360994
1498.74, 0.361382
1499.18, 0.361512
1499.61, 0.361447
1500.04, 0.361576
1500.48, 0.361900
1500.91, 0.362094
1501.35, 0.362353
1501.78, 0.362547
1502.22, 0.362935
1502.65, 0.362935
1503.09, 0.363194
1503.53, 0.363711
1503.96, 0.363776
1504.4, 0.363582
1504.83, 0.363711
1505.27, 0.363905
1505.71, 0.364294
1506.15, 0.364617
1506.58, 0.364746
1507.02, 0.364617
1507.46, 0.365005
1507.9, 0.365393
1508.34, 0.365652
1508.78, 0.365976
1509.21, 0.366170
1509.66, 0.366429
1510.09, 0.366429
1510.53, 0.366364
1510.97, 0.366364
1511.42, 0.366429
1511.86, 0.366946
1512.3, 0.367528
1512.74, 0.367528
1513.18, 0.367658
1513.62, 0.367658
1514.06, 0.367852
1514.51, 0.368240
1514.95, 0.368434
1515.39, 0.368434
1515.83, 0.368693
1516.28, 0.369404
1516.72, 0.369534
1517.16, 0.369469
1517.61, 0.369599
1518.05, 0.369857
1518.5, 0.369793
1518.94, 0.369793
1519.39, 0.370116
1519.83, 0.370245
1520.28, 0.369987
1520.73, 0.370375
1521.17, 0.370828
1521.62, 0.371086
1522.07, 0.371151
1522.51, 0.370828
1522.96, 0.371216
1523.41, 0.371539
1523.85, 0.371992
1524.3, 0.372251
1524.75, 0.372510
1525.2, 0.372574
1525.65, 0.372510
1526.1, 0.372963
1526.55, 0.373221
1527.0, 0.373545
1527.45, 0.373610
1527.9, 0.373545
1528.35, 0.373480
1528.8, 0.373674
1529.25, 0.373933
1529.7, 0.374257
1530.15, 0.374451
1530.6, 0.374451
1531.05, 0.374709
1531.51, 0.375033
1531.96, 0.375292
1532.41, 0.375615
1532.87, 0.376003
1533.32, 0.376003
1533.77, 0.376133
1534.23, 0.376391
1534.68, 0.376715
1535.14, 0.376909
1535.59, 0.376586
1536.05, 0.376650
1536.5, 0.376974
1536.96, 0.377232
1537.41, 0.377491
1537.87, 0.378009
1538.32, 0.378268
1538.78, 0.378268
1539.24, 0.378591
1539.7, 0.378850
1540.15, 0.378915
1540.61, 0.379367
1541.07, 0.379432
1541.53, 0.379626
1541.98, 0.380079
1542.44, 0.380338
1542.9, 0.380467
1543.36, 0.380726
1543.82, 0.381179
1544.28, 0.381632
1544.74, 0.381696
1545.2, 0.381890
1545.66, 0.381890
1546.12, 0.381890
1546.59, 0.382085
1547.05, 0.382408
1547.51, 0.382537
1547.97, 0.383055
1548.43, 0.383443
1548.9, 0.383314
1549.36, 0.383637
1549.82, 0.384349
1550.29, 0.384543
1550.75, 0.384608
1551.21, 0.384672
1551.68, 0.384866
1552.14, 0.385060
1552.61, 0.385384
1553.07, 0.385902
1553.54, 0.386096
1554.0, 0.386290
1554.47, 0.386419
1554.93, 0.386743
1555.4, 0.387066
1555.87, 0.387519
1556.34, 0.387972
1556.8, 0.388036
1557.27, 0.387713
1557.74, 0.387907
1558.21, 0.388425
1558.68, 0.388554
1559.14, 0.389071
1559.61, 0.389395
1560.08, 0.389460
1560.55, 0.389783
1561.02, 0.390301
1561.49, 0.390689
1561.96, 0.390948
1562.43, 0.391336
1562.9, 0.391595
1563.38, 0.391724
1563.85, 0.391918
1564.32, 0.392047
1564.79, 0.392436
1565.26, 0.392953
1565.74, 0.393018
1566.21, 0.393471
1566.68, 0.393665
1567.16, 0.393600
1567.63, 0.393924
1568.1, 0.394182
1568.58, 0.394376
1569.05, 0.395023
1569.53, 0.395282
1570.0, 0.395412
1570.48, 0.395606
1570.96, 0.395670
1571.43, 0.395800
1571.91, 0.396317
1572.39, 0.396576
1572.86, 0.396705
1573.34, 0.397158
1573.82, 0.397676
1574.3, 0.398129
1574.77, 0.398193
1575.25, 0.398129
1575.73, 0.398193
1576.21, 0.398517
1576.69, 0.398970
1577.17, 0.399617
1577.65, 0.399746
1578.13, 0.400134
1578.61, 0.400328
1579.09, 0.400846
1579.57, 0.401040
1580.05, 0.401299
1580.54, 0.401558
1581.02, 0.401881
1581.5, 0.402334
1581.98, 0.402722
1582.47, 0.402916
1582.95, 0.403240
1583.43, 0.403369
1583.92, 0.403369
1584.4, 0.403369
1584.88, 0.403886
1585.37, 0.404081
1585.85, 0.404339
1586.34, 0.404922
1586.82, 0.404922
1587.31, 0.405374
1587.8, 0.405763
1588.28, 0.406021
1588.77, 0.406215
1589.26, 0.406604
1589.74, 0.406798
1590.23, 0.406927
1590.72, 0.407251
1591.21, 0.407833
1591.7, 0.408350
1592.19, 0.408415
1592.67, 0.408803
1593.16, 0.409062
1593.65, 0.409191
1594.14, 0.409321
1594.63, 0.409709
1595.12, 0.410032
1595.61, 0.410227
1596.11, 0.410485
1596.6, 0.411003
1597.09, 0.411197
1597.58, 0.411391
1598.08, 0.411650
1598.57, 0.412167
1599.06, 0.412491
1599.55, 0.412685
1600.05, 0.413073
1600.54, 0.413073
1601.04, 0.413461
1601.53, 0.413979
1602.03, 0.414367
1602.52, 0.414755
1603.02, 0.415273
1603.51, 0.415661
1604.01, 0.415531
1604.5, 0.415531
1605.0, 0.415984
1605.5, 0.416502
1606.0, 0.416696
1606.49, 0.417019
1606.99, 0.417472
1607.49, 0.417990
1607.99, 0.418378
1608.49, 0.418249
1608.99, 0.418378
1609.49, 0.418766
1609.99, 0.418960
1610.49, 0.419413
1610.99, 0.420125
1611.49, 0.420384
1611.99, 0.420254
1612.49, 0.420513
1612.99, 0.420901
1613.49, 0.421095
1614.0, 0.421548
1614.5, 0.421872
1615.0, 0.421936
1615.51, 0.422324
1616.01, 0.422971
1616.51, 0.423360
1617.02, 0.423489
1617.52, 0.423877
1618.03, 0.424395
1618.53, 0.424589
1619.04, 0.424783
1619.54, 0.425106
1620.05, 0.425689
1620.55, 0.426077
1621.06, 0.426465
1621.57, 0.426853
1622.08, 0.427176
1622.58, 0.427500
1623.09, 0.427694
1623.6, 0.428082
1624.11, 0.428729
1624.62, 0.428794
1625.13, 0.429053
1625.64, 0.429376
1626.15, 0.429764
1626.66, 0.430152
1627.17, 0.430411
1627.68, 0.430605
1628.19, 0.430799
1628.7, 0.431252
1629.21, 0.431511
1629.72, 0.431899
1630.24, 0.432223
1630.75, 0.432417
1631.26, 0.432611
1631.78, 0.432934
1632.29, 0.433581
1632.8, 0.433775
1633.32, 0.433840
1633.83, 0.434293
1634.35, 0.434616
1634.86, 0.434810
1635.38, 0.435134
1635.9, 0.435522
1636.41, 0.435845
1636.93, 0.436686
1637.45, 0.437139
1637.96, 0.436945
1638.48, 0.437075
1639.0, 0.437592
1639.52, 0.437851
1640.04, 0.438174
1640.56, 0.438627
1641.08, 0.438951
1641.59, 0.439274
1642.11, 0.439727
1642.63, 0.439662
1643.16, 0.439662
1643.68, 0.440180
1644.2, 0.440698
1644.72, 0.441086
1645.24, 0.441280
1645.76, 0.441474
1646.29, 0.441797
1646.81, 0.442121
1647.33, 0.442250
1647.86, 0.442315
1648.38, 0.442638
1648.9, 0.443221
1649.43, 0.443479
1649.95, 0.443803
1650.48, 0.444191
1651.0, 0.444515
1651.53, 0.444838
1652.06, 0.444903
1652.58, 0.444967
1653.11, 0.445226
1653.64, 0.445420
1654.17, 0.446067
1654.69, 0.446520
1655.22, 0.446908
1655.75, 0.446973
1656.28, 0.447038
1656.81, 0.447296
1657.34, 0.447555
1657.87, 0.447943
1658.4, 0.448008
1658.93, 0.448396
1659.46, 0.448978
1659.99, 0.449431
1660.52, 0.449690
1661.05, 0.449755
1661.59, 0.450143
1662.12, 0.450531
1662.65, 0.450984
1663.19, 0.451372
1663.72, 0.451696
1664.26, 0.451825
1664.79, 0.452019
1665.32, 0.452019
1665.86, 0.452278
1666.39, 0.452731
1666.93, 0.453248
1667.47, 0.453378
1668.0, 0.453507
1668.54, 0.453960
1669.08, 0.454542
1669.61, 0.455060
1670.15, 0.455060
1670.69, 0.455124
1671.23, 0.455448
1671.77, 0.455965
1672.31, 0.456354
1672.85, 0.456612
1673.39, 0.456936
1673.93, 0.457389
1674.47, 0.457518
1675.01, 0.457583
1675.55, 0.457777
1676.09, 0.458165
1676.64, 0.458553
1677.18, 0.458941
1677.72, 0.459330
1678.26, 0.459718
1678.81, 0.459976
1679.35, 0.460171
1679.89, 0.460429
1680.44, 0.460623
1680.98, 0.460882
1681.53, 0.461335
1682.07, 0.461788
1682.62, 0.461982
1683.17, 0.462370
1683.71, 0.462758
1684.26, 0.462952
1684.81, 0.463147
1685.36, 0.463276
1685.9, 0.463535
1686.45, 0.463729
1687.0, 0.463988
1687.55, 0.464505
1688.1, 0.465087
1688.65, 0.465152
1689.2, 0.465475
1689.75, 0.466122
1690.3, 0.466769
1690.85, 0.467093
1691.41, 0.467287
1691.96, 0.467287
1692.51, 0.467416
1693.06, 0.467610
1693.61, 0.467804
1694.17, 0.468257
1694.72, 0.468516
1695.28, 0.468904
1695.83, 0.469292
1696.39, 0.469422
1696.94, 0.469810
1697.5, 0.470004
1698.05, 0.470198
1698.61, 0.470651
1699.17, 0.470974
1699.72, 0.471427
1700.28, 0.471816
1700.84, 0.471945
1701.4, 0.472268
1701.95, 0.472592
1702.51, 0.472851
1703.07, 0.473303
1703.63, 0.473821
1704.19, 0.473886
1704.75, 0.474144
1705.31, 0.474403
1705.88, 0.474727
1706.44, 0.474727
1707.0, 0.474986
1707.56, 0.475568
1708.12, 0.475762
1708.69, 0.476150
1709.25, 0.476603
1709.81, 0.476797
1710.38, 0.476991
1710.94, 0.477444
1711.51, 0.477703
1712.07, 0.477897
1712.64, 0.478091
1713.2, 0.478350
1713.77, 0.478738
1714.34, 0.479126
1714.9, 0.479191
1715.47, 0.479385
1716.04, 0.479644
1716.61, 0.479967
1717.18, 0.480291
1717.74, 0.480614
1718.31, 0.480679
1718.88, 0.480937
1719.45, 0.481326
1720.02, 0.481714
1720.59, 0.481843
1721.17, 0.482102
1721.74, 0.482555
1722.31, 0.483008
1722.88, 0.483331
1723.45, 0.483396
1724.03, 0.483396
1724.6, 0.483590
1725.18, 0.483849
1725.75, 0.483978
1726.33, 0.484431
1726.9, 0.484884
1727.48, 0.485207
1728.05, 0.485466
1728.63, 0.485531
1729.2, 0.485660
1729.78, 0.486113
1730.36, 0.486501
1730.94, 0.486631
1731.51, 0.486760
1732.09, 0.487083
1732.67, 0.487342
1733.25, 0.487666
1733.83, 0.487989
1734.41, 0.488377
1734.99, 0.488571
1735.57, 0.488830
1736.15, 0.489218
1736.73, 0.489154
1737.32, 0.489283
1737.9, 0.489736
1738.48, 0.489995
1739.07, 0.490253
1739.65, 0.490512
1740.23, 0.490900
1740.82, 0.491030
1741.4, 0.491159
1741.99, 0.491547
1742.57, 0.491871
1743.16, 0.492130
1743.74, 0.492518
1744.33, 0.492582
1744.92, 0.492841
1745.51, 0.493100
1746.09, 0.493165
1746.68, 0.493617
1747.27, 0.494070
1747.86, 0.494329
1748.45, 0.494459
1749.04, 0.494588
1749.63, 0.494847
1750.22, 0.495364
1750.81, 0.495623
1751.4, 0.495752
1751.99, 0.496011
1752.59, 0.496335
1753.18, 0.496788
1753.77, 0.497111
1754.37, 0.497240
1754.96, 0.497758
1755.56, 0.497887
1756.15, 0.497887
1756.74, 0.498017
1757.34, 0.498470
1757.94, 0.498922
1758.53, 0.499440
1759.13, 0.499699
1759.73, 0.499569
1760.32, 0.499763
1760.92, 0.499893
1761.52, 0.500216
1762.12, 0.500734
1762.72, 0.500863
1763.32, 0.501122
1763.92, 0.501187
1764.52, 0.501575
1765.12, 0.501963
1765.72, 0.502222
1766.32, 0.502416
1766.92, 0.502869
1767.53, 0.503063
1768.13, 0.503128
1768.73, 0.503580
1769.34, 0.503904
1769.94, 0.504227
1770.55, 0.504551
1771.15, 0.504810
1771.76, 0.504810
1772.36, 0.504939
1772.97, 0.505133
1773.57, 0.505392
1774.18, 0.505909
1774.79, 0.506233
1775.4, 0.506686
1776.0, 0.506945
1776.61, 0.506945
1777.22, 0.507074
1777.83, 0.507591
1778.44, 0.507915
1779.05, 0.508044
1779.66, 0.508497
1780.27, 0.508885
1780.88, 0.508821
1781.5, 0.509079
1782.11, 0.509468
1782.72, 0.509662
1783.33, 0.509856
1783.95, 0.510115
1784.56, 0.510309
1785.18, 0.510309
1785.79, 0.510632
1786.41, 0.511085
1787.02, 0.511408
1787.64, 0.511667
1788.26, 0.511797
1788.87, 0.511926
1789.49, 0.512185
1790.11, 0.512379
1790.73, 0.512638
1791.35, 0.512961
1791.96, 0.513220
1792.58, 0.513479
1793.21, 0.513673
1793.83, 0.513673
1794.45, 0.513802
1795.07, 0.513996
1795.69, 0.514061
1796.31, 0.514449
1796.93, 0.514967
1797.56, 0.515096
1798.18, 0.515161
1798.8, 0.515290
1799.43, 0.515743
1800.05, 0.516196
1800.68, 0.516325
1801.3, 0.516325
1801.93, 0.516455
1802.56, 0.516455
1803.18, 0.516713
1803.81, 0.517037
1804.44, 0.517166
1805.07, 0.517360
1805.7, 0.517748
1806.33, 0.517943
1806.95, 0.517813
1807.58, 0.517943
1808.22, 0.518201
1808.85, 0.518460
1809.48, 0.518654
1810.11, 0.519042
1810.74, 0.519301
1811.38, 0.519301
1812.01, 0.519495
1812.64, 0.519625
1813.28, 0.519689
1813.91, 0.519819
1814.55, 0.520013
1815.18, 0.520660
1815.82, 0.520983
1816.45, 0.521048
1817.09, 0.521113
1817.73, 0.521113
1818.36, 0.521371
1819.0, 0.521501
1819.64, 0.521889
1820.28, 0.522471
1820.92, 0.522536
1821.56, 0.522665
1822.2, 0.522730
1822.84, 0.522665
1823.48, 0.522730
1824.12, 0.522924
1824.76, 0.523053
1825.41, 0.523636
1826.05, 0.524671
1826.69, 0.524606
1827.34, 0.524283
1827.98, 0.524606
1828.63, 0.524930
1829.27, 0.525059
1829.92, 0.525188
1830.56, 0.525641
1831.21, 0.525835
1831.86, 0.525771
1832.5, 0.525965
1833.15, 0.525900
1833.8, 0.525900
1834.45, 0.526612
1835.1, 0.527065
1835.75, 0.527647
1836.4, 0.527905
1837.05, 0.527905
1837.7, 0.528294
1838.35, 0.527905
1839.01, 0.528229
1839.66, 0.528747
1840.31, 0.528552
1840.96, 0.528811
1841.62, 0.529652
1842.27, 0.529393
1842.93, 0.528876
1843.58, 0.528811
1844.24, 0.528876
1844.9, 0.529005
1845.55, 0.529458
1846.21, 0.530493
1846.87, 0.531593
1847.53, 0.531593
1848.18, 0.531270
1848.84, 0.530752
1849.5, 0.530429
1850.16, 0.530558
1850.82, 0.530817
1851.48, 0.530881
1852.14, 0.531140
1852.81, 0.531722
1853.47, 0.532499
1854.13, 0.532305
1854.8, 0.531787
1855.46, 0.531916
1856.12, 0.532305
1856.79, 0.532434
1857.45, 0.532046
1858.12, 0.532111
1858.79, 0.532758
1859.45, 0.533599
1860.12, 0.533663
1860.79, 0.533405
1861.46, 0.533146
1862.12, 0.533081
1862.79, 0.533210
1863.46, 0.533405
1864.13, 0.533663
1864.8, 0.533663
1865.48, 0.533793
1866.15, 0.534181
1866.82, 0.534569
1867.49, 0.535281
1868.16, 0.535151
1868.84, 0.534763
1869.51, 0.534957
1870.19, 0.535734
1870.86, 0.536510
1871.54, 0.535734
1872.21, 0.536057
1872.89, 0.536769
1873.56, 0.536316
1874.24, 0.535798
1874.92, 0.535928
1875.6, 0.535863
1876.28, 0.536186
1876.96, 0.536639
1877.64, 0.536380
1878.32, 0.536122
1879.0, 0.536122
1879.68, 0.536380
1880.36, 0.536445
1881.04, 0.536510
1881.73, 0.536704
1882.41, 0.536769
1883.09, 0.537286
1883.78, 0.537868
1884.46, 0.537933
1885.15, 0.537739
1885.83, 0.537804
1886.52, 0.538062
1887.21, 0.538257
1887.89, 0.538321
1888.58, 0.538451
1889.27, 0.538839
1889.96, 0.539227
1890.65, 0.538968
1891.34, 0.538839
1892.03, 0.539486
1892.72, 0.539680
1893.41, 0.539874
1894.1, 0.539874
1894.79, 0.539615
1895.49, 0.539874
1896.18, 0.540133
1896.87, 0.540521
1897.57, 0.541038
1898.26, 0.541297
1898.96, 0.541880
1899.65, 0.542397
1900.35, 0.542203
1901.05, 0.541880
1901.74, 0.542074
1902.44, 0.542850
1903.14, 0.543109
1903.84, 0.542656
1904.54, 0.543109
1905.24, 0.544014
1905.94, 0.544273
1906.64, 0.544338
1907.34, 0.544079
1908.04, 0.543691
1908.75, 0.543885
1909.45, 0.544144
1910.15, 0.544532
1910.86, 0.544985
1911.56, 0.545179
1912.27, 0.545179
1912.97, 0.545826
1913.68, 0.546279
1914.39, 0.546020
1915.09, 0.546085
1915.8, 0.546408
1916.51, 0.546667
1917.22, 0.546990
1917.93, 0.547314
1918.64, 0.547508
1919.35, 0.548090
1920.06, 0.548931
1920.77, 0.548996
1921.48, 0.548414
1922.19, 0.548478
1922.91, 0.548866
1923.62, 0.549449
1924.33, 0.549643
1925.05, 0.549643
1925.76, 0.549772
1926.48, 0.549902
1927.19, 0.550160
1927.91, 0.550613
1928.63, 0.551131
1929.35, 0.550807
1930.07, 0.550872
1930.78, 0.551260
1931.5, 0.551454
1932.22, 0.551584
1932.94, 0.551778
1933.66, 0.552036
1934.39, 0.552231
1935.11, 0.552360
1935.83, 0.552619
1936.55, 0.552748
1937.28, 0.552748
1938.0, 0.552748
1938.73, 0.553007
1939.45, 0.553266
1940.18, 0.553460
1940.9, 0.553330
1941.63, 0.553266
1942.36, 0.553460
1943.09, 0.553718
1943.81, 0.553913
1944.54, 0.553913
1945.27, 0.553977
1946.0, 0.553977
1946.73, 0.553913
1947.47, 0.553913
1948.2, 0.554042
1948.93, 0.554171
1949.66, 0.554236
1950.4, 0.554107
1951.13, 0.553848
1951.86, 0.554236
1952.6, 0.554560
1953.34, 0.554301
1954.07, 0.554042
1954.81, 0.554107
1955.55, 0.554042
1956.29, 0.554042
1957.02, 0.553977
1957.76, 0.554042
1958.5, 0.554236
1959.24, 0.554107
1959.98, 0.553913
1960.72, 0.553977
1961.47, 0.554107
1962.21, 0.554171
1962.95, 0.554236
1963.7, 0.554236
1964.44, 0.554236
1965.18, 0.554107
1965.93, 0.554042
1966.67, 0.553977
1967.42, 0.553848
1968.17, 0.553718
1968.92, 0.553589
1969.66, 0.553589
1970.41, 0.553589
1971.16, 0.553654
1971.91, 0.553848
1972.66, 0.553718
1973.41, 0.553524
1974.16, 0.553395
1974.92, 0.553266
1975.67, 0.553201
1976.42, 0.553201
1977.18, 0.553007
1977.93, 0.552683
1978.69, 0.552425
1979.44, 0.552360
1980.2, 0.552231
1980.95, 0.552036
1981.71, 0.551713
1982.47, 0.551713
1983.23, 0.551648
1983.99, 0.551325
1984.74, 0.551001
1985.51, 0.550678
1986.27, 0.550484
1987.03, 0.550419
1987.79, 0.550096
1988.55, 0.549902
1989.32, 0.549772
1990.08, 0.549384
1990.84, 0.549061
1991.61, 0.548802
1992.37, 0.548672
1993.14, 0.548543
1993.9, 0.548543
1994.67, 0.548349
1995.44, 0.548220
1996.21, 0.548025
1996.98, 0.547831
1997.75, 0.547831
1998.52, 0.547767
1999.29, 0.547896
2000.06, 0.547896
2000.83, 0.547767
2001.6, 0.547573
2002.38, 0.547573
2003.15, 0.547702
2003.93, 0.547831
2004.7, 0.547961
2005.48, 0.548155
2006.25, 0.548284
2007.03, 0.548025
2007.81, 0.547831
2008.58, 0.548284
2009.36, 0.548672
2010.14, 0.548737
2010.92, 0.548931
2011.7, 0.549319
2012.48, 0.549319
2013.26, 0.549513
2014.05, 0.549966
2014.83, 0.550419
2015.61, 0.550872
2016.4, 0.551195
2017.18, 0.551648
2017.97, 0.552036
2018.75, 0.552101
2019.54, 0.552425
2020.32, 0.553072
2021.11, 0.553589
2021.9, 0.553977
2022.69, 0.554430
2023.48, 0.554818
2024.27, 0.555401
2025.06, 0.556177
2025.85, 0.556759
2026.64, 0.557341
2027.44, 0.557988
2028.23, 0.558377
2029.02, 0.559088
2029.82, 0.559929
2030.61, 0.560511
2031.41, 0.560964
2032.2, 0.561611
2033.0, 0.562452
2033.8, 0.563229
2034.6, 0.563617
2035.4, 0.564328
2036.2, 0.565040
2037.0, 0.565687
2037.8, 0.566528
2038.6, 0.567434
2039.4, 0.568016
2040.2, 0.568469
2041.01, 0.569180
2041.81, 0.570022
2042.61, 0.570668
2043.42, 0.571315
2044.22, 0.571962
2045.03, 0.572609
2045.84, 0.573191
2046.65, 0.573774
2047.46, 0.574356
2048.26, 0.574679
2049.07, 0.575262
2049.88, 0.576038
2050.69, 0.576556
2051.51, 0.577073
2052.32, 0.577720
2053.13, 0.578302
2053.94, 0.578626
2054.76, 0.579079
2055.57, 0.579661
2056.39, 0.580243
2057.2, 0.580761
2058.02, 0.581149
2058.84, 0.581731
2059.66, 0.582119
2060.48, 0.582443
2061.29, 0.582702
2062.11, 0.583219
2062.94, 0.583801
2063.76, 0.584384
2064.58, 0.584772
2065.4, 0.584966
2066.22, 0.585289
2067.05, 0.585872
2067.87, 0.586195
2068.7, 0.586583
2069.52, 0.587165
2070.35, 0.587295
2071.18, 0.587618
2072.0, 0.588136
2072.83, 0.588459
2073.66, 0.588653
2074.49, 0.588977
2075.32, 0.589365
2076.15, 0.589883
2076.98, 0.590400
2077.82, 0.590594
2078.65, 0.590659
2079.48, 0.590853
2080.32, 0.591047
2081.15, 0.591371
2081.99, 0.591694
2082.83, 0.591888
2083.66, 0.592082
2084.5, 0.592600
2085.34, 0.593053
2086.18, 0.593182
2087.02, 0.593506
2087.86, 0.593764
2088.7, 0.594088
2089.54, 0.594088
2090.39, 0.594282
2091.23, 0.594605
2092.07, 0.594864
2092.92, 0.595058
2093.76, 0.595123
2094.61, 0.595317
2095.45, 0.595576
2096.3, 0.595834
2097.15, 0.596029
2098.0, 0.596287
2098.85, 0.596676
2099.7, 0.596676
2100.55, 0.596805
2101.4, 0.596934
2102.25, 0.596870
2103.1, 0.596805
2103.96, 0.596999
2104.81, 0.597323
2105.67, 0.597258
2106.52, 0.597193
2107.38, 0.597193
2108.24, 0.597517
2109.09, 0.597646
2109.95, 0.597840
2110.81, 0.597840
2111.67, 0.597711
2112.53, 0.597711
2113.39, 0.597775
2114.25, 0.597840
2115.12, 0.597775
2115.98, 0.597581
2116.84, 0.597517
2117.71, 0.597452
2118.58, 0.597646
2119.44, 0.597646
2120.31, 0.597452
2121.18, 0.597323
2122.04, 0.597323
2122.91, 0.597258
2123.78, 0.597128
2124.65, 0.597258
2125.52, 0.597128
2126.4, 0.596870
2127.27, 0.596934
2128.14, 0.597193
2129.02, 0.597258
2129.89, 0.597387
2130.77, 0.597323
2131.64, 0.597258
2132.52, 0.597258
2133.4, 0.597452
2134.27, 0.597517
2135.15, 0.597517
2136.03, 0.597775
2136.91, 0.597905
2137.79, 0.598163
2138.68, 0.598163
2139.56, 0.598034
2140.44, 0.598099
2141.33, 0.598293
2142.21, 0.598422
2143.1, 0.598487
2143.99, 0.598487
2144.87, 0.598487
2145.76, 0.598616
2146.65, 0.598746
2147.54, 0.598875
2148.43, 0.599069
2149.32, 0.599263
2150.21, 0.599328
2151.1, 0.599522
2151.99, 0.599393
2152.89, 0.599263
2153.78, 0.599199
2154.68, 0.599069
2155.57, 0.599069
2156.47, 0.599199
2157.37, 0.599263
2158.27, 0.599393
2159.16, 0.599263
2160.06, 0.599069
2160.96, 0.599005
2161.86, 0.599263
2162.77, 0.599581
2163.67, 0.599390
2164.57, 0.599136
2165.48, 0.599581
2166.38, 0.599454
2167.29, 0.599263
2168.2, 0.599263
2169.1, 0.599835
2170.01, 0.599708
2170.92, 0.599136
2171.83, 0.599263
2172.74, 0.599263
2173.65, 0.599136
2174.56, 0.599200
2175.47, 0.599263
2176.39, 0.599073
2177.3, 0.598564
2178.22, 0.598755
2179.13, 0.599200
2180.05, 0.598946
2180.96, 0.598755
2181.88, 0.598819
2182.8, 0.599009
2183.72, 0.598946
2184.64, 0.598183
2185.56, 0.598183
2186.48, 0.598247
2187.41, 0.598501
2188.33, 0.598564
2189.25, 0.598056
2190.18, 0.597866
2191.1, 0.597548
2192.03, 0.597548
2192.96, 0.597230
2193.89, 0.596341
2194.82, 0.595642
2195.74, 0.595896
2196.68, 0.595896
2197.61, 0.595579
2198.54, 0.595197
2199.47, 0.594499
2200.4, 0.593927
2201.34, 0.593419
2202.28, 0.593292
2203.21, 0.592910
2204.15, 0.592466
2205.08, 0.591958
2206.02, 0.591132
2206.96, 0.590179
2207.9, 0.589543
2208.84, 0.588972
2209.78, 0.588273
2210.73, 0.587638
2211.67, 0.587320
2212.61, 0.587129
2213.56, 0.587256
2214.5, 0.586875
2215.45, 0.586367
2216.4, 0.585605
2217.35, 0.584271
2218.3, 0.583127
2219.24, 0.582873
2220.2, 0.581793
2221.15, 0.580332
2222.1, 0.579315
2223.05, 0.578362
2224.0, 0.577346
2224.96, 0.576075
2225.91, 0.574678
2226.87, 0.572963
2227.83, 0.571120
2228.79, 0.569659
2229.74, 0.568452
2230.7, 0.566483
2231.66, 0.564386
2232.63, 0.562226
2233.59, 0.559558
2234.55, 0.556890
2235.51, 0.553904
2236.48, 0.551299
2237.44, 0.548313
2238.41, 0.545518
2239.38, 0.541452
2240.34, 0.537323
2241.31, 0.533384
2242.28, 0.529509
2243.25, 0.524935
2244.22, 0.520170
2245.19, 0.515406
2246.17, 0.510514
2247.14, 0.505432
2248.12, 0.500286
2249.09, 0.495077
2250.07, 0.490121
2251.04, 0.485039
2252.02, 0.480592
2253.0, 0.476590
2253.98, 0.472842
2254.96, 0.469856
2255.94, 0.467061
2256.92, 0.464647
2257.91, 0.462995
2258.89, 0.461978
2259.88, 0.461724
2260.86, 0.461470
2261.85, 0.461534
2262.83, 0.462614
2263.82, 0.464265
2264.81, 0.465790
2265.8, 0.467696
2266.79, 0.469920
2267.78, 0.472778
2268.78, 0.475701
2269.77, 0.478242
2270.76, 0.481164
2271.76, 0.484277
2272.75, 0.486691
2273.75, 0.489232
2274.75, 0.491773
2275.75, 0.493806
2276.75, 0.495649
2277.75, 0.497999
2278.75, 0.499460
2279.75, 0.500604
2280.75, 0.501620
2281.76, 0.503335
2282.76, 0.504542
2283.77, 0.505241
2284.77, 0.505749
2285.78, 0.506575
2286.79, 0.507528
2287.8, 0.507782
2288.81, 0.508545
2289.82, 0.508799
2290.83, 0.508735
2291.84, 0.508735
2292.86, 0.508291
2293.87, 0.508164
2294.89, 0.507909
2295.91, 0.507592
2296.92, 0.507274
2297.94, 0.507020
2298.96, 0.506258
2299.98, 0.505241
2301.0, 0.504542
2302.02, 0.504161
2303.04, 0.503145
2304.07, 0.502383
2305.09, 0.501175
2306.12, 0.500223
2307.15, 0.499206
2308.17, 0.497999
2309.2, 0.496792
2310.23, 0.495649
2311.26, 0.494441
2312.29, 0.493616
2313.32, 0.492726
2314.35, 0.491519
2315.39, 0.490058
2316.42, 0.489105
2317.46, 0.488216
2318.5, 0.487326
2319.53, 0.486246
2320.57, 0.484785
2321.61, 0.483324
2322.65, 0.482562
2323.69, 0.481482
2324.73, 0.479893
2325.78, 0.478559
2326.82, 0.477797
2327.86, 0.476717
2328.91, 0.475383
2329.96, 0.473731
2331.01, 0.472334
2332.05, 0.471190
2333.1, 0.469983
2334.15, 0.468395
2335.21, 0.466870
2336.26, 0.465218
2337.31, 0.463567
2338.36, 0.461851
2339.42, 0.460263
2340.48, 0.458357
2341.53, 0.457277
2342.59, 0.455753
2343.65, 0.454101
2344.71, 0.452576
2345.77, 0.451052
2346.83, 0.449781
2347.9, 0.448320
2348.96, 0.446859
2350.02, 0.445969
2351.09, 0.445588
2352.16, 0.444889
2353.23, 0.444127
2354.29, 0.443936
2355.36, 0.443746
2356.43, 0.443746
2357.51, 0.443746
2358.58, 0.443682
2359.65, 0.443809
2360.73, 0.444127
2361.8, 0.444445
2362.88, 0.445016
2363.96, 0.445969
2365.03, 0.447240
2366.11, 0.448256
2367.19, 0.449527
2368.27, 0.451242
2369.36, 0.453339
2370.44, 0.454927
2371.53, 0.456452
2372.61, 0.458357
2373.7, 0.460962
2374.78, 0.463440
2375.87, 0.465917
2376.96, 0.468395
2378.05, 0.470999
2379.14, 0.473795
2380.24, 0.476781
2381.33, 0.479766
2382.42, 0.482117
2383.52, 0.484722
2384.61, 0.487263
2385.71, 0.489105
2386.81, 0.491329
2387.91, 0.493361
2389.01, 0.495394
2390.11, 0.497745
2391.22, 0.499778
2392.32, 0.501430
2393.42, 0.503208
2394.53, 0.504606
2395.64, 0.505749
2396.74, 0.507338
2397.85, 0.508481
2398.96, 0.508862
2400.07, 0.509371
2401.18, 0.510260
2402.3, 0.511213
2403.41, 0.511912
2404.52, 0.512420
2405.64, 0.512992
2406.76, 0.513627
2407.88, 0.514008
2408.99, 0.513818
2410.11, 0.513818
2411.23, 0.514199
2412.36, 0.514135
2413.48, 0.514389
2414.6, 0.514643
2415.73, 0.514834
2416.85, 0.514834
2417.98, 0.514771
2419.11, 0.514516
2420.24, 0.514262
2421.37, 0.514199
2422.5, 0.514326
2423.64, 0.514707
2424.77, 0.515088
2425.9, 0.515152
2427.04, 0.515215
2428.18, 0.514898
2429.31, 0.514834
2430.45, 0.514580
2431.59, 0.514643
2432.73, 0.514834
2433.88, 0.514453
2435.02, 0.514262
2436.16, 0.514199
2437.31, 0.514135
2438.45, 0.514008
2439.6, 0.514072
2440.75, 0.514008
2441.9, 0.514135
2443.05, 0.514072
2444.2, 0.513691
2445.35, 0.513627
2446.51, 0.513500
2447.67, 0.513564
2448.82, 0.513754
2449.98, 0.513373
2451.14, 0.512992
2452.3, 0.512674
2453.46, 0.512102
2454.62, 0.512039
2455.78, 0.511785
2456.94, 0.511149
2458.11, 0.510514
2459.28, 0.510006
2460.44, 0.509434
2461.61, 0.508799
2462.78, 0.507782
2463.95, 0.506639
2465.12, 0.505686
2466.3, 0.505114
2467.47, 0.504034
2468.65, 0.502954
2469.82, 0.501811
2471.0, 0.500667
2472.18, 0.499524
2473.36, 0.498888
2474.54, 0.497936
2475.72, 0.496665
2476.9, 0.495521
2478.08, 0.494759
2479.27, 0.493679
2480.46, 0.492536
2481.64, 0.491392
2482.83, 0.490630
2484.02, 0.489486
2485.21, 0.488343
2486.4, 0.487390
2487.6, 0.486500
2488.79, 0.485611
2489.99, 0.484277
2491.18, 0.483324
2492.38, 0.482180
2493.58, 0.481355
2494.78, 0.480656
2495.98, 0.479893
2497.18, 0.479068
2498.39, 0.478051
2499.59, 0.477543
2500.8, 0.477098
2502.01, 0.476209
2503.21, 0.475637
2504.42, 0.475319
2505.63, 0.474684
2506.84, 0.474239
2508.06, 0.473858
2509.27, 0.473477
2510.49, 0.472905
2511.7, 0.472524
2512.92, 0.472143
2514.14, 0.471762
2515.36, 0.471254
2516.58, 0.470809
2517.8, 0.470491
2519.03, 0.470301
2520.25, 0.470174
2521.48, 0.469792
2522.7, 0.468839
2523.93, 0.468331
2525.16, 0.468395
2526.39, 0.468014
2527.62, 0.467569
2528.86, 0.466934
2530.09, 0.466235
2531.33, 0.465917
2532.56, 0.465854
2533.8, 0.465727
2535.04, 0.464774
2536.28, 0.464011
2537.52, 0.463694
2538.76, 0.463440
2540.01, 0.462931
2541.25, 0.462550
2542.5, 0.461915
2543.75, 0.461597
2544.99, 0.461089
2546.24, 0.460263
2547.49, 0.459818
2548.75, 0.459374
2550.0, 0.458548
2551.26, 0.458040
2552.51, 0.457404
2553.77, 0.457087
2555.03, 0.456388
2556.29, 0.455689
2557.55, 0.454990
2558.81, 0.454419
2560.08, 0.454228
2561.34, 0.454482
2562.61, 0.454291
2563.88, 0.453593
2565.14, 0.452957
2566.41, 0.452068
2567.68, 0.451560
2568.96, 0.451496
2570.23, 0.451369
2571.51, 0.450607
2572.78, 0.450035
2574.06, 0.450226
2575.34, 0.449273
2576.62, 0.448828
2577.9, 0.448828
2579.18, 0.448383
2580.47, 0.447812
2581.75, 0.447621
2583.04, 0.447303
2584.32, 0.447875
2585.61, 0.447113
2586.9, 0.446478
2588.2, 0.446160
2589.49, 0.445779
2590.78, 0.445207
2592.08, 0.444254
2593.37, 0.443809
2594.67, 0.445270
2595.97, 0.446287
2597.27, 0.444953
2598.57, 0.443492
2599.88, 0.442666
2601.18, 0.442539
2602.49, 0.442412
2603.79, 0.441776
2605.1, 0.442030
2606.41, 0.442539
2607.72, 0.441903
2609.03, 0.441014
2610.35, 0.440569
2611.66, 0.440188
2612.98, 0.440188
2614.3, 0.439871
2615.62, 0.439362
2616.94, 0.439807
2618.26, 0.439426
2619.58, 0.438346
2620.91, 0.439235
2622.23, 0.438791
2623.56, 0.437838
2624.89, 0.437202
2626.22, 0.437139
2627.55, 0.437075
2628.88, 0.435741
2630.21, 0.435424
2631.55, 0.436122
2632.89, 0.434661
2634.22, 0.433454
2635.56, 0.432565
2636.9, 0.431929
2638.25, 0.430786
2639.59, 0.429579
2640.93, 0.428690
2642.28, 0.427737
2643.63, 0.426657
2644.98, 0.425450
2646.33, 0.424560
2647.68, 0.423353
2649.03, 0.421829
2650.39, 0.420367
2651.74, 0.418906
2653.1, 0.417953
2654.46, 0.416556
2655.82, 0.415349
2657.18, 0.414078
2658.54, 0.412363
2659.9, 0.411156
2661.27, 0.409949
2662.64, 0.408424
2664.01, 0.406772
2665.38, 0.406391
2666.74, 0.405819
2668.12, 0.404104
2669.49, 0.401944
2670.87, 0.402008
2672.24, 0.400165
2673.62, 0.397307
2675.0, 0.394956
2676.38, 0.393241
2677.76, 0.391525
2679.15, 0.389365
2680.54, 0.386824
2681.92, 0.383267
2683.31, 0.379963
2684.7, 0.376469
2686.09, 0.372658
2687.48, 0.368147
2688.88, 0.363001
2690.27, 0.356648
2691.67, 0.349279
2693.07, 0.341020
2694.47, 0.331745
2695.87, 0.321200
2697.27, 0.309574
2698.67, 0.296868
2700.08, 0.284988
2701.49, 0.274824
2702.9, 0.268344
2704.31, 0.266375
2705.72, 0.268662
2707.13, 0.272156
2708.54, 0.275523
2709.96, 0.277683
2711.38, 0.278191
2712.8, 0.276031
2714.22, 0.271647
2715.64, 0.265866
2717.06, 0.258878
2718.49, 0.250874
2719.91, 0.242170
2721.34, 0.232768
2722.77, 0.223112
2724.2, 0.213328
2725.63, 0.203799
2727.07, 0.194397
2728.5, 0.185503
2729.94, 0.177117
2731.38, 0.169557
2732.82, 0.162379
2734.26, 0.155899
2735.7, 0.149292
2737.15, 0.142558
2738.59, 0.135697
2740.04, 0.129217
2741.49, 0.123372
2742.94, 0.118099
2744.39, 0.113589
2745.84, 0.109968
2747.3, 0.106982
2748.76, 0.104949
2750.21, 0.103107
2751.67, 0.100883
2753.14, 0.0982780
2754.6, 0.0956740
2756.06, 0.0932600
2757.53, 0.0907190
2759.0, 0.0885590
2760.46, 0.0874790
2761.94, 0.0875420
2763.41, 0.0889400
2764.88, 0.0907190
2766.36, 0.0920530
2767.83, 0.0931330
2769.31, 0.0937680
2770.79, 0.0938310
2772.27, 0.0935140
2773.76, 0.0925610
2775.24, 0.0913540
2776.73, 0.0897020
2778.22, 0.0877330
2779.71, 0.0857000
2781.2, 0.0837940
2782.69, 0.0815070
2784.18, 0.0792200
2785.68, 0.0771870
2787.18, 0.0753450
2788.68, 0.0732480
2790.18, 0.0713420
2791.68, 0.0698180
2793.19, 0.0682930
2794.69, 0.0665140
2796.2, 0.0649260
2797.71, 0.0637190
2799.22, 0.0628300
2800.73, 0.0620040
2802.24, 0.0609870
2803.76, 0.0600980
2805.28, 0.0593360
2806.8, 0.0584460
2808.32, 0.0578110
2809.84, 0.0574300
2811.36, 0.0569210
2812.89, 0.0564130
2814.42, 0.0560320
2815.94, 0.0558410
2817.48, 0.0558410
2819.01, 0.0555240
2820.54, 0.0553970
2822.08, 0.0552700
2823.61, 0.0553330
2825.15, 0.0553330
2826.69, 0.0554600
2828.23, 0.0553970
2829.78, 0.0553330
2831.32, 0.0556510
2832.87, 0.0560320
2834.42, 0.0560960
2835.97, 0.0560960
2837.52, 0.0564770
2839.08, 0.0567940
2840.63, 0.0570480
2842.19, 0.0572390
2843.75, 0.0574930
2845.31, 0.0576840
2846.87, 0.0580010
2848.44, 0.0583190
2850.0, 0.0584460
2851.57, 0.0586370
2853.14, 0.0588270
2854.71, 0.0590180
2856.28, 0.0594630
2857.86, 0.0595900
2859.43, 0.0593990
2861.01, 0.0595260
2862.59, 0.0597800
2864.17, 0.0597800
2865.76, 0.0597170
2867.34, 0.0597800
2868.93, 0.0595900
2870.52, 0.0594630
2872.11, 0.0593990
2873.7, 0.0593360
2875.29, 0.0592080
2876.89, 0.0589540
2878.49, 0.0586370
2880.08, 0.0583190
2881.69, 0.0578740
2883.29, 0.0573660
2884.89, 0.0571120
2886.5, 0.0569850
2888.11, 0.0567310
2889.72, 0.0564770
2891.33, 0.0558410
2892.94, 0.0552700
2894.56, 0.0549520
2896.17, 0.0545070
2897.79, 0.0541260
2899.42, 0.0538720
2901.04, 0.0534270
2902.66, 0.0529190
2904.29, 0.0522840
2905.92, 0.0517760
2907.55, 0.0517120
2909.18, 0.0514580
2910.81, 0.0511400
2912.45, 0.0506320
2914.08, 0.0503140
2915.72, 0.0502510
2917.36, 0.0499970
2919.01, 0.0496160
2920.65, 0.0493620
2922.3, 0.0491070
2923.94, 0.0489170
2925.59, 0.0487260
2927.25, 0.0485360
2928.9, 0.0485360
2930.56, 0.0484720
2932.21, 0.0483450
2933.87, 0.0482180
2935.53, 0.0480910
2937.2, 0.0479000
2938.86, 0.0477730
2940.53, 0.0478370
2942.2, 0.0478370
2943.87, 0.0478370
2945.54, 0.0479640
2947.22, 0.0479000
2948.89, 0.0479000
2950.57, 0.0480910
2952.25, 0.0483450
2953.93, 0.0484090
2955.62, 0.0484720
2957.3, 0.0485360
2958.99, 0.0487900
2960.68, 0.0488530
2962.37, 0.0488530
2964.07, 0.0491710
2965.76, 0.0494890
2967.46, 0.0496160
2969.16, 0.0498700
2970.86, 0.0501240
2972.56, 0.0502510
2974.27, 0.0504420
2975.98, 0.0506960
2977.69, 0.0509500
2979.4, 0.0512670
2981.11, 0.0513940
2982.83, 0.0515850
2984.54, 0.0519030
2986.26, 0.0522200
2987.98, 0.0527290
2989.71, 0.0533000
2991.43, 0.0536810
2993.16, 0.0540630
2994.89, 0.0542530
2996.62, 0.0546340
2998.35, 0.0550790
3000.09, 0.0553330
3001.83, 0.0559690
3003.57, 0.0565400
3005.31, 0.0567940
3007.05, 0.0570480
3008.79, 0.0578110
3010.54, 0.0583190
3012.29, 0.0585730
3014.04, 0.0590180
3015.8, 0.0595260
3017.55, 0.0600980
3019.31, 0.0607330
3021.07, 0.0614320
3022.83, 0.0620670
3024.59, 0.0627030
3026.36, 0.0632110
3028.13, 0.0637830
3029.9, 0.0644180
3031.67, 0.0651170
3033.44, 0.0658790
3035.22, 0.0664510
3037.0, 0.0671500
3038.78, 0.0677850
3040.56, 0.0683570
3042.34, 0.0691190
3044.13, 0.0699450
3045.92, 0.0707070
3047.71, 0.0714690
3049.5, 0.0722320
3051.3, 0.0729940
3053.09, 0.0738200
3054.89, 0.0746460
3056.69, 0.0754080
3058.5, 0.0762340
3060.3, 0.0770600
3062.11, 0.0780130
3063.92, 0.0789020
3065.73, 0.0797280
3067.55, 0.0805540
3069.36, 0.0813160
3071.18, 0.0822060
3073.0, 0.0829680
3074.82, 0.0837940
3076.65, 0.0848100
3078.48, 0.0856360
3080.31, 0.0863990
3082.14, 0.0874150
3083.97, 0.0883040
3085.8, 0.0891940
3087.64, 0.0901470
3089.48, 0.0912270
3091.33, 0.0923070
3093.17, 0.0931960
3095.02, 0.0940220
3096.87, 0.0951020
3098.72, 0.0961820
3100.57, 0.0969440
3102.43, 0.0978340
3104.28, 0.0987870
3106.14, 0.0999940
3108.01, 0.101010
3109.87, 0.101963
3111.74, 0.103043
3113.61, 0.103996
3115.48, 0.105012
3117.35, 0.105965
3119.23, 0.106918
3121.1, 0.107998
3122.98, 0.109078
3124.87, 0.110095
3126.75, 0.111048
3128.64, 0.112191
3130.53, 0.113144
3132.42, 0.114224
3134.31, 0.115304
3136.21, 0.116193
3138.11, 0.117273
3140.01, 0.118480
3141.91, 0.119560
3143.82, 0.120640
3145.73, 0.121593
3147.64, 0.122673
3149.55, 0.123753
3151.46, 0.125024
3153.38, 0.126231
3155.3, 0.127120
3157.22, 0.128137
3159.14, 0.129344
3161.07, 0.130551
3163.0, 0.131758
3164.93, 0.132838
3166.86, 0.133981
3168.8, 0.135125
3170.74, 0.136205
3172.68, 0.137285
3174.62, 0.138492
3176.56, 0.139699
3178.51, 0.140715
3180.46, 0.141986
3182.42, 0.143257
3184.37, 0.144400
3186.33, 0.145607
3188.29, 0.146751
3190.25, 0.147767
3192.21, 0.149101
3194.18, 0.150372
3196.15, 0.151388
3198.12, 0.152405
3200.09, 0.153739
3202.07, 0.155136
3204.05, 0.156470
3206.03, 0.157614
3208.02, 0.158694
3210.0, 0.159837
3211.99, 0.160981
3213.98, 0.162252
3215.98, 0.163713
3217.97, 0.164856
3219.97, 0.165873
3221.97, 0.167143
3223.98, 0.168477
3225.98, 0.169621
3227.99, 0.170764
3230.0, 0.171908
3232.02, 0.173051
3234.03, 0.174322
3236.05, 0.175656
3238.07, 0.176672
3240.1, 0.177689
3242.12, 0.178896
3244.15, 0.180103
3246.18, 0.181501
3248.22, 0.182771
3250.25, 0.183788
3252.29, 0.184995
3254.33, 0.186138
3256.38, 0.187218
3258.43, 0.188362
3260.47, 0.189442
3262.53, 0.190585
3264.58, 0.191792
3266.64, 0.192999
3268.7, 0.194143
3270.76, 0.195159
3272.82, 0.196239
3274.89, 0.197510
3276.96, 0.198590
3279.04, 0.199797
3281.11, 0.200877
3283.19, 0.201893
3285.27, 0.202973
3287.35, 0.204180
3289.44, 0.205387
3291.53, 0.206531
3293.62, 0.207611
3295.71, 0.208500
3297.81, 0.209580
3299.91, 0.210851
3302.01, 0.211931
3304.11, 0.213011
3306.22, 0.214154
3308.33, 0.215234
3310.44, 0.216441
3312.56, 0.217712
3314.68, 0.218792
3316.8, 0.219808
3318.92, 0.220952
3321.05, 0.222095
3323.18, 0.223239
3325.31, 0.224319
3327.44, 0.225335
3329.58, 0.226415
3331.72, 0.227559
3333.86, 0.228639
3336.01, 0.229719
3338.16, 0.230672
3340.31, 0.231561
3342.46, 0.232577
3344.61, 0.233657
3346.77, 0.234547
3348.94, 0.235563
3351.1, 0.236516
3353.27, 0.237469
3355.44, 0.238486
3357.61, 0.239502
3359.79, 0.240328
3361.97, 0.241027
3364.15, 0.241916
3366.33, 0.243060
3368.52, 0.243885
3370.71, 0.244711
3372.9, 0.245664
3375.1, 0.246554
3377.3, 0.247443
3379.5, 0.248460
3381.71, 0.249603
3383.91, 0.250683
3386.12, 0.251699
3388.34, 0.252525
3390.55, 0.253478
3392.77, 0.254431
3394.99, 0.255257
3397.22, 0.256146
3399.45, 0.257036
3401.68, 0.257735
3403.91, 0.258497
3406.15, 0.259450
3408.39, 0.260212
3410.63, 0.261102
3412.87, 0.261991
3415.12, 0.262817
3417.37, 0.263770
3419.63, 0.264913
3421.88, 0.265866
3424.14, 0.266756
3426.41, 0.267582
3428.67, 0.268725
3430.94, 0.269869
3433.21, 0.270822
3435.49, 0.271774
3437.77, 0.272664
3440.05, 0.273617
3442.33, 0.274570
3444.62, 0.275459
3446.91, 0.276221
3449.2, 0.277047
3451.5, 0.277873
3453.8, 0.278699
3456.1, 0.279588
3458.41, 0.280478
3460.72, 0.281431
3463.03, 0.282193
3465.34, 0.282892
3467.66, 0.283718
3469.98, 0.284417
3472.31, 0.285242
3474.63, 0.286068
3476.96, 0.286831
3479.3, 0.287593
3481.64, 0.288546
3483.97, 0.289245
3486.32, 0.289944
3488.66, 0.290769
3491.01, 0.291468
3493.36, 0.292167
3495.72, 0.292929
3498.08, 0.293692
3500.44, 0.294518
3502.81, 0.295343
3505.18, 0.296169
3507.55, 0.296995
3509.92, 0.297948
3512.3, 0.298965
3514.68, 0.299727
3517.06, 0.300553
3519.45, 0.301506
3521.84, 0.302459
3524.24, 0.303285
3526.64, 0.304237
3529.04, 0.305127
3531.44, 0.306016
3533.85, 0.306842
3536.26, 0.307795
3538.67, 0.308748
3541.09, 0.309574
3543.51, 0.310463
3545.93, 0.311416
3548.36, 0.312306
3550.79, 0.313068
3553.22, 0.313957
3555.66, 0.315164
3558.1, 0.316181
3560.54, 0.317134
3562.99, 0.318214
3565.44, 0.319484
3567.9, 0.320501
3570.35, 0.321581
3572.81, 0.322851
3575.28, 0.324058
3577.75, 0.325202
3580.22, 0.326345
3582.69, 0.327489
3585.17, 0.328823
3587.65, 0.329903
3590.14, 0.330983
3592.62, 0.332126
3595.11, 0.333206
3597.61, 0.334223
3600.11, 0.335239
3602.61, 0.336319
3605.11, 0.337463
3607.62, 0.338543
3610.14, 0.339623
3612.65, 0.340703
3615.17, 0.341592
3617.69, 0.342482
3620.22, 0.343434
3622.75, 0.344387
3625.28, 0.345340
3627.82, 0.346293
3630.36, 0.347056
3632.9, 0.347945
3635.45, 0.348771
3638.0, 0.349787
3640.56, 0.350677
3643.12, 0.351503
3645.68, 0.352265
3648.24, 0.352964
3650.81, 0.353853
3653.39, 0.354742
3655.96, 0.355568
3658.54, 0.356394
3661.13, 0.357220
3663.71, 0.357855
3666.3, 0.358681
3668.9, 0.359571
3671.5, 0.360333
3674.1, 0.360968
3676.7, 0.361667
3679.31, 0.362557
3681.93, 0.363446
3684.54, 0.363954
3687.17, 0.364716
3689.79, 0.365415
3692.42, 0.366051
3695.05, 0.366622
3697.69, 0.367194
3700.32, 0.367893
3702.97, 0.368719
3705.61, 0.369354
3708.27, 0.369989
3710.92, 0.370688
3713.58, 0.371323
3716.24, 0.371895
3718.91, 0.372530
3721.58, 0.373229
3724.25, 0.373801
3726.93, 0.374309
3729.61, 0.374945
3732.29, 0.375580
3734.98, 0.376152
3737.67, 0.376660
3740.37, 0.377295
3743.07, 0.377994
3745.78, 0.378693
3748.49, 0.379519
3751.2, 0.380154
3753.91, 0.380662
3756.63, 0.381234
3759.36, 0.381933
3762.09, 0.382695
3764.82, 0.383330
3767.55, 0.384029
3770.29, 0.384664
3773.04, 0.385236
3775.78, 0.385617
3778.54, 0.386126
3781.29, 0.386634
3784.05, 0.387269
3786.82, 0.387777
3789.59, 0.388349
3792.36, 0.388857
3795.13, 0.389365
3797.92, 0.389874
3800.7, 0.390382
3803.49, 0.390890
3806.28, 0.391462
3809.08, 0.391843
3811.88, 0.392288
3814.68, 0.392733
3817.49, 0.393177
3820.31, 0.393749
3823.12, 0.394257
3825.94, 0.394702
3828.77, 0.395210
3831.6, 0.395782
3834.43, 0.396354
3837.27, 0.396798
3840.11, 0.397307
3842.96, 0.397878
3845.81, 0.398387
3848.67, 0.398831
3851.53, 0.399276
3854.39, 0.399848
3857.26, 0.400356
3860.13, 0.400801
3863.01, 0.401372
3865.89, 0.401817
3868.77, 0.402262
3871.66, 0.402770
3874.55, 0.403215
3877.45, 0.403786
3880.35, 0.404358
3883.26, 0.404866
3886.17, 0.405375
3889.09, 0.405819
3892.01, 0.406137
3894.93, 0.406582
3897.86, 0.407153
3900.79, 0.407535
3903.73, 0.407789
3906.67, 0.408106
3909.62, 0.408551
3912.57, 0.408932
3915.52, 0.409186
3918.48, 0.409377
3921.45, 0.409631
3924.42, 0.409949
3927.39, 0.410266
3930.37, 0.410520
3933.35, 0.410711
3936.34, 0.410775
3939.33, 0.411092
3942.32, 0.411219
3945.32, 0.411537
3948.33, 0.411855
3951.34, 0.411982
3954.35, 0.412109
3957.37, 0.412236
3960.39, 0.412363
3963.42, 0.412617
3966.45, 0.412807
3969.49, 0.412998
3972.53, 0.413252
3975.58, 0.413379
3978.63, 0.413379
3981.68, 0.413570
3984.75, 0.413633
3987.81, 0.413760
3990.88, 0.414015
3993.95, 0.414269
3997.03, 0.414332
4000.12, 0.414523
4003.21, 0.414586
4006.3, 0.414650
4009.4, 0.414713
4012.5, 0.414904
4015.61, 0.415031
4018.72, 0.415222
4021.84, 0.415412
4024.96, 0.415476
4028.09, 0.415539
4031.22, 0.415603
4034.36, 0.415603
4037.5, 0.415603
4040.65, 0.415730
4043.8, 0.415793
4046.96, 0.415857
4050.12, 0.415984
4053.29, 0.415984
4056.46, 0.415984
4059.64, 0.416111
4062.82, 0.416174
4066.0, 0.416174
4069.19, 0.416238
4072.39, 0.416238
4075.59, 0.416111
4078.8, 0.415920
4082.01, 0.415920
4085.23, 0.415920
4088.45, 0.415730
4091.68, 0.415603
4094.91, 0.415603
4098.15, 0.415412
4101.39, 0.415349
4104.63, 0.415158
4107.89, 0.415031
4111.14, 0.414967
4114.41, 0.414904
4117.67, 0.414650
4120.95, 0.414332
4124.23, 0.414205
4127.51, 0.414142
4130.8, 0.413951
4134.09, 0.413697
4137.39, 0.413506
4140.7, 0.413379
4144.01, 0.413189
4147.32, 0.412871
4150.64, 0.412490
4153.97, 0.412236
4157.3, 0.412045
4160.64, 0.411855
4163.98, 0.411600
4167.33, 0.411219
4170.68, 0.410902
4174.04, 0.410584
4177.4, 0.410266
4180.77, 0.410012
4184.14, 0.409631
4187.52, 0.409123
4190.91, 0.408805
4194.3, 0.408424
4197.69, 0.408043
4201.1, 0.407725
4204.5, 0.407408
4207.92, 0.406963
4211.34, 0.406455
4214.76, 0.406010
4218.19, 0.405756
4221.62, 0.405502
4225.06, 0.405121
4228.51, 0.404739
4231.96, 0.404358
4235.42, 0.403913
4238.88, 0.403405
4242.35, 0.403024
4245.83, 0.402516
4249.31, 0.402135
4252.79, 0.401626
4256.28, 0.401118
4259.78, 0.400483
4263.29, 0.399911
4266.79, 0.399467
4270.31, 0.398958
4273.83, 0.398514
4277.35, 0.398005
4280.89, 0.397497
4284.42, 0.397052
4287.97, 0.396544
4291.52, 0.395909
4295.07, 0.395210
4298.63, 0.394638
4302.2, 0.394003
4305.78, 0.393431
4309.35, 0.392860
4312.94, 0.392288
4316.53, 0.391525
4320.13, 0.390890
4323.73, 0.390255
4327.34, 0.389683
4330.96, 0.388921
4334.58, 0.388158
4338.21, 0.387587
4341.84, 0.386824
4345.48, 0.385998
4349.12, 0.385363
4352.77, 0.384474
4356.43, 0.383648
4360.1, 0.383013
4363.76, 0.382250
4367.44, 0.381424
4371.12, 0.380599
4374.81, 0.379709
4378.51, 0.378883
4382.21, 0.378121
4385.92, 0.377295
4389.63, 0.376533
4393.35, 0.375707
4397.08, 0.374690
4400.81, 0.373865
4404.55, 0.373102
4408.29, 0.372340
4412.04, 0.371578
4415.8, 0.370625
4419.57, 0.369672
4423.34, 0.368719
4427.12, 0.367829
4430.9, 0.367004
4434.69, 0.365987
4438.49, 0.365161
4442.29, 0.364272
4446.1, 0.363319
4449.92, 0.362302
4453.74, 0.361286
4457.57, 0.360206
4461.41, 0.359062
4465.25, 0.358046
4469.1, 0.357030
4472.95, 0.355950
4476.82, 0.354870
4480.69, 0.353853
4484.56, 0.352710
4488.44, 0.351439
4492.33, 0.350296
4496.23, 0.349216
4500.13, 0.348009
4504.04, 0.346738
4507.96, 0.345658
4511.88, 0.344387
4515.81, 0.343180
4519.75, 0.341846
4523.69, 0.340449
4527.65, 0.339051
4531.6, 0.337717
4535.57, 0.336446
4539.54, 0.335049
4543.52, 0.333461
4547.5, 0.332063
4551.5, 0.330348
4555.5, 0.328759
4559.5, 0.327298
4563.52, 0.325710
4567.54, 0.323995
4571.56, 0.322407
4575.6, 0.320755
4579.64, 0.319040
4583.69, 0.317324
4587.75, 0.315545
4591.81, 0.313703
4595.88, 0.311924
4599.96, 0.310209
4604.04, 0.308494
4608.14, 0.306652
4612.24, 0.304936
4616.34, 0.303285
4620.46, 0.301760
4624.58, 0.300235
4628.71, 0.298774
4632.84, 0.297376
4636.99, 0.296106
4641.14, 0.294645
4645.3, 0.293311
4649.47, 0.291976
4653.64, 0.290833
4657.82, 0.289435
4662.01, 0.288101
4666.21, 0.286767
4670.41, 0.285497
4674.62, 0.284035
4678.84, 0.282574
4683.07, 0.281304
4687.3, 0.279970
4691.54, 0.278572
4695.79, 0.277174
4700.05, 0.275713
4704.31, 0.274316
4708.59, 0.272981
4712.87, 0.271584
4717.15, 0.269996
4721.45, 0.268471
4725.76, 0.266883
4730.07, 0.265422
4734.39, 0.263833
4738.72, 0.262309
4743.05, 0.260657
4747.39, 0.259069
4751.75, 0.257353
4756.1, 0.255702
4760.47, 0.253986
4764.85, 0.252335
4769.23, 0.250810
4773.62, 0.249095
4778.02, 0.247507
4782.43, 0.245982
4786.85, 0.244521
4791.27, 0.242933
4795.7, 0.241535
4800.14, 0.240201
4804.59, 0.238867
4809.05, 0.237660
4813.51, 0.236389
4817.99, 0.235246
4822.47, 0.234039
4826.96, 0.232895
4831.46, 0.231688
4835.96, 0.230481
4840.48, 0.229337
4845.0, 0.228258
4849.54, 0.227114
4854.08, 0.225907
4858.63, 0.224827
4863.18, 0.223811
4867.75, 0.222731
4872.33, 0.221587
4876.91, 0.220507
4881.5, 0.219300
4886.1, 0.218156
4890.71, 0.217076
4895.33, 0.215997
4899.96, 0.214853
4904.59, 0.213773
4909.24, 0.212630
4913.89, 0.211359
4918.55, 0.210215
4923.22, 0.209199
4927.9, 0.208055
4932.59, 0.206912
4937.29, 0.205832
4942.0, 0.204752
4946.71, 0.203672
4951.44, 0.202592
4956.17, 0.201576
4960.91, 0.200623
4965.67, 0.199606
4970.43, 0.198653
4975.2, 0.197764
4979.98, 0.197002
4984.76, 0.196239
4989.56, 0.195731
4994.37, 0.195096
4999.18, 0.194524
5004.01, 0.194016
5008.84, 0.193571
5013.69, 0.193126
5018.54, 0.192745
5023.4, 0.192427
5028.28, 0.192046
5033.16, 0.191665
5038.05, 0.191411
5042.95, 0.191157
5047.86, 0.190903
5052.78, 0.190649
5057.71, 0.190331
5062.65, 0.190077
5067.6, 0.189696
5072.56, 0.189315
5077.53, 0.188933
5082.5, 0.188616
5087.49, 0.188298
5092.49, 0.188044
5097.5, 0.187790
5102.51, 0.187472
5107.54, 0.187155
5112.58, 0.186837
5117.62, 0.186456
5122.68, 0.186138
5127.75, 0.185884
5132.82, 0.185439
5137.91, 0.185122
5143.01, 0.184931
5148.12, 0.184741
5153.23, 0.184486
5158.36, 0.184359
5163.5, 0.184105
5168.65, 0.183661
5173.81, 0.183470
5178.98, 0.183470
5184.15, 0.183216
5189.34, 0.183089
5194.54, 0.182898
5199.75, 0.182708
5204.98, 0.182581
5210.21, 0.182390
5215.45, 0.182199
5220.7, 0.182009
5225.96, 0.181691
5231.23, 0.181374
5236.52, 0.181056
5241.81, 0.180802
5247.12, 0.180421
5252.44, 0.180167
5257.76, 0.179976
5263.1, 0.179658
5268.45, 0.179341
5273.81, 0.179087
5279.18, 0.178769
5284.56, 0.178515
5289.95, 0.178261
5295.36, 0.178070
5300.77, 0.177816
5306.2, 0.177689
5311.63, 0.177498
5317.08, 0.177244
5322.54, 0.177054
5328.01, 0.176863
5333.49, 0.176609
5338.98, 0.176545
5344.49, 0.176418
5350.0, 0.176482
5355.53, 0.176482
5361.07, 0.176355
5366.62, 0.176291
5372.18, 0.176291
5377.75, 0.176291
5383.34, 0.176291
5388.93, 0.176418
5394.54, 0.176609
5400.16, 0.176609
5405.79, 0.176545
5411.44, 0.176609
5417.09, 0.176672
5422.76, 0.176863
5428.43, 0.176799
5434.12, 0.176545
5439.83, 0.176291
5445.54, 0.176101
5451.26, 0.175910
5457.0, 0.175720
5462.75, 0.175465
5468.52, 0.175211
5474.29, 0.174767
5480.08, 0.174322
5485.88, 0.173941
5491.69, 0.173433
5497.51, 0.172924
5503.35, 0.172416
5509.2, 0.171908
5515.06, 0.171336
5520.93, 0.170637
5526.82, 0.170065
5532.71, 0.169430
5538.63, 0.168795
5544.55, 0.168096
5550.49, 0.167461
5556.44, 0.166826
5562.4, 0.166190
5568.37, 0.165491
5574.36, 0.164920
5580.36, 0.164602
5586.37, 0.163840
5592.4, 0.163014
5598.44, 0.162569
5604.49, 0.162124
5610.56, 0.161616
5616.63, 0.161172
5622.73, 0.160790
5628.83, 0.160409
5634.95, 0.160092
5641.08, 0.159901
5647.23, 0.159647
5653.39, 0.159202
5659.56, 0.158884
5665.74, 0.158567
5671.94, 0.158376
5678.15, 0.158122
5684.38, 0.157677
5690.62, 0.157360
5696.87, 0.157042
5703.14, 0.156597
5709.42, 0.156280
5715.72, 0.155899
5722.03, 0.155327
5728.35, 0.154692
5734.69, 0.154247
5741.03, 0.153612
5747.4, 0.152976
5753.78, 0.152214
5760.17, 0.151198
5766.58, 0.150626
5773.0, 0.149800
5779.44, 0.148720
5785.88, 0.147767
5792.35, 0.146751
5798.83, 0.145671
5805.32, 0.144718
5811.83, 0.143765
5818.35, 0.142875
5824.89, 0.142177
5831.45, 0.141097
5838.01, 0.140080
5844.59, 0.139254
5851.19, 0.138428
5857.8, 0.137602
5864.43, 0.136840
5871.07, 0.136014
5877.73, 0.135506
5884.4, 0.135125
5891.09, 0.134299
5897.79, 0.133791
5904.5, 0.133092
5911.23, 0.132266
5917.98, 0.131631
5924.75, 0.131059
5931.53, 0.130487
5938.32, 0.130233
5945.13, 0.129598
5951.96, 0.128772
5958.8, 0.128264
5965.65, 0.127883
5972.53, 0.127374
5979.42, 0.126676
5986.32, 0.126294
5993.24, 0.125977
6000.18, 0.125596
6007.13, 0.125087
6014.1, 0.124579
6021.08, 0.124071
6028.09, 0.123626
6035.1, 0.123118
6042.14, 0.122673
6049.19, 0.122546
6056.25, 0.121974
6063.34, 0.121085
6070.44, 0.120640
6077.55, 0.120196
6084.69, 0.119624
6091.84, 0.118989
6099.0, 0.118607
6106.19, 0.118099
6113.39, 0.117909
6120.61, 0.117591
6127.84, 0.116956
6135.09, 0.116511
6142.36, 0.116257
6149.65, 0.115876
6156.95, 0.115558
6164.27, 0.115304
6171.61, 0.114923
6178.97, 0.114669
6186.34, 0.114732
6193.73, 0.114669
6201.14, 0.114415
6208.57, 0.114288
6216.01, 0.114288
6223.47, 0.114224
6230.95, 0.114288
6238.45, 0.114415
6245.97, 0.114415
6253.5, 0.114542
6261.06, 0.114732
6268.63, 0.114986
6276.21, 0.115113
6283.82, 0.115368
6291.45, 0.115749
6299.1, 0.116130
6306.76, 0.116511
6314.44, 0.116956
6322.14, 0.117400
6329.86, 0.117972
6337.6, 0.118480
6345.35, 0.119243
6353.13, 0.119751
6360.92, 0.120069
6368.74, 0.120704
6376.57, 0.121466
6384.43, 0.122102
6392.3, 0.122927
6400.19, 0.123499
6408.1, 0.124262
6416.03, 0.125469
6423.98, 0.125913
6431.95, 0.126294
6439.94, 0.126930
6447.95, 0.127565
6455.98, 0.128391
6464.03, 0.129026
6472.1, 0.129788
6480.19, 0.130487
6488.31, 0.131313
6496.44, 0.132203
6504.59, 0.132647
6512.76, 0.133028
6520.95, 0.133918
6529.16, 0.134553
6537.4, 0.134998
6545.65, 0.135570
6553.92, 0.136395
6562.22, 0.136967
6570.54, 0.137730
6578.88, 0.138492
6587.23, 0.139000
6595.61, 0.139635
6604.02, 0.140207
6612.44, 0.140715
6620.89, 0.141224
6629.35, 0.141732
6637.84, 0.142558
6646.35, 0.143066
6654.88, 0.143193
6663.44, 0.143574
6672.01, 0.144019
6680.61, 0.144527
6689.23, 0.145035
6697.88, 0.145289
6706.54, 0.145671
6715.23, 0.146052
6723.94, 0.146369
6732.67, 0.146624
6741.42, 0.147005
6750.2, 0.147195
6759.0, 0.147386
6767.82, 0.147640
6776.67, 0.147958
6785.54, 0.148148
6794.44, 0.148275
6803.35, 0.148275
6812.29, 0.148275
6821.26, 0.148275
6830.24, 0.148529
6839.25, 0.148529
6848.29, 0.148402
6857.35, 0.148529
6866.43, 0.148783
6875.54, 0.148339
6884.67, 0.147894
6893.82, 0.147831
6903.0, 0.147703
6912.2, 0.147513
6921.43, 0.147068
6930.69, 0.146624
6939.96, 0.146306
6949.27, 0.145988
6958.59, 0.145798
6967.95, 0.145416
6977.33, 0.144908
6986.73, 0.144400
6996.16, 0.144019
7005.61, 0.143765
7015.09, 0.143574
7024.6, 0.143320
7034.13, 0.143129
7043.69, 0.143129
7053.27, 0.143066
7062.88, 0.142939
7072.52, 0.142939
7082.18, 0.142939
7091.87, 0.142939
7101.58, 0.143002
7111.32, 0.143002
7121.09, 0.142812
7130.88, 0.142685
7140.71, 0.142621
7150.56, 0.142494
7160.43, 0.142113
7170.33, 0.141732
7180.27, 0.141224
7190.23, 0.140779
7200.21, 0.140461
7210.23, 0.140080
7220.27, 0.139445
7230.34, 0.138810
7240.44, 0.138238
7250.56, 0.137602
7260.72, 0.136967
7270.9, 0.136459
7281.12, 0.135951
7291.36, 0.135188
7301.63, 0.134426
7311.93, 0.133791
7322.25, 0.133219
7332.61, 0.132647
7343.0, 0.132076
7353.41, 0.131440
7363.86, 0.130741
7374.33, 0.129979
7384.83, 0.129280
7395.37, 0.128518
7405.93, 0.127819
7416.53, 0.127184
7427.15, 0.126358
7437.81, 0.125596
7448.5, 0.125024
7459.22, 0.124452
7469.96, 0.123690
7480.74, 0.122991
7491.55, 0.122292
7502.39, 0.121466
7513.27, 0.120704
7524.17, 0.120132
7535.11, 0.119433
7546.08, 0.118607
7557.08, 0.117845
7568.11, 0.117146
7579.17, 0.116448
7590.27, 0.115749
7601.4, 0.115113
7612.56, 0.114478
7623.76, 0.113970
7634.98, 0.113398
7646.24, 0.112699
7657.54, 0.112001
7668.87, 0.111238
7680.23, 0.110603
7691.62, 0.110031
7703.05, 0.109269
7714.51, 0.108761
7726.01, 0.108125
7737.54, 0.107363
7749.11, 0.106728
7760.71, 0.106219
7772.35, 0.105457
7784.02, 0.104758
7795.72, 0.104123
7807.46, 0.103424
7819.23, 0.102598
7831.04, 0.101963
7842.89, 0.101328
7854.77, 0.100629
7866.69, 0.0999300
7878.65, 0.0991680
7890.64, 0.0984050
7902.67, 0.0978340
7914.74, 0.0970080
7926.84, 0.0961820
7938.98, 0.0955470
7951.16, 0.0946570
7963.37, 0.0936410
7975.62, 0.0927510
7987.91, 0.0917990
8000.24, 0.0908460
8012.6, 0.0898290
8025.01, 0.0888760
8037.45, 0.0878600
8049.93, 0.0867800
8062.45, 0.0858900
8075.01, 0.0851280
8087.61, 0.0841120
8100.24, 0.0829050
8112.91, 0.0816980
8125.63, 0.0804270
8138.39, 0.0792200
8151.18, 0.0780760
8164.02, 0.0769330
8176.9, 0.0756620
8189.81, 0.0742650
8202.77, 0.0729310
8215.77, 0.0715960
8228.82, 0.0700080
8241.9, 0.0684200
8255.02, 0.0669590
8268.19, 0.0655610
8281.39, 0.0641000
8294.65, 0.0625750
8307.94, 0.0609870
8321.28, 0.0593990
8334.66, 0.0580010
8348.08, 0.0565400
8361.54, 0.0548890
8375.05, 0.0533000
8388.6, 0.0517760
8402.2, 0.0502510
8415.84, 0.0486630
8429.52, 0.0470750
8443.25, 0.0454230
8457.02, 0.0438980
8470.84, 0.0424370
8484.7, 0.0408490
8498.61, 0.0393880
8512.57, 0.0379900
8526.57, 0.0365290
8540.62, 0.0348140
8554.71, 0.0331620
8568.85, 0.0317010
8583.04, 0.0302400
8597.27, 0.0284610
8611.55, 0.0268090
8625.88, 0.0253480
8640.26, 0.0242680
8654.68, 0.0234420
8669.16, 0.0226800
8683.68, 0.0219170
8698.25, 0.0210910
8712.87, 0.0202020
8727.53, 0.0195030
8742.25, 0.0188680
8757.02, 0.0182960
8771.83, 0.0176610
8786.7, 0.0173430
8801.62, 0.0167710
8816.59, 0.0163900
8831.61, 0.0162630
8846.68, 0.0162630
8861.8, 0.0161360
8876.97, 0.0161360
8892.2, 0.0162630
8907.48, 0.0165810
8922.81, 0.0170260
8938.2, 0.0174700
8953.63, 0.0181690
8969.13, 0.0193130
8984.67, 0.0205830
9000.27, 0.0220440
9015.92, 0.0240770
9031.63, 0.0266180
9047.39, 0.0294770
9063.21, 0.0325900
9079.08, 0.0357030
9095.01, 0.0393880
9111.0, 0.0433900
9127.04, 0.0475830
9143.13, 0.0519660
9159.28, 0.0561590
9175.49, 0.0606060
9191.76, 0.0653710
9208.09, 0.0701350
9224.47, 0.0752810
9240.92, 0.0806810
9257.42, 0.0867160
9273.98, 0.0931330
9290.6, 0.0995490
9307.28, 0.106283
9324.02, 0.113081
9340.82, 0.119751
9357.68, 0.126167
9374.6, 0.132139
9391.58, 0.137221
9408.62, 0.141541
9425.73, 0.145226
9442.9, 0.148021
9460.13, 0.149736
9477.42, 0.150816
9494.78, 0.151515
9512.2, 0.152150
9529.69, 0.152532
9547.24, 0.152913
9564.86, 0.153675
9582.54, 0.154183
9600.28, 0.154946
9618.1, 0.156280
9635.97, 0.157932
9653.92, 0.159520
9671.93, 0.161108
9690.01, 0.162823
9708.16, 0.164539
9726.37, 0.166127
9744.65, 0.167778
9763.0, 0.169557
9781.43, 0.171018
9799.92, 0.171971
9818.48, 0.172289
9837.1, 0.172225
9855.8, 0.172098
9874.58, 0.171844
9893.42, 0.171400
9912.34, 0.170764
9931.33, 0.170002
9950.39, 0.168922
9969.52, 0.167651
9988.74, 0.165809
10008.0, 0.163331
10027.4, 0.160536
10046.8, 0.157614
10066.3, 0.154247
10085.9, 0.150308
10105.6, 0.146242
10125.3, 0.142367
10145.1, 0.138682
10165.0, 0.135188
10185.0, 0.131694
10205.0, 0.128391
10225.2, 0.125469
10245.4, 0.122991
10265.7, 0.120704
10286.0, 0.118544
10306.5, 0.116511
10327.0, 0.114415
10347.6, 0.112509
10368.3, 0.110730
10389.1, 0.108697
10409.9, 0.105965
10430.9, 0.102980
10451.9, 0.0999940
10473.0, 0.0971350
10494.2, 0.0943400
10515.5, 0.0913540
10536.9, 0.0886860
10558.4, 0.0865260
10579.9, 0.0843020
10601.5, 0.0821420
10623.3, 0.0801730
10645.1, 0.0780130
10667.0, 0.0759800
10689.0, 0.0740110
10711.1, 0.0719140
10733.2, 0.0699450
10755.5, 0.0682290
10777.9, 0.0664510
10800.3, 0.0646080
10822.9, 0.0631470
10845.5, 0.0619400
10868.2, 0.0606060
10891.1, 0.0595260
10914.0, 0.0582560
10937.0, 0.0571120
10960.2, 0.0560320
10983.4, 0.0549520
11006.7, 0.0539990
11030.1, 0.0531100
11053.6, 0.0520930
11077.3, 0.0513310
11101.0, 0.0505050
11124.8, 0.0496160
11148.7, 0.0489800
11172.7, 0.0482180
11196.9, 0.0474560
11221.1, 0.0468200
11245.4, 0.0462490
11269.9, 0.0455500
11294.4, 0.0447240
11319.1, 0.0438350
11343.9, 0.0431990
11368.8, 0.0425640
11393.7, 0.0418020
11418.8, 0.0409120
11444.0, 0.0402130
11469.4, 0.0397050
11494.8, 0.0391970
11520.3, 0.0381810
11546.0, 0.0372910
11571.8, 0.0368460
11597.7, 0.0362110
11623.7, 0.0356390
11649.8, 0.0348770
11676.0, 0.0341150
11702.4, 0.0338610
11728.9, 0.0332250
11755.5, 0.0321450
11782.2, 0.0313830
11809.0, 0.0305570
11836.0, 0.0299220
11863.0, 0.0292870
11890.3, 0.0285880
11917.6, 0.0280160
11945.0, 0.0273170
11972.6, 0.0268730
12000.4, 0.0266820
12028.2, 0.0266180
12056.2, 0.0268730
12084.3, 0.0273810
12112.5, 0.0276350
12140.9, 0.0278250
12169.4, 0.0283340
12198.0, 0.0283970
12226.8, 0.0287780
12255.7, 0.0297310
12284.7, 0.0305570
12313.9, 0.0307480
12343.2, 0.0309380
12372.7, 0.0313190
12402.3, 0.0318280
12432.0, 0.0320180
12461.9, 0.0322090
12491.9, 0.0325900
12522.1, 0.0326540
12552.4, 0.0326540
12582.9, 0.0325900
12613.5, 0.0323990
12644.3, 0.0323990
12675.2, 0.0324630
12706.3, 0.0326540
12737.5, 0.0327810
12768.9, 0.0329710
12800.4, 0.0333520
12832.1, 0.0337970
12863.9, 0.0337340
12895.9, 0.0342420
12928.1, 0.0348770
12960.4, 0.0349410
12992.9, 0.0350680
13025.5, 0.0356390
13058.3, 0.0363380
13091.3, 0.0367830
13124.4, 0.0371640
13157.8, 0.0379260
13191.2, 0.0384350
13224.9, 0.0388160
13258.7, 0.0390060
13292.7, 0.0395150
13326.9, 0.0397690
13361.2, 0.0398960
13395.7, 0.0400860
13430.4, 0.0400230
13465.3, 0.0395780
13500.4, 0.0389430
13535.7, 0.0384350
13571.1, 0.0379260
13606.7, 0.0369740
13642.5, 0.0363380
13678.5, 0.0361480
13714.7, 0.0359570
13751.1, 0.0351310
13787.6, 0.0343050
13824.4, 0.0339880
13861.4, 0.0337970
13898.5, 0.0336700
13935.9, 0.0332890
13973.5, 0.0329710
14011.2, 0.0327170
14049.2, 0.0322720
14087.4, 0.0318910
14125.8, 0.0313830
14164.3, 0.0310650
14203.2, 0.0310020
14242.2, 0.0311290
14281.4, 0.0309380
14320.9, 0.0310020
14360.5, 0.0308110
14400.4, 0.0310020
14440.5, 0.0313190
14480.9, 0.0317640
14521.4, 0.0330350
14562.2, 0.0343050
14603.3, 0.0351310
14644.5, 0.0364650
14686.0, 0.0381810
14727.7, 0.0396420
14769.7, 0.0409760
14811.9, 0.0421830
14854.3, 0.0432630
14897.0, 0.0445330
14939.9, 0.0455500
14983.1, 0.0465030
15026.5, 0.0470110
15070.2, 0.0469470
15114.2, 0.0470110
15158.3, 0.0467570
15202.8, 0.0463760
15247.5, 0.0460580
15292.5, 0.0454230
15337.7, 0.0449780
15383.2, 0.0442160
15429.0, 0.0428820
15475.1, 0.0419290
15521.4, 0.0418650
15568.0, 0.0414840
15614.9, 0.0402770
15662.1, 0.0389430
15709.6, 0.0383080
15757.3, 0.0376720
15805.4, 0.0367190
15853.7, 0.0359570
15902.3, 0.0357030
15951.2, 0.0351950
16000.5, 0.0344320
16050.0, 0.0337340
16099.8, 0.0332890
16150.0, 0.0330350
16200.5, 0.0322090
16251.3, 0.0317640
16302.4, 0.0308750
16353.8, 0.0298580
16405.5, 0.0297950
16457.6, 0.0292870
16510.0, 0.0282070
16562.8, 0.0270630
16615.9, 0.0260470
16669.3, 0.0250300
16723.1, 0.0245220
16777.2, 0.0235690
16831.7, 0.0222980
16886.5, 0.0216000
16941.7, 0.0208370
16997.2, 0.0202020
17053.1, 0.0202020
17109.4, 0.0203930
17166.1, 0.0207740
17223.1, 0.0212820
17280.5, 0.0222980
17338.3, 0.0226160
17396.5, 0.0237600
17455.1, 0.0258560
17514.0, 0.0288420
17573.4, 0.0324630
17633.2, 0.0365290
17693.4, 0.0408490
17754.0, 0.0447880
17815.0, 0.0489800
17876.4, 0.0541260
17938.3, 0.0586370
18000.5, 0.0624480
18063.3, 0.0658790
18126.4, 0.0682290
18190.0, 0.0686110
18254.1, 0.0676580
18318.6, 0.0672770
18383.5, 0.0677850
18449.0, 0.0668320
18514.9, 0.0653710
18581.2, 0.0639100
18648.0, 0.0621940
18715.4, 0.0602880
18783.2, 0.0590810
18851.5, 0.0590810
18920.3, 0.0595900
18989.6, 0.0603520
19059.4, 0.0630200
19129.7, 0.0688010
19200.6, 0.0743920
19272.0, 0.0801090
19343.9, 0.0892570
19416.3, 0.100629
19489.3, 0.110666
19562.8, 0.118163
19637.0, 0.125214
19711.6, 0.131948
19786.8, 0.138111
19862.6, 0.143955
19939.0, 0.148847
20016.0, 0.152468
20093.6, 0.155327
20171.8, 0.157741
20250.6, 0.161680
20330.0, 0.165873
20410.0, 0.168986
20490.7, 0.172607
20572.0, 0.177117
20654.0, 0.180484
20736.6, 0.183152
20819.9, 0.187218
20903.8, 0.191792
20988.5, 0.194143
21073.8, 0.195922
21159.8, 0.198336
21246.5, 0.201385
21334.0, 0.203037
21422.1, 0.202020
21511.0, 0.200750
21600.7, 0.200114
21691.0, 0.197319
21782.1, 0.193635
21874.0, 0.189886
21966.7, 0.187853
22060.2, 0.183661
22154.5, 0.179023
22249.6, 0.176418
22345.5, 0.171654
22442.2, 0.166826
22539.8, 0.166635
22638.2, 0.167715
22737.5, 0.165174
22837.7, 0.163141
22938.7, 0.166000
23040.7, 0.170256
23143.5, 0.172035
23247.3, 0.172988
23352.1, 0.178070
23457.7, 0.179722
23564.4, 0.176164
23672.0, 0.172035
23780.5, 0.164920
23890.1, 0.152532
24000.7, 0.141732
24112.3, 0.133028
24225.0, 0.126739
24338.7, 0.122229
24453.5, 0.117782
24569.4, 0.116130
24686.4, 0.117591
24804.5, 0.114859
24923.8, 0.113716
