Database of Origin, USGS Spectral Database
Sample Description, See USGS database for additional info
Date Added,2016-08-10 04:59:10.378029

Data ID,USGS_kao02          
Sample ID, kaolinite_cm3.11802
Mineral Name, kaolinite
Material Class,Phyllosilicate

Wavelength
1350.04, 0.679919
1350.39, 0.678423
1350.74, 0.677059
1351.1, 0.675563
1351.45, 0.674244
1351.8, 0.672660
1352.15, 0.670548
1352.51, 0.668656
1352.86, 0.667381
1353.21, 0.666149
1353.56, 0.664873
1353.92, 0.663949
1354.27, 0.663289
1354.63, 0.662233
1354.98, 0.661178
1355.33, 0.660474
1355.69, 0.659550
1356.04, 0.658802
1356.4, 0.657570
1356.75, 0.656338
1357.11, 0.655370
1357.46, 0.654711
1357.82, 0.653743
1358.18, 0.652907
1358.53, 0.652291
1358.89, 0.651323
1359.24, 0.649959
1359.6, 0.649167
1359.96, 0.648507
1360.31, 0.648067
1360.67, 0.647452
1361.03, 0.646396
1361.39, 0.645912
1361.74, 0.646044
1362.1, 0.645736
1362.46, 0.645296
1362.82, 0.644944
1363.18, 0.644196
1363.53, 0.643492
1363.89, 0.642832
1364.25, 0.642040
1364.61, 0.641952
1364.97, 0.641820
1365.33, 0.641205
1365.69, 0.641029
1366.05, 0.640545
1366.41, 0.639753
1366.77, 0.638389
1367.13, 0.637817
1367.49, 0.637509
1367.85, 0.636365
1368.21, 0.634914
1368.57, 0.634166
1368.93, 0.632978
1369.3, 0.631746
1369.66, 0.630910
1370.02, 0.630910
1370.38, 0.630294
1370.74, 0.629458
1371.11, 0.628666
1371.47, 0.627523
1371.83, 0.626687
1372.19, 0.626027
1372.56, 0.625235
1372.92, 0.624003
1373.29, 0.622639
1373.65, 0.621320
1374.01, 0.620044
1374.38, 0.618548
1374.74, 0.616832
1375.11, 0.615160
1375.47, 0.613841
1375.84, 0.612125
1376.2, 0.610585
1376.57, 0.609353
1376.93, 0.607858
1377.3, 0.606406
1377.67, 0.604382
1378.03, 0.602050
1378.4, 0.600379
1378.76, 0.597915
1379.13, 0.595143
1379.5, 0.592988
1379.87, 0.590788
1380.23, 0.588324
1380.6, 0.586169
1380.97, 0.584805
1381.34, 0.582869
1381.7, 0.580670
1382.07, 0.579086
1382.44, 0.577766
1382.81, 0.576358
1383.18, 0.574994
1383.55, 0.573807
1383.92, 0.572531
1384.29, 0.571123
1384.66, 0.569099
1385.03, 0.567472
1385.4, 0.565712
1385.77, 0.563820
1386.14, 0.561576
1386.51, 0.559377
1386.88, 0.557045
1387.25, 0.554098
1387.62, 0.550754
1387.99, 0.547850
1388.36, 0.545211
1388.74, 0.542395
1389.11, 0.539756
1389.48, 0.537204
1389.85, 0.535136
1390.23, 0.532805
1390.6, 0.530165
1390.97, 0.527877
1391.35, 0.526030
1391.72, 0.523830
1392.09, 0.521410
1392.47, 0.519519
1392.84, 0.517847
1393.21, 0.515823
1393.59, 0.514107
1393.96, 0.512612
1394.34, 0.511380
1394.71, 0.510500
1395.09, 0.510192
1395.46, 0.510852
1395.84, 0.511248
1396.22, 0.511864
1396.59, 0.512832
1396.97, 0.513756
1397.35, 0.514503
1397.72, 0.515295
1398.1, 0.516263
1398.48, 0.516835
1398.85, 0.517759
1399.23, 0.518199
1399.61, 0.518419
1399.99, 0.518815
1400.37, 0.519079
1400.74, 0.519079
1401.12, 0.519167
1401.5, 0.519079
1401.88, 0.518551
1402.26, 0.518067
1402.64, 0.517715
1403.02, 0.517275
1403.4, 0.516747
1403.78, 0.516263
1404.16, 0.515735
1404.54, 0.515339
1404.92, 0.515427
1405.3, 0.516043
1405.68, 0.516087
1406.06, 0.516351
1406.44, 0.517055
1406.83, 0.518155
1407.21, 0.519607
1407.59, 0.520574
1407.97, 0.521146
1408.35, 0.521718
1408.74, 0.522290
1409.12, 0.522510
1409.5, 0.522026
1409.89, 0.521058
1410.27, 0.519123
1410.65, 0.516439
1411.04, 0.513052
1411.42, 0.508168
1411.81, 0.501921
1412.19, 0.494398
1412.58, 0.484324
1412.96, 0.471434
1413.35, 0.456124
1413.73, 0.439407
1414.12, 0.422557
1414.5, 0.408083
1414.89, 0.400208
1415.28, 0.402452
1415.66, 0.414550
1416.05, 0.433423
1416.44, 0.454408
1416.82, 0.473545
1417.21, 0.489779
1417.6, 0.502537
1417.98, 0.512304
1418.37, 0.520135
1418.76, 0.526778
1419.15, 0.532365
1419.54, 0.536896
1419.93, 0.541251
1420.32, 0.544243
1420.71, 0.547015
1421.09, 0.550006
1421.48, 0.552470
1421.88, 0.554449
1422.27, 0.556033
1422.66, 0.557705
1423.05, 0.559333
1423.44, 0.560301
1423.83, 0.561224
1424.22, 0.562236
1424.61, 0.563292
1425.0, 0.563864
1425.39, 0.564524
1425.78, 0.565580
1426.18, 0.566240
1426.57, 0.566856
1426.96, 0.567692
1427.36, 0.568351
1427.75, 0.568923
1428.14, 0.569803
1428.54, 0.570595
1428.93, 0.571255
1429.32, 0.571475
1429.72, 0.572003
1430.11, 0.572619
1430.51, 0.573103
1430.9, 0.573543
1431.3, 0.573895
1431.69, 0.574598
1432.09, 0.574994
1432.48, 0.575258
1432.88, 0.575874
1433.28, 0.576226
1433.67, 0.576094
1434.07, 0.576050
1434.46, 0.576754
1434.86, 0.577414
1435.26, 0.577326
1435.66, 0.577722
1436.05, 0.577766
1436.45, 0.577766
1436.85, 0.577986
1437.25, 0.577986
1437.65, 0.578074
1438.05, 0.578162
1438.44, 0.578162
1438.84, 0.578426
1439.24, 0.578426
1439.64, 0.578646
1440.04, 0.578558
1440.44, 0.578690
1440.84, 0.578426
1441.24, 0.578338
1441.65, 0.578778
1442.05, 0.578822
1442.45, 0.579218
1442.85, 0.579042
1443.25, 0.578734
1443.65, 0.578778
1444.05, 0.579042
1444.46, 0.579086
1444.86, 0.579042
1445.26, 0.578690
1445.67, 0.578250
1446.07, 0.578206
1446.47, 0.578646
1446.88, 0.578514
1447.28, 0.578294
1447.68, 0.578382
1448.09, 0.578162
1448.49, 0.578030
1448.9, 0.578030
1449.3, 0.577986
1449.71, 0.577986
1450.11, 0.578162
1450.52, 0.578206
1450.93, 0.578470
1451.33, 0.578778
1451.74, 0.578646
1452.14, 0.578470
1452.55, 0.578338
1452.96, 0.578514
1453.36, 0.578646
1453.77, 0.578558
1454.18, 0.578470
1454.59, 0.578646
1455.0, 0.578954
1455.41, 0.578910
1455.81, 0.578910
1456.22, 0.578778
1456.63, 0.578822
1457.04, 0.578734
1457.45, 0.578690
1457.86, 0.578646
1458.27, 0.578338
1458.68, 0.577986
1459.09, 0.578206
1459.5, 0.578338
1459.91, 0.578118
1460.32, 0.578030
1460.74, 0.578206
1461.15, 0.577986
1461.56, 0.578030
1461.97, 0.577942
1462.39, 0.578074
1462.8, 0.578162
1463.21, 0.578162
1463.62, 0.577942
1464.04, 0.578118
1464.45, 0.578162
1464.86, 0.578206
1465.28, 0.578162
1465.69, 0.577986
1466.11, 0.577942
1466.52, 0.577986
1466.94, 0.578030
1467.35, 0.577810
1467.77, 0.578074
1468.18, 0.578294
1468.6, 0.577898
1469.02, 0.577854
1469.43, 0.577722
1469.85, 0.577810
1470.27, 0.578162
1470.68, 0.578118
1471.1, 0.577810
1471.52, 0.578074
1471.94, 0.577986
1472.35, 0.577942
1472.77, 0.577986
1473.19, 0.577986
1473.61, 0.578074
1474.03, 0.577854
1474.45, 0.578118
1474.87, 0.578338
1475.29, 0.578426
1475.71, 0.578734
1476.13, 0.578646
1476.55, 0.578646
1476.97, 0.578646
1477.39, 0.578778
1477.81, 0.578778
1478.23, 0.578470
1478.65, 0.578514
1479.07, 0.578866
1479.5, 0.578954
1479.92, 0.578734
1480.34, 0.578822
1480.76, 0.579218
1481.19, 0.579306
1481.61, 0.579306
1482.03, 0.579570
1482.46, 0.579570
1482.88, 0.579614
1483.31, 0.579746
1483.73, 0.579702
1484.16, 0.579790
1484.58, 0.579966
1485.01, 0.580098
1485.43, 0.580230
1485.86, 0.580538
1486.28, 0.580538
1486.71, 0.580582
1487.14, 0.580582
1487.56, 0.580670
1487.99, 0.580758
1488.42, 0.581154
1488.84, 0.581198
1489.27, 0.581241
1489.7, 0.581417
1490.13, 0.581549
1490.56, 0.581813
1490.98, 0.582077
1491.41, 0.581945
1491.84, 0.582077
1492.27, 0.582429
1492.7, 0.582385
1493.13, 0.582341
1493.56, 0.582429
1493.99, 0.582429
1494.42, 0.582385
1494.85, 0.582429
1495.29, 0.582649
1495.72, 0.582781
1496.15, 0.583133
1496.58, 0.583397
1497.01, 0.583661
1497.44, 0.583309
1497.88, 0.583265
1498.31, 0.583749
1498.74, 0.584101
1499.18, 0.583925
1499.61, 0.584013
1500.04, 0.584453
1500.48, 0.584585
1500.91, 0.584673
1501.35, 0.584541
1501.78, 0.584717
1502.22, 0.584893
1502.65, 0.585113
1503.09, 0.585465
1503.53, 0.585685
1503.96, 0.585861
1504.4, 0.585861
1504.83, 0.585949
1505.27, 0.586125
1505.71, 0.586213
1506.15, 0.586477
1506.58, 0.586565
1507.02, 0.586565
1507.46, 0.586917
1507.9, 0.587093
1508.34, 0.587049
1508.78, 0.587225
1509.21, 0.587489
1509.66, 0.587577
1510.09, 0.587445
1510.53, 0.587708
1510.97, 0.587840
1511.42, 0.588148
1511.86, 0.588456
1512.3, 0.588280
1512.74, 0.588368
1513.18, 0.588456
1513.62, 0.588676
1514.06, 0.588852
1514.51, 0.588984
1514.95, 0.588940
1515.39, 0.589028
1515.83, 0.589204
1516.28, 0.589248
1516.72, 0.589380
1517.16, 0.589644
1517.61, 0.589820
1518.05, 0.589820
1518.5, 0.589996
1518.94, 0.590040
1519.39, 0.590040
1519.83, 0.589952
1520.28, 0.590304
1520.73, 0.590348
1521.17, 0.590392
1521.62, 0.590612
1522.07, 0.590656
1522.51, 0.590744
1522.96, 0.590876
1523.41, 0.591316
1523.85, 0.591316
1524.3, 0.591184
1524.75, 0.591448
1525.2, 0.591756
1525.65, 0.591844
1526.1, 0.592020
1526.55, 0.591888
1527.0, 0.592064
1527.45, 0.592240
1527.9, 0.592152
1528.35, 0.592284
1528.8, 0.592504
1529.25, 0.592856
1529.7, 0.593032
1530.15, 0.593120
1530.6, 0.593296
1531.05, 0.593472
1531.51, 0.593736
1531.96, 0.593868
1532.41, 0.593956
1532.87, 0.594352
1533.32, 0.594439
1533.77, 0.594176
1534.23, 0.594264
1534.68, 0.594703
1535.14, 0.594835
1535.59, 0.595011
1536.05, 0.595187
1536.5, 0.595451
1536.96, 0.595671
1537.41, 0.595803
1537.87, 0.595935
1538.32, 0.596111
1538.78, 0.596067
1539.24, 0.596155
1539.7, 0.596243
1540.15, 0.596639
1540.61, 0.596991
1541.07, 0.597299
1541.53, 0.597519
1541.98, 0.597563
1542.44, 0.597739
1542.9, 0.598179
1543.36, 0.598355
1543.82, 0.598707
1544.28, 0.598795
1544.74, 0.598839
1545.2, 0.599015
1545.66, 0.599279
1546.12, 0.599719
1546.59, 0.599983
1547.05, 0.599851
1547.51, 0.599983
1547.97, 0.600423
1548.43, 0.600643
1548.9, 0.600819
1549.36, 0.600863
1549.82, 0.600995
1550.29, 0.601435
1550.75, 0.601610
1551.21, 0.601742
1551.68, 0.601874
1552.14, 0.602050
1552.61, 0.602402
1553.07, 0.602798
1553.54, 0.603150
1554.0, 0.603238
1554.47, 0.603106
1554.93, 0.603194
1555.4, 0.603458
1555.87, 0.603810
1556.34, 0.603986
1556.8, 0.604074
1557.27, 0.604382
1557.74, 0.604514
1558.21, 0.604734
1558.68, 0.605042
1559.14, 0.605130
1559.61, 0.605130
1560.08, 0.605350
1560.55, 0.605746
1561.02, 0.605834
1561.49, 0.605834
1561.96, 0.606142
1562.43, 0.606582
1562.9, 0.606802
1563.38, 0.606978
1563.85, 0.607110
1564.32, 0.607198
1564.79, 0.607374
1565.26, 0.607594
1565.74, 0.607462
1566.21, 0.607769
1566.68, 0.608121
1567.16, 0.608253
1567.63, 0.608386
1568.1, 0.608825
1568.58, 0.608737
1569.05, 0.608869
1569.53, 0.608825
1570.0, 0.609045
1570.48, 0.609529
1570.96, 0.609529
1571.43, 0.609661
1571.91, 0.610057
1572.39, 0.610233
1572.86, 0.610365
1573.34, 0.610497
1573.82, 0.610673
1574.3, 0.610805
1574.77, 0.610937
1575.25, 0.611289
1575.73, 0.611421
1576.21, 0.611641
1576.69, 0.611641
1577.17, 0.611905
1577.65, 0.612125
1578.13, 0.612301
1578.61, 0.612345
1579.09, 0.612433
1579.57, 0.612609
1580.05, 0.612741
1580.54, 0.612785
1581.02, 0.612961
1581.5, 0.613181
1581.98, 0.613489
1582.47, 0.613533
1582.95, 0.613753
1583.43, 0.613841
1583.92, 0.614061
1584.4, 0.614193
1584.88, 0.614501
1585.37, 0.614633
1585.85, 0.614633
1586.34, 0.614852
1586.82, 0.614984
1587.31, 0.615072
1587.8, 0.615292
1588.28, 0.615468
1588.77, 0.615864
1589.26, 0.615996
1589.74, 0.615908
1590.23, 0.616128
1590.72, 0.616304
1591.21, 0.616436
1591.7, 0.616700
1592.19, 0.616832
1592.67, 0.616964
1593.16, 0.617184
1593.65, 0.617272
1594.14, 0.617316
1594.63, 0.617580
1595.12, 0.617756
1595.61, 0.618020
1596.11, 0.618196
1596.6, 0.618328
1597.09, 0.618460
1597.58, 0.618680
1598.08, 0.619252
1598.57, 0.619428
1599.06, 0.619516
1599.55, 0.619648
1600.05, 0.619736
1600.54, 0.619912
1601.04, 0.620308
1601.53, 0.620484
1602.03, 0.620352
1602.52, 0.620572
1603.02, 0.620880
1603.51, 0.621099
1604.01, 0.621408
1604.5, 0.621583
1605.0, 0.622023
1605.5, 0.622551
1606.0, 0.622727
1606.49, 0.622815
1606.99, 0.622727
1607.49, 0.622859
1607.99, 0.623211
1608.49, 0.623563
1608.99, 0.623651
1609.49, 0.623475
1609.99, 0.623651
1610.49, 0.624135
1610.99, 0.624355
1611.49, 0.624267
1611.99, 0.624487
1612.49, 0.624575
1612.99, 0.624839
1613.49, 0.625235
1614.0, 0.625543
1614.5, 0.625807
1615.0, 0.626027
1615.51, 0.626159
1616.01, 0.626027
1616.51, 0.626247
1617.02, 0.626555
1617.52, 0.626995
1618.03, 0.627171
1618.53, 0.627039
1619.04, 0.627303
1619.54, 0.627611
1620.05, 0.628050
1620.55, 0.628270
1621.06, 0.628227
1621.57, 0.628358
1622.08, 0.628534
1622.58, 0.628842
1623.09, 0.629150
1623.6, 0.629326
1624.11, 0.629546
1624.62, 0.629546
1625.13, 0.629634
1625.64, 0.629942
1626.15, 0.629986
1626.66, 0.629854
1627.17, 0.630162
1627.68, 0.630558
1628.19, 0.630954
1628.7, 0.630910
1629.21, 0.631042
1629.72, 0.631306
1630.24, 0.631306
1630.75, 0.631218
1631.26, 0.631570
1631.78, 0.632054
1632.29, 0.632010
1632.8, 0.632142
1633.32, 0.632494
1633.83, 0.632670
1634.35, 0.632626
1634.86, 0.632670
1635.38, 0.632978
1635.9, 0.633242
1636.41, 0.633506
1636.93, 0.633418
1637.45, 0.633418
1637.96, 0.633638
1638.48, 0.633902
1639.0, 0.634122
1639.52, 0.634166
1640.04, 0.634298
1640.56, 0.634342
1641.08, 0.634474
1641.59, 0.634737
1642.11, 0.634782
1642.63, 0.634914
1643.16, 0.635133
1643.68, 0.635309
1644.2, 0.635485
1644.72, 0.635485
1645.24, 0.635573
1645.76, 0.635529
1646.29, 0.635705
1646.81, 0.635881
1647.33, 0.636189
1647.86, 0.636145
1648.38, 0.636189
1648.9, 0.636365
1649.43, 0.636497
1649.95, 0.636497
1650.48, 0.636585
1651.0, 0.636761
1651.53, 0.636937
1652.06, 0.637289
1652.58, 0.637377
1653.11, 0.637421
1653.64, 0.637685
1654.17, 0.637729
1654.69, 0.637685
1655.22, 0.637773
1655.75, 0.638125
1656.28, 0.638213
1656.81, 0.638213
1657.34, 0.638345
1657.87, 0.638345
1658.4, 0.638389
1658.93, 0.638653
1659.46, 0.638785
1659.99, 0.638917
1660.52, 0.639181
1661.05, 0.639313
1661.59, 0.639313
1662.12, 0.639533
1662.65, 0.639797
1663.19, 0.639841
1663.72, 0.639929
1664.26, 0.639973
1664.79, 0.640017
1665.32, 0.640237
1665.86, 0.640457
1666.39, 0.640545
1666.93, 0.640677
1667.47, 0.640765
1668.0, 0.640897
1668.54, 0.641337
1669.08, 0.641645
1669.61, 0.641645
1670.15, 0.641733
1670.69, 0.641776
1671.23, 0.642040
1671.77, 0.642392
1672.31, 0.642392
1672.85, 0.642524
1673.39, 0.642656
1673.93, 0.642656
1674.47, 0.642788
1675.01, 0.642876
1675.55, 0.643008
1676.09, 0.643360
1676.64, 0.643712
1677.18, 0.643624
1677.72, 0.643580
1678.26, 0.643624
1678.81, 0.643888
1679.35, 0.644240
1679.89, 0.644372
1680.44, 0.644724
1680.98, 0.644944
1681.53, 0.644988
1682.07, 0.644988
1682.62, 0.645076
1683.17, 0.645252
1683.71, 0.645296
1684.26, 0.645384
1684.81, 0.645736
1685.36, 0.645824
1685.9, 0.645868
1686.45, 0.645956
1687.0, 0.646396
1687.55, 0.646616
1688.1, 0.646572
1688.65, 0.646572
1689.2, 0.646836
1689.75, 0.646968
1690.3, 0.647276
1690.85, 0.647628
1691.41, 0.647760
1691.96, 0.647848
1692.51, 0.647628
1693.06, 0.647760
1693.61, 0.647936
1694.17, 0.647936
1694.72, 0.648199
1695.28, 0.648463
1695.83, 0.648463
1696.39, 0.648507
1696.94, 0.648903
1697.5, 0.649079
1698.05, 0.648859
1698.61, 0.648903
1699.17, 0.649123
1699.72, 0.649519
1700.28, 0.649563
1700.84, 0.649695
1701.4, 0.649827
1701.95, 0.649739
1702.51, 0.649827
1703.07, 0.650091
1703.63, 0.650179
1704.19, 0.650267
1704.75, 0.650047
1705.31, 0.650091
1705.88, 0.650443
1706.44, 0.650487
1707.0, 0.650267
1707.56, 0.650311
1708.12, 0.650443
1708.69, 0.650575
1709.25, 0.650751
1709.81, 0.650839
1710.38, 0.650883
1710.94, 0.650927
1711.51, 0.650883
1712.07, 0.650927
1712.64, 0.651059
1713.2, 0.650971
1713.77, 0.651103
1714.34, 0.651103
1714.9, 0.651323
1715.47, 0.651411
1716.04, 0.651235
1716.61, 0.651191
1717.18, 0.651411
1717.74, 0.651631
1718.31, 0.651719
1718.88, 0.651587
1719.45, 0.651631
1720.02, 0.651675
1720.59, 0.651631
1721.17, 0.651587
1721.74, 0.651763
1722.31, 0.651807
1722.88, 0.651543
1723.45, 0.651499
1724.03, 0.651675
1724.6, 0.651675
1725.18, 0.651851
1725.75, 0.651939
1726.33, 0.651939
1726.9, 0.652115
1727.48, 0.652291
1728.05, 0.652291
1728.63, 0.652247
1729.2, 0.652203
1729.78, 0.652247
1730.36, 0.652291
1730.94, 0.652335
1731.51, 0.652335
1732.09, 0.652291
1732.67, 0.652115
1733.25, 0.652247
1733.83, 0.652379
1734.41, 0.652379
1734.99, 0.652423
1735.57, 0.652643
1736.15, 0.652643
1736.73, 0.652599
1737.32, 0.652731
1737.9, 0.652907
1738.48, 0.652907
1739.07, 0.652951
1739.65, 0.653039
1740.23, 0.653171
1740.82, 0.653215
1741.4, 0.653259
1741.99, 0.653435
1742.57, 0.653523
1743.16, 0.653611
1743.74, 0.653699
1744.33, 0.653743
1744.92, 0.653875
1745.51, 0.653963
1746.09, 0.654227
1746.68, 0.654315
1747.27, 0.654315
1747.86, 0.654446
1748.45, 0.654711
1749.04, 0.654799
1749.63, 0.654930
1750.22, 0.654886
1750.81, 0.654974
1751.4, 0.655150
1751.99, 0.655150
1752.59, 0.655282
1753.18, 0.655150
1753.77, 0.655106
1754.37, 0.655282
1754.96, 0.655414
1755.56, 0.655458
1756.15, 0.655458
1756.74, 0.655502
1757.34, 0.655590
1757.94, 0.655854
1758.53, 0.656030
1759.13, 0.656074
1759.73, 0.655942
1760.32, 0.655986
1760.92, 0.655986
1761.52, 0.656074
1762.12, 0.655854
1762.72, 0.655898
1763.32, 0.655986
1763.92, 0.656030
1764.52, 0.656030
1765.12, 0.656118
1765.72, 0.656250
1766.32, 0.656250
1766.92, 0.656250
1767.53, 0.656426
1768.13, 0.656470
1768.73, 0.656426
1769.34, 0.656338
1769.94, 0.656382
1770.55, 0.656426
1771.15, 0.656382
1771.76, 0.656250
1772.36, 0.656206
1772.97, 0.656030
1773.57, 0.656074
1774.18, 0.656118
1774.79, 0.656250
1775.4, 0.655986
1776.0, 0.655766
1776.61, 0.655634
1777.22, 0.655634
1777.83, 0.655590
1778.44, 0.655502
1779.05, 0.655414
1779.66, 0.655239
1780.27, 0.655019
1780.88, 0.654930
1781.5, 0.654886
1782.11, 0.654886
1782.72, 0.654623
1783.33, 0.654271
1783.95, 0.654183
1784.56, 0.654007
1785.18, 0.653699
1785.79, 0.653567
1786.41, 0.653435
1787.02, 0.653259
1787.64, 0.653083
1788.26, 0.652951
1788.87, 0.652951
1789.49, 0.652599
1790.11, 0.652291
1790.73, 0.652027
1791.35, 0.651939
1791.96, 0.651807
1792.58, 0.651675
1793.21, 0.651543
1793.83, 0.651455
1794.45, 0.651367
1795.07, 0.651323
1795.69, 0.651235
1796.31, 0.651279
1796.93, 0.651191
1797.56, 0.651147
1798.18, 0.651323
1798.8, 0.651147
1799.43, 0.651367
1800.05, 0.651411
1800.68, 0.651543
1801.3, 0.651279
1801.93, 0.651191
1802.56, 0.651367
1803.18, 0.651367
1803.81, 0.651367
1804.44, 0.651323
1805.07, 0.651235
1805.7, 0.651455
1806.33, 0.651499
1806.95, 0.651587
1807.58, 0.651631
1808.22, 0.651543
1808.85, 0.651103
1809.48, 0.650795
1810.11, 0.650971
1810.74, 0.650971
1811.38, 0.650883
1812.01, 0.650795
1812.64, 0.650575
1813.28, 0.650355
1813.91, 0.650091
1814.55, 0.650003
1815.18, 0.650003
1815.82, 0.650003
1816.45, 0.650003
1817.09, 0.650003
1817.73, 0.650047
1818.36, 0.649871
1819.0, 0.649783
1819.64, 0.649739
1820.28, 0.650003
1820.92, 0.650179
1821.56, 0.650311
1822.2, 0.650575
1822.84, 0.650707
1823.48, 0.651191
1824.12, 0.651367
1824.76, 0.651455
1825.41, 0.651499
1826.05, 0.651807
1826.69, 0.652247
1827.34, 0.652335
1827.98, 0.652467
1828.63, 0.652995
1829.27, 0.653303
1829.92, 0.653435
1830.56, 0.653699
1831.21, 0.654051
1831.86, 0.654051
1832.5, 0.654051
1833.15, 0.654183
1833.8, 0.654271
1834.45, 0.654183
1835.1, 0.654271
1835.75, 0.654271
1836.4, 0.654315
1837.05, 0.654139
1837.7, 0.654007
1838.35, 0.654139
1839.01, 0.653787
1839.66, 0.653523
1840.31, 0.653171
1840.96, 0.652599
1841.62, 0.652247
1842.27, 0.652027
1842.93, 0.651543
1843.58, 0.651455
1844.24, 0.651675
1844.9, 0.652115
1845.55, 0.652731
1846.21, 0.653523
1846.87, 0.654623
1847.53, 0.655546
1848.18, 0.656162
1848.84, 0.656822
1849.5, 0.657262
1850.16, 0.657746
1850.82, 0.658274
1851.48, 0.658538
1852.14, 0.658846
1852.81, 0.659242
1853.47, 0.659418
1854.13, 0.659682
1854.8, 0.659858
1855.46, 0.659814
1856.12, 0.659990
1856.79, 0.660254
1857.45, 0.660430
1858.12, 0.660474
1858.79, 0.660430
1859.45, 0.660694
1860.12, 0.660826
1860.79, 0.660738
1861.46, 0.660474
1862.12, 0.660298
1862.79, 0.660298
1863.46, 0.660210
1864.13, 0.660122
1864.8, 0.659902
1865.48, 0.659814
1866.15, 0.659418
1866.82, 0.659022
1867.49, 0.659066
1868.16, 0.659066
1868.84, 0.658802
1869.51, 0.658494
1870.19, 0.658186
1870.86, 0.657746
1871.54, 0.657438
1872.21, 0.656954
1872.89, 0.656910
1873.56, 0.656646
1874.24, 0.655898
1874.92, 0.655326
1875.6, 0.654842
1876.28, 0.654359
1876.96, 0.653963
1877.64, 0.653435
1878.32, 0.652643
1879.0, 0.651983
1879.68, 0.651411
1880.36, 0.650795
1881.04, 0.650047
1881.73, 0.649475
1882.41, 0.648991
1883.09, 0.648287
1883.78, 0.647540
1884.46, 0.646880
1885.15, 0.646264
1885.83, 0.645692
1886.52, 0.644812
1887.21, 0.644152
1887.89, 0.643536
1888.58, 0.642964
1889.27, 0.642436
1889.96, 0.641996
1890.65, 0.641249
1891.34, 0.640721
1892.03, 0.640193
1892.72, 0.639401
1893.41, 0.638565
1894.1, 0.637817
1894.79, 0.637113
1895.49, 0.636321
1896.18, 0.635397
1896.87, 0.634561
1897.57, 0.633550
1898.26, 0.632714
1898.96, 0.631834
1899.65, 0.630954
1900.35, 0.629942
1901.05, 0.629018
1901.74, 0.628138
1902.44, 0.627347
1903.14, 0.626775
1903.84, 0.625983
1904.54, 0.625191
1905.24, 0.624795
1905.94, 0.624487
1906.64, 0.624091
1907.34, 0.623827
1908.04, 0.623519
1908.75, 0.623387
1909.45, 0.623299
1910.15, 0.623255
1910.86, 0.623431
1911.56, 0.623695
1912.27, 0.623915
1912.97, 0.624047
1913.68, 0.624487
1914.39, 0.624707
1915.09, 0.624971
1915.8, 0.625279
1916.51, 0.625807
1917.22, 0.626379
1917.93, 0.626731
1918.64, 0.627083
1919.35, 0.627391
1920.06, 0.628094
1920.77, 0.628930
1921.48, 0.629150
1922.19, 0.629282
1922.91, 0.629502
1923.62, 0.629986
1924.33, 0.630558
1925.05, 0.630778
1925.76, 0.631130
1926.48, 0.631262
1927.19, 0.631658
1927.91, 0.631922
1928.63, 0.632142
1929.35, 0.632230
1930.07, 0.632494
1930.78, 0.632934
1931.5, 0.633154
1932.22, 0.633418
1932.94, 0.633506
1933.66, 0.633418
1934.39, 0.633594
1935.11, 0.633726
1935.83, 0.634034
1936.55, 0.634122
1937.28, 0.634298
1938.0, 0.634649
1938.73, 0.634737
1939.45, 0.634826
1940.18, 0.634870
1940.9, 0.635045
1941.63, 0.635309
1942.36, 0.635485
1943.09, 0.635529
1943.81, 0.635705
1944.54, 0.635793
1945.27, 0.635969
1946.0, 0.636189
1946.73, 0.636585
1947.47, 0.636673
1948.2, 0.636805
1948.93, 0.637025
1949.66, 0.637289
1950.4, 0.637553
1951.13, 0.637597
1951.86, 0.637861
1952.6, 0.638125
1953.34, 0.638169
1954.07, 0.638389
1954.81, 0.638345
1955.55, 0.638521
1956.29, 0.638653
1957.02, 0.638609
1957.76, 0.638565
1958.5, 0.638653
1959.24, 0.638873
1959.98, 0.639005
1960.72, 0.639181
1961.47, 0.639137
1962.21, 0.639137
1962.95, 0.639445
1963.7, 0.639533
1964.44, 0.639357
1965.18, 0.639489
1965.93, 0.639665
1966.67, 0.639577
1967.42, 0.639665
1968.17, 0.639709
1968.92, 0.639753
1969.66, 0.639753
1970.41, 0.639709
1971.16, 0.639841
1971.91, 0.640149
1972.66, 0.640149
1973.41, 0.640193
1974.16, 0.640193
1974.92, 0.640149
1975.67, 0.640325
1976.42, 0.640545
1977.18, 0.640501
1977.93, 0.640413
1978.69, 0.640501
1979.44, 0.640457
1980.2, 0.640413
1980.95, 0.640501
1981.71, 0.640413
1982.47, 0.640457
1983.23, 0.640501
1983.99, 0.640501
1984.74, 0.640413
1985.51, 0.640325
1986.27, 0.640501
1987.03, 0.640677
1987.79, 0.640677
1988.55, 0.640765
1989.32, 0.640633
1990.08, 0.640633
1990.84, 0.640545
1991.61, 0.640545
1992.37, 0.640589
1993.14, 0.640545
1993.9, 0.640545
1994.67, 0.640457
1995.44, 0.640501
1996.21, 0.640325
1996.98, 0.640193
1997.75, 0.640017
1998.52, 0.639885
1999.29, 0.639885
2000.06, 0.639753
2000.83, 0.639973
2001.6, 0.639973
2002.38, 0.639885
2003.15, 0.639929
2003.93, 0.640017
2004.7, 0.640017
2005.48, 0.640061
2006.25, 0.640237
2007.03, 0.640325
2007.81, 0.640193
2008.58, 0.640061
2009.36, 0.640369
2010.14, 0.640501
2010.92, 0.640369
2011.7, 0.640325
2012.48, 0.640325
2013.26, 0.640193
2014.05, 0.640193
2014.83, 0.640193
2015.61, 0.640105
2016.4, 0.640017
2017.18, 0.639973
2017.97, 0.640017
2018.75, 0.640061
2019.54, 0.639929
2020.32, 0.639929
2021.11, 0.639753
2021.9, 0.639665
2022.69, 0.639753
2023.48, 0.639533
2024.27, 0.639357
2025.06, 0.639445
2025.85, 0.639313
2026.64, 0.639005
2027.44, 0.638917
2028.23, 0.638829
2029.02, 0.638697
2029.82, 0.638609
2030.61, 0.638521
2031.41, 0.638345
2032.2, 0.638301
2033.0, 0.638389
2033.8, 0.638169
2034.6, 0.637949
2035.4, 0.637905
2036.2, 0.637949
2037.0, 0.637729
2037.8, 0.637641
2038.6, 0.637465
2039.4, 0.637289
2040.2, 0.637113
2041.01, 0.637069
2041.81, 0.636937
2042.61, 0.636761
2043.42, 0.636541
2044.22, 0.636365
2045.03, 0.636145
2045.84, 0.635925
2046.65, 0.635749
2047.46, 0.635529
2048.26, 0.635265
2049.07, 0.635133
2049.88, 0.634782
2050.69, 0.634342
2051.51, 0.634166
2052.32, 0.634078
2053.13, 0.633858
2053.94, 0.633550
2054.76, 0.633198
2055.57, 0.632934
2056.39, 0.632582
2057.2, 0.632318
2058.02, 0.632054
2058.84, 0.631702
2059.66, 0.631438
2060.48, 0.631130
2061.29, 0.630646
2062.11, 0.630206
2062.94, 0.630030
2063.76, 0.629634
2064.58, 0.629062
2065.4, 0.628534
2066.22, 0.627831
2067.05, 0.627171
2067.87, 0.626599
2068.7, 0.626071
2069.52, 0.625455
2070.35, 0.624531
2071.18, 0.623915
2072.0, 0.623343
2072.83, 0.622551
2073.66, 0.622067
2074.49, 0.621671
2075.32, 0.621276
2076.15, 0.620880
2076.98, 0.620572
2077.82, 0.620308
2078.65, 0.619912
2079.48, 0.619428
2080.32, 0.618900
2081.15, 0.618152
2081.99, 0.617404
2082.83, 0.616656
2083.66, 0.615864
2084.5, 0.614808
2085.34, 0.613885
2086.18, 0.613137
2087.02, 0.612389
2087.86, 0.611817
2088.7, 0.611553
2089.54, 0.611245
2090.39, 0.610981
2091.23, 0.610761
2092.07, 0.610673
2092.92, 0.610453
2093.76, 0.610189
2094.61, 0.609925
2095.45, 0.609749
2096.3, 0.609529
2097.15, 0.609265
2098.0, 0.608781
2098.85, 0.608473
2099.7, 0.608209
2100.55, 0.608165
2101.4, 0.607946
2102.25, 0.607682
2103.1, 0.607330
2103.96, 0.606846
2104.81, 0.606098
2105.67, 0.605218
2106.52, 0.603898
2107.38, 0.602314
2108.24, 0.600291
2109.09, 0.598311
2109.95, 0.596023
2110.81, 0.594000
2111.67, 0.592636
2112.53, 0.592020
2113.39, 0.591668
2114.25, 0.591580
2115.12, 0.591888
2115.98, 0.592460
2116.84, 0.592856
2117.71, 0.593032
2118.58, 0.593076
2119.44, 0.592944
2120.31, 0.592724
2121.18, 0.592284
2122.04, 0.591844
2122.91, 0.591272
2123.78, 0.590700
2124.65, 0.589996
2125.52, 0.589248
2126.4, 0.588544
2127.27, 0.587972
2128.14, 0.587313
2129.02, 0.586345
2129.89, 0.585421
2130.77, 0.584233
2131.64, 0.583177
2132.52, 0.581857
2133.4, 0.580230
2134.27, 0.578602
2135.15, 0.576974
2136.03, 0.574994
2136.91, 0.572883
2137.79, 0.570551
2138.68, 0.568175
2139.56, 0.565756
2140.44, 0.563028
2141.33, 0.559949
2142.21, 0.556781
2143.1, 0.553482
2143.99, 0.550094
2144.87, 0.546311
2145.76, 0.542131
2146.65, 0.537512
2147.54, 0.532805
2148.43, 0.527877
2149.32, 0.522906
2150.21, 0.518023
2151.1, 0.513272
2151.99, 0.508784
2152.89, 0.504649
2153.78, 0.500953
2154.68, 0.497434
2155.57, 0.494134
2156.47, 0.491099
2157.37, 0.488283
2158.27, 0.485644
2159.16, 0.483268
2160.06, 0.481332
2160.96, 0.479661
2161.86, 0.478561
2162.77, 0.478165
2163.67, 0.478077
2164.57, 0.478209
2165.48, 0.478649
2166.38, 0.479089
2167.29, 0.479485
2168.2, 0.479837
2169.1, 0.480057
2170.01, 0.480320
2170.92, 0.480584
2171.83, 0.481112
2172.74, 0.481596
2173.65, 0.482124
2174.56, 0.482828
2175.47, 0.483400
2176.39, 0.483620
2177.3, 0.484016
2178.22, 0.484324
2179.13, 0.484456
2180.05, 0.484280
2180.96, 0.484016
2181.88, 0.483796
2182.8, 0.483400
2183.72, 0.482960
2184.64, 0.482388
2185.56, 0.481772
2186.48, 0.480584
2187.41, 0.478957
2188.33, 0.477021
2189.25, 0.474997
2190.18, 0.472842
2191.1, 0.470730
2192.03, 0.468882
2192.96, 0.467210
2193.89, 0.465979
2194.82, 0.465275
2195.74, 0.464571
2196.68, 0.464131
2197.61, 0.463559
2198.54, 0.462327
2199.47, 0.460171
2200.4, 0.456740
2201.34, 0.451593
2202.28, 0.444730
2203.21, 0.435931
2204.15, 0.425065
2205.08, 0.412483
2206.02, 0.398977
2206.96, 0.386526
2207.9, 0.377640
2208.84, 0.376012
2209.78, 0.383359
2210.73, 0.398009
2211.67, 0.416530
2212.61, 0.435799
2213.56, 0.453221
2214.5, 0.468222
2215.45, 0.481068
2216.4, 0.491803
2217.35, 0.500733
2218.3, 0.508388
2219.24, 0.514899
2220.2, 0.520487
2221.15, 0.525282
2222.1, 0.529681
2223.05, 0.533333
2224.0, 0.536500
2224.96, 0.539052
2225.91, 0.541295
2226.87, 0.543187
2227.83, 0.544639
2228.79, 0.546091
2229.74, 0.547235
2230.7, 0.548158
2231.66, 0.548730
2232.63, 0.549170
2233.59, 0.549522
2234.55, 0.549610
2235.51, 0.549478
2236.48, 0.549302
2237.44, 0.549126
2238.41, 0.548862
2239.38, 0.548818
2240.34, 0.548642
2241.31, 0.548510
2242.28, 0.548554
2243.25, 0.548740
2244.22, 0.548369
2245.19, 0.548183
2246.17, 0.548090
2247.14, 0.547951
2248.12, 0.547951
2249.09, 0.548090
2250.07, 0.547858
2251.04, 0.547904
2252.02, 0.547904
2253.0, 0.547022
2253.98, 0.546280
2254.96, 0.545723
2255.94, 0.545026
2256.92, 0.544144
2257.91, 0.543634
2258.89, 0.543216
2259.88, 0.542845
2260.86, 0.542102
2261.85, 0.541266
2262.83, 0.540709
2263.82, 0.540616
2264.81, 0.540431
2265.8, 0.539781
2266.79, 0.538852
2267.78, 0.538249
2268.78, 0.537135
2269.77, 0.536392
2270.76, 0.535649
2271.76, 0.534257
2272.75, 0.533143
2273.75, 0.531796
2274.75, 0.530311
2275.75, 0.529058
2276.75, 0.527804
2277.75, 0.526969
2278.75, 0.525994
2279.75, 0.524880
2280.75, 0.523626
2281.76, 0.522419
2282.76, 0.521584
2283.77, 0.520795
2284.77, 0.519541
2285.78, 0.518288
2286.79, 0.516988
2287.8, 0.516245
2288.81, 0.515271
2289.82, 0.514481
2290.83, 0.513507
2291.84, 0.512671
2292.86, 0.511650
2293.87, 0.510164
2294.89, 0.509422
2295.91, 0.508865
2296.92, 0.507983
2297.94, 0.506915
2298.96, 0.505940
2299.98, 0.505058
2301.0, 0.503851
2302.02, 0.502830
2303.04, 0.501669
2304.07, 0.499998
2305.09, 0.498513
2306.12, 0.497074
2307.15, 0.495263
2308.17, 0.493592
2309.2, 0.491735
2310.23, 0.490436
2311.26, 0.489275
2312.29, 0.488207
2313.32, 0.487140
2314.35, 0.486675
2315.39, 0.486583
2316.42, 0.485979
2317.46, 0.485376
2318.5, 0.485422
2319.53, 0.485144
2320.57, 0.484911
2321.61, 0.484447
2322.65, 0.483565
2323.69, 0.482915
2324.73, 0.482590
2325.78, 0.481987
2326.82, 0.481894
2327.86, 0.482265
2328.91, 0.482776
2329.96, 0.483380
2331.01, 0.483890
2332.05, 0.484726
2333.1, 0.485422
2334.15, 0.485886
2335.21, 0.486397
2336.26, 0.486397
2337.31, 0.486536
2338.36, 0.486397
2339.42, 0.485840
2340.48, 0.484633
2341.53, 0.483565
2342.59, 0.482358
2343.65, 0.481012
2344.71, 0.479248
2345.77, 0.477716
2346.83, 0.475906
2347.9, 0.474328
2348.96, 0.472796
2350.02, 0.471310
2351.09, 0.469685
2352.16, 0.468107
2353.23, 0.466761
2354.29, 0.465275
2355.36, 0.463976
2356.43, 0.463511
2357.51, 0.462722
2358.58, 0.462676
2359.65, 0.462862
2360.73, 0.463372
2361.8, 0.464069
2362.88, 0.464765
2363.96, 0.465090
2365.03, 0.465415
2366.11, 0.465508
2367.19, 0.465090
2368.27, 0.464022
2369.36, 0.463094
2370.44, 0.461655
2371.53, 0.459705
2372.61, 0.457616
2373.7, 0.455109
2374.78, 0.452603
2375.87, 0.450235
2376.96, 0.448100
2378.05, 0.446336
2379.14, 0.444572
2380.24, 0.442669
2381.33, 0.440812
2382.42, 0.439790
2383.52, 0.438723
2384.61, 0.438212
2385.71, 0.438583
2386.81, 0.439605
2387.91, 0.440533
2389.01, 0.442065
2390.11, 0.443411
2391.22, 0.444665
2392.32, 0.445732
2393.42, 0.447125
2394.53, 0.448425
2395.64, 0.450003
2396.74, 0.451396
2397.85, 0.452928
2398.96, 0.454970
2400.07, 0.456641
2401.18, 0.457477
2402.3, 0.458034
2403.41, 0.458498
2404.52, 0.458637
2405.64, 0.458405
2406.76, 0.458034
2407.88, 0.457895
2408.99, 0.457848
2410.11, 0.457570
2411.23, 0.457059
2412.36, 0.456502
2413.48, 0.455806
2414.6, 0.455156
2415.73, 0.454367
2416.85, 0.453485
2417.98, 0.452695
2419.11, 0.451721
2420.24, 0.450746
2421.37, 0.449632
2422.5, 0.448610
2423.64, 0.447403
2424.77, 0.446104
2425.9, 0.444850
2427.04, 0.443551
2428.18, 0.441926
2429.31, 0.440208
2430.45, 0.438166
2431.59, 0.436402
2432.73, 0.434638
2433.88, 0.432317
2435.02, 0.429903
2436.16, 0.427535
2437.31, 0.425075
2438.45, 0.422986
2439.6, 0.420851
2440.75, 0.419272
2441.9, 0.418205
2443.05, 0.417462
2444.2, 0.416487
2445.35, 0.415466
2446.51, 0.414398
2447.67, 0.413609
2448.82, 0.412959
2449.98, 0.412217
2451.14, 0.411613
2452.3, 0.411149
2453.46, 0.410313
2454.62, 0.409478
2455.78, 0.408503
2456.94, 0.407853
2458.11, 0.407249
2459.28, 0.406785
2460.44, 0.406135
2461.61, 0.405625
2462.78, 0.405068
2463.95, 0.404789
2465.12, 0.404557
2466.3, 0.404093
2467.47, 0.403397
2468.65, 0.402793
2469.82, 0.402190
2471.0, 0.401725
2472.18, 0.401029
2473.36, 0.400194
2474.54, 0.399358
2475.72, 0.398430
2476.9, 0.397269
2478.08, 0.396248
2479.27, 0.394994
2480.46, 0.393370
2481.64, 0.391513
2482.83, 0.389656
2484.02, 0.387706
2485.21, 0.385850
2486.4, 0.383761
2487.6, 0.382414
2488.79, 0.381950
2489.99, 0.381857
2491.18, 0.381532
2492.38, 0.381254
2493.58, 0.381022
2494.78, 0.380929
2495.98, 0.380743
2497.18, 0.380650
2498.39, 0.380233
2499.59, 0.379676
2500.8, 0.378979
2502.01, 0.378701
2503.21, 0.378236
2504.42, 0.377494
2505.63, 0.376565
2506.84, 0.375637
2508.06, 0.374476
2509.27, 0.373594
2510.49, 0.372712
2511.7, 0.372063
2512.92, 0.371181
2514.14, 0.370716
2515.36, 0.370159
2516.58, 0.369695
2517.8, 0.369045
2519.03, 0.368210
2520.25, 0.367467
2521.48, 0.366724
2522.7, 0.365981
2523.93, 0.365285
2525.16, 0.364450
2526.39, 0.363753
2527.62, 0.362732
2528.86, 0.361804
2530.09, 0.361246
2531.33, 0.360782
2532.56, 0.360225
2533.8, 0.359900
2535.04, 0.359575
2536.28, 0.359250
2537.52, 0.358368
2538.76, 0.357115
2540.01, 0.355908
2541.25, 0.354562
2542.5, 0.353309
2543.75, 0.352566
2544.99, 0.352194
2546.24, 0.351869
2547.49, 0.351452
2548.75, 0.351220
2550.0, 0.350987
2551.26, 0.351034
2552.51, 0.351034
2553.77, 0.351127
2555.03, 0.350616
2556.29, 0.349827
2557.55, 0.348806
2558.81, 0.347831
2560.08, 0.346763
2561.34, 0.346067
2562.61, 0.344906
2563.88, 0.343653
2565.14, 0.342121
2566.41, 0.340404
2567.68, 0.338918
2568.96, 0.338083
2570.23, 0.337340
2571.51, 0.335808
2572.78, 0.334740
2574.06, 0.334322
2575.34, 0.333162
2576.62, 0.332651
2577.9, 0.331955
2579.18, 0.331212
2580.47, 0.330702
2581.75, 0.330423
2583.04, 0.329959
2584.32, 0.330098
2585.61, 0.328891
2586.9, 0.328148
2588.2, 0.327870
2589.49, 0.327406
2590.78, 0.326431
2592.08, 0.325178
2593.37, 0.324342
2594.67, 0.325502
2595.97, 0.325456
2597.27, 0.323739
2598.57, 0.322299
2599.88, 0.321464
2601.18, 0.320907
2602.49, 0.320257
2603.79, 0.319329
2605.1, 0.319004
2606.41, 0.318447
2607.72, 0.317147
2609.03, 0.316172
2610.35, 0.315197
2611.66, 0.314083
2612.98, 0.313387
2614.3, 0.312273
2615.62, 0.311205
2616.94, 0.310926
2618.26, 0.309812
2619.58, 0.308327
2620.91, 0.307909
2622.23, 0.306145
2623.56, 0.304103
2624.89, 0.302106
2626.22, 0.300389
2627.55, 0.298393
2628.88, 0.295932
2630.21, 0.294354
2631.55, 0.292172
2632.89, 0.289062
2634.22, 0.286602
2635.56, 0.283585
2636.9, 0.280660
2638.25, 0.277875
2639.59, 0.274997
2640.93, 0.272304
2642.28, 0.269565
2643.63, 0.266502
2644.98, 0.263577
2646.33, 0.260421
2647.68, 0.257450
2649.03, 0.254525
2650.39, 0.251601
2651.74, 0.248583
2653.1, 0.245473
2654.46, 0.241759
2655.82, 0.237953
2657.18, 0.233497
2658.54, 0.229226
2659.9, 0.224816
2661.27, 0.219849
2662.64, 0.214464
2664.01, 0.209126
2665.38, 0.204019
2666.74, 0.198217
2668.12, 0.191811
2669.49, 0.185683
2670.87, 0.179509
2672.24, 0.172778
2673.62, 0.166001
2675.0, 0.159177
2676.38, 0.152167
2677.76, 0.145019
2679.15, 0.137313
2680.54, 0.129375
2681.92, 0.121437
2683.31, 0.113360
2684.7, 0.104725
2686.09, 0.0959050
2687.48, 0.0868530
2688.88, 0.0776160
2690.27, 0.0682390
2691.67, 0.0596040
2693.07, 0.0518060
2694.47, 0.0450280
2695.87, 0.0395510
2697.27, 0.0351870
2698.67, 0.0312880
2700.08, 0.0278520
2701.49, 0.0248820
2702.9, 0.0225600
2704.31, 0.0211680
2705.72, 0.0207040
2707.13, 0.0209360
2708.54, 0.0215390
2709.96, 0.0224210
2711.38, 0.0233960
2712.8, 0.0244170
2714.22, 0.0252990
2715.64, 0.0259490
2717.06, 0.0263210
2718.49, 0.0261350
2719.91, 0.0252060
2721.34, 0.0234890
2722.77, 0.0216320
2724.2, 0.0202390
2725.63, 0.0198680
2727.07, 0.0203320
2728.5, 0.0211210
2729.94, 0.0218180
2731.38, 0.0215390
2732.82, 0.0204250
2734.26, 0.0193570
2735.7, 0.0189860
2737.15, 0.0191250
2738.59, 0.0201470
2740.04, 0.0223750
2741.49, 0.0252990
2742.94, 0.0281310
2744.39, 0.0309160
2745.84, 0.0334690
2747.3, 0.0355580
2748.76, 0.0365800
2750.21, 0.0361620
2751.67, 0.0343050
2753.14, 0.0312410
2754.6, 0.0272030
2756.06, 0.0220960
2757.53, 0.0170360
2759.0, 0.0134620
2760.46, 0.0125800
2761.94, 0.0154120
2763.41, 0.0218180
2764.88, 0.0304520
2766.36, 0.0394110
2767.83, 0.0478130
2769.31, 0.0554730
2770.79, 0.0632250
2772.27, 0.0704670
2773.76, 0.0765480
2775.24, 0.0815150
2776.73, 0.0855530
2778.22, 0.0888960
2779.71, 0.0926090
2781.2, 0.0964620
2782.69, 0.100083
2784.18, 0.103101
2785.68, 0.106118
2787.18, 0.108903
2788.68, 0.110992
2790.18, 0.112802
2791.68, 0.114984
2793.19, 0.117445
2794.69, 0.119951
2796.2, 0.121901
2797.71, 0.123897
2799.22, 0.125754
2800.73, 0.127611
2802.24, 0.129375
2803.76, 0.131046
2805.28, 0.132299
2806.8, 0.133413
2808.32, 0.134249
2809.84, 0.135084
2811.36, 0.135827
2812.89, 0.136524
2814.42, 0.137127
2815.94, 0.137730
2817.48, 0.138287
2819.01, 0.139169
2820.54, 0.139634
2822.08, 0.140005
2823.61, 0.140516
2825.15, 0.141212
2826.69, 0.141769
2828.23, 0.142512
2829.78, 0.143115
2831.32, 0.143487
2832.87, 0.143719
2834.42, 0.144322
2835.97, 0.144879
2837.52, 0.145390
2839.08, 0.145668
2840.63, 0.145901
2842.19, 0.146040
2843.75, 0.146225
2845.31, 0.146550
2846.87, 0.147061
2848.44, 0.147386
2850.0, 0.147618
2851.57, 0.147897
2853.14, 0.148454
2854.71, 0.149150
2856.28, 0.149893
2857.86, 0.150543
2859.43, 0.151239
2861.01, 0.152167
2862.59, 0.152956
2864.17, 0.153653
2865.76, 0.154396
2867.34, 0.154953
2868.93, 0.155463
2870.52, 0.156252
2872.11, 0.157088
2873.7, 0.157691
2875.29, 0.158248
2876.89, 0.158666
2878.49, 0.159084
2880.08, 0.159734
2881.69, 0.160477
2883.29, 0.160987
2884.89, 0.161591
2886.5, 0.162194
2888.11, 0.162891
2889.72, 0.163494
2891.33, 0.164237
2892.94, 0.164933
2894.56, 0.165583
2896.17, 0.166233
2897.79, 0.166929
2899.42, 0.167765
2901.04, 0.168554
2902.66, 0.169111
2904.29, 0.169436
2905.92, 0.169436
2907.55, 0.169389
2909.18, 0.169482
2910.81, 0.169807
2912.45, 0.170782
2914.08, 0.172268
2915.72, 0.173892
2917.36, 0.175795
2919.01, 0.177652
2920.65, 0.179091
2922.3, 0.180345
2923.94, 0.181644
2925.59, 0.183037
2927.25, 0.184476
2928.9, 0.185730
2930.56, 0.186983
2932.21, 0.188236
2933.87, 0.189397
2935.53, 0.190464
2937.2, 0.191393
2938.86, 0.192321
2940.53, 0.193296
2942.2, 0.194178
2943.87, 0.194921
2945.54, 0.195664
2947.22, 0.196592
2948.89, 0.197288
2950.57, 0.198031
2952.25, 0.198820
2953.93, 0.199609
2955.62, 0.200166
2957.3, 0.200816
2958.99, 0.201513
2960.68, 0.202255
2962.37, 0.203044
2964.07, 0.203787
2965.76, 0.204437
2967.46, 0.205180
2969.16, 0.206062
2970.86, 0.206897
2972.56, 0.207408
2974.27, 0.208058
2975.98, 0.208661
2977.69, 0.209218
2979.4, 0.209961
2981.11, 0.210797
2982.83, 0.211586
2984.54, 0.212236
2986.26, 0.213025
2987.98, 0.213861
2989.71, 0.214557
2991.43, 0.215346
2993.16, 0.216274
2994.89, 0.217389
2996.62, 0.218178
2998.35, 0.219013
3000.09, 0.219942
3001.83, 0.220870
3003.57, 0.221659
3005.31, 0.222402
3007.05, 0.223191
3008.79, 0.223980
3010.54, 0.224769
3012.29, 0.225512
3014.04, 0.226208
3015.8, 0.226951
3017.55, 0.227694
3019.31, 0.228483
3021.07, 0.229226
3022.83, 0.230061
3024.59, 0.230665
3026.36, 0.231454
3028.13, 0.232057
3029.9, 0.232707
3031.67, 0.233311
3033.44, 0.233961
3035.22, 0.234518
3037.0, 0.235168
3038.78, 0.235725
3040.56, 0.236235
3042.34, 0.236885
3044.13, 0.237674
3045.92, 0.238417
3047.71, 0.239021
3049.5, 0.239624
3051.3, 0.240228
3053.09, 0.240831
3054.89, 0.241388
3056.69, 0.241899
3058.5, 0.242409
3060.3, 0.242827
3062.11, 0.243291
3063.92, 0.243895
3065.73, 0.244498
3067.55, 0.245055
3069.36, 0.245566
3071.18, 0.246030
3073.0, 0.246634
3074.82, 0.247144
3076.65, 0.247701
3078.48, 0.248165
3080.31, 0.248769
3082.14, 0.249372
3083.97, 0.249837
3085.8, 0.250254
3087.64, 0.250904
3089.48, 0.251508
3091.33, 0.251972
3093.17, 0.252483
3095.02, 0.253040
3096.87, 0.253643
3098.72, 0.254339
3100.57, 0.255036
3102.43, 0.255686
3104.28, 0.256475
3106.14, 0.257310
3108.01, 0.258053
3109.87, 0.258842
3111.74, 0.259631
3113.61, 0.260560
3115.48, 0.261395
3117.35, 0.262231
3119.23, 0.263113
3121.1, 0.263995
3122.98, 0.264877
3124.87, 0.265713
3126.75, 0.266687
3128.64, 0.267616
3130.53, 0.268544
3132.42, 0.269473
3134.31, 0.270355
3136.21, 0.271376
3138.11, 0.272351
3140.01, 0.273326
3141.91, 0.274300
3143.82, 0.275229
3145.73, 0.276111
3147.64, 0.277039
3149.55, 0.278014
3151.46, 0.278942
3153.38, 0.279778
3155.3, 0.280706
3157.22, 0.281588
3159.14, 0.282238
3161.07, 0.282935
3163.0, 0.283909
3164.93, 0.284838
3166.86, 0.285627
3168.8, 0.286416
3170.74, 0.287252
3172.68, 0.287995
3174.62, 0.288691
3176.56, 0.289480
3178.51, 0.290455
3180.46, 0.291290
3182.42, 0.292080
3184.37, 0.292915
3186.33, 0.293844
3188.29, 0.294772
3190.25, 0.295515
3192.21, 0.296257
3194.18, 0.297093
3196.15, 0.297929
3198.12, 0.298857
3200.09, 0.299646
3202.07, 0.300528
3204.05, 0.301549
3206.03, 0.302339
3208.02, 0.303081
3210.0, 0.303870
3211.99, 0.304660
3213.98, 0.305495
3215.98, 0.306470
3217.97, 0.307352
3219.97, 0.308188
3221.97, 0.309116
3223.98, 0.309766
3225.98, 0.310276
3227.99, 0.311205
3230.0, 0.312180
3232.02, 0.313062
3234.03, 0.313851
3236.05, 0.314594
3238.07, 0.315336
3240.1, 0.315986
3242.12, 0.316636
3244.15, 0.317379
3246.18, 0.318214
3248.22, 0.319004
3250.25, 0.319746
3252.29, 0.320396
3254.33, 0.321093
3256.38, 0.321742
3258.43, 0.322439
3260.47, 0.323135
3262.53, 0.323831
3264.58, 0.324667
3266.64, 0.325456
3268.7, 0.326013
3270.76, 0.326802
3272.82, 0.327499
3274.89, 0.328148
3276.96, 0.328938
3279.04, 0.329820
3281.11, 0.330655
3283.19, 0.331212
3285.27, 0.331909
3287.35, 0.332744
3289.44, 0.333440
3291.53, 0.334183
3293.62, 0.335112
3295.71, 0.335994
3297.81, 0.336876
3299.91, 0.337618
3302.01, 0.338315
3304.11, 0.339057
3306.22, 0.339893
3308.33, 0.340729
3310.44, 0.341471
3312.56, 0.342168
3314.68, 0.342864
3316.8, 0.343467
3318.92, 0.344024
3321.05, 0.344674
3323.18, 0.345417
3325.31, 0.346113
3327.44, 0.346763
3329.58, 0.347367
3331.72, 0.348156
3333.86, 0.348945
3336.01, 0.349734
3338.16, 0.350384
3340.31, 0.350848
3342.46, 0.351359
3344.61, 0.352194
3346.77, 0.352798
3348.94, 0.353355
3351.1, 0.353958
3353.27, 0.354562
3355.44, 0.355119
3357.61, 0.355490
3359.79, 0.355955
3361.97, 0.356465
3364.15, 0.356836
3366.33, 0.357161
3368.52, 0.357579
3370.71, 0.358090
3372.9, 0.358554
3375.1, 0.358925
3377.3, 0.359297
3379.5, 0.359761
3381.71, 0.360318
3383.91, 0.360829
3386.12, 0.361479
3388.34, 0.362268
3390.55, 0.362918
3392.77, 0.363475
3394.99, 0.363985
3397.22, 0.364450
3399.45, 0.364821
3401.68, 0.364914
3403.91, 0.364960
3406.15, 0.365146
3408.39, 0.365239
3410.63, 0.365471
3412.87, 0.365749
3415.12, 0.366074
3417.37, 0.366678
3419.63, 0.367560
3421.88, 0.368859
3424.14, 0.370345
3426.41, 0.371830
3428.67, 0.373362
3430.94, 0.374662
3433.21, 0.375823
3435.49, 0.376844
3437.77, 0.377912
3440.05, 0.378840
3442.33, 0.379676
3444.62, 0.380511
3446.91, 0.381393
3449.2, 0.382229
3451.5, 0.383111
3453.8, 0.383946
3456.1, 0.384735
3458.41, 0.385525
3460.72, 0.386128
3463.03, 0.386639
3465.34, 0.387289
3467.66, 0.387892
3469.98, 0.388449
3472.31, 0.388867
3474.63, 0.389192
3476.96, 0.389610
3479.3, 0.389842
3481.64, 0.390120
3483.97, 0.390631
3486.32, 0.391049
3488.66, 0.391513
3491.01, 0.391699
3493.36, 0.391606
3495.72, 0.391420
3498.08, 0.391327
3500.44, 0.391559
3502.81, 0.392163
3505.18, 0.393091
3507.55, 0.394298
3509.92, 0.395551
3512.3, 0.396526
3514.68, 0.397501
3517.06, 0.398522
3519.45, 0.399497
3521.84, 0.400518
3524.24, 0.401400
3526.64, 0.402282
3529.04, 0.403025
3531.44, 0.403768
3533.85, 0.404418
3536.26, 0.405021
3538.67, 0.405625
3541.09, 0.406135
3543.51, 0.406553
3545.93, 0.406925
3548.36, 0.407249
3550.79, 0.407621
3553.22, 0.408085
3555.66, 0.408456
3558.1, 0.408642
3560.54, 0.408921
3562.99, 0.409106
3565.44, 0.409246
3567.9, 0.409431
3570.35, 0.409663
3572.81, 0.409756
3575.28, 0.409849
3577.75, 0.410081
3580.22, 0.410313
3582.69, 0.410638
3585.17, 0.411010
3587.65, 0.411288
3590.14, 0.411613
3592.62, 0.411892
3595.11, 0.412309
3597.61, 0.412634
3600.11, 0.413052
3602.61, 0.413423
3605.11, 0.413888
3607.62, 0.414213
3610.14, 0.414584
3612.65, 0.415048
3615.17, 0.415466
3617.69, 0.415930
3620.22, 0.416394
3622.75, 0.416859
3625.28, 0.417230
3627.82, 0.417601
3630.36, 0.417973
3632.9, 0.418298
3635.45, 0.418576
3638.0, 0.418901
3640.56, 0.419180
3643.12, 0.419365
3645.68, 0.419551
3648.24, 0.419737
3650.81, 0.419829
3653.39, 0.419783
3655.96, 0.419737
3658.54, 0.419505
3661.13, 0.419272
3663.71, 0.419087
3666.3, 0.418762
3668.9, 0.418205
3671.5, 0.417555
3674.1, 0.416394
3676.7, 0.414955
3679.31, 0.413238
3681.93, 0.411056
3684.54, 0.408688
3687.17, 0.406600
3689.79, 0.404975
3692.42, 0.404000
3695.05, 0.403722
3697.69, 0.404232
3700.32, 0.405532
3702.97, 0.407528
3705.61, 0.410128
3708.27, 0.413145
3710.92, 0.416302
3713.58, 0.419365
3716.24, 0.421872
3718.91, 0.423915
3721.58, 0.425539
3724.25, 0.426885
3726.93, 0.427953
3729.61, 0.428882
3732.29, 0.429485
3734.98, 0.429717
3737.67, 0.429207
3740.37, 0.427443
3743.07, 0.426839
3745.78, 0.429903
3748.49, 0.433106
3751.2, 0.434823
3753.91, 0.435798
3756.63, 0.436495
3759.36, 0.437052
3762.09, 0.437516
3764.82, 0.437934
3767.55, 0.438444
3770.29, 0.438816
3773.04, 0.439094
3775.78, 0.439465
3778.54, 0.439744
3781.29, 0.440023
3784.05, 0.440347
3786.82, 0.440580
3789.59, 0.440858
3792.36, 0.441090
3795.13, 0.441322
3797.92, 0.441508
3800.7, 0.441787
3803.49, 0.442019
3806.28, 0.442204
3809.08, 0.442390
3811.88, 0.442808
3814.68, 0.442993
3817.49, 0.443133
3820.31, 0.443318
3823.12, 0.443551
3825.94, 0.443597
3828.77, 0.443736
3831.6, 0.443968
3834.43, 0.444061
3837.27, 0.444108
3840.11, 0.444340
3842.96, 0.444479
3845.81, 0.444525
3848.67, 0.444479
3851.53, 0.444618
3854.39, 0.444665
3857.26, 0.444665
3860.13, 0.444665
3863.01, 0.444804
3865.89, 0.444804
3868.77, 0.444757
3871.66, 0.444711
3874.55, 0.444711
3877.45, 0.444665
3880.35, 0.444618
3883.26, 0.444618
3886.17, 0.444572
3889.09, 0.444479
3892.01, 0.444479
3894.93, 0.444433
3897.86, 0.444293
3900.79, 0.444200
3903.73, 0.444015
3906.67, 0.443922
3909.62, 0.443875
3912.57, 0.443736
3915.52, 0.443690
3918.48, 0.443551
3921.45, 0.443365
3924.42, 0.443226
3927.39, 0.443040
3930.37, 0.442901
3933.35, 0.442761
3936.34, 0.442576
3939.33, 0.442436
3942.32, 0.442204
3945.32, 0.442019
3948.33, 0.441879
3951.34, 0.441740
3954.35, 0.441601
3957.37, 0.441508
3960.39, 0.441276
3963.42, 0.441090
3966.45, 0.441044
3969.49, 0.440997
3972.53, 0.440765
3975.58, 0.440580
3978.63, 0.440347
3981.68, 0.440162
3984.75, 0.440023
3987.81, 0.439837
3990.88, 0.439698
3993.95, 0.439605
3997.03, 0.439465
4000.12, 0.439280
4003.21, 0.438955
4006.3, 0.438723
4009.4, 0.438537
4012.5, 0.438351
4015.61, 0.438026
4018.72, 0.437701
4021.84, 0.437423
4024.96, 0.437144
4028.09, 0.436819
4031.22, 0.436541
4034.36, 0.436170
4037.5, 0.435938
4040.65, 0.435613
4043.8, 0.435241
4046.96, 0.434823
4050.12, 0.434545
4053.29, 0.434220
4056.46, 0.433802
4059.64, 0.433338
4062.82, 0.432967
4066.0, 0.432549
4069.19, 0.432177
4072.39, 0.431806
4075.59, 0.431481
4078.8, 0.431063
4082.01, 0.430738
4085.23, 0.430321
4088.45, 0.429903
4091.68, 0.429485
4094.91, 0.429160
4098.15, 0.428742
4101.39, 0.428417
4104.63, 0.428092
4107.89, 0.427767
4111.14, 0.427396
4114.41, 0.427118
4117.67, 0.426653
4120.95, 0.426282
4124.23, 0.425911
4127.51, 0.425586
4130.8, 0.425168
4134.09, 0.424843
4137.39, 0.424425
4140.7, 0.424007
4144.01, 0.423682
4147.32, 0.423404
4150.64, 0.423033
4153.97, 0.422708
4157.3, 0.422336
4160.64, 0.421965
4163.98, 0.421547
4167.33, 0.421176
4170.68, 0.420944
4174.04, 0.420619
4177.4, 0.420247
4180.77, 0.419876
4184.14, 0.419458
4187.52, 0.419133
4190.91, 0.418808
4194.3, 0.418437
4197.69, 0.418158
4201.1, 0.417787
4204.5, 0.417369
4207.92, 0.417044
4211.34, 0.416626
4214.76, 0.416302
4218.19, 0.415977
4221.62, 0.415605
4225.06, 0.415095
4228.51, 0.414677
4231.96, 0.414166
4235.42, 0.413563
4238.88, 0.412866
4242.35, 0.412263
4245.83, 0.411567
4249.31, 0.410777
4252.79, 0.409803
4256.28, 0.408688
4259.78, 0.407621
4263.29, 0.406692
4266.79, 0.405996
4270.31, 0.405857
4273.83, 0.405950
4277.35, 0.406228
4280.89, 0.406414
4284.42, 0.406553
4287.97, 0.406553
4291.52, 0.406600
4295.07, 0.406414
4298.63, 0.406182
4302.2, 0.405857
4305.78, 0.405532
4309.35, 0.405068
4312.94, 0.404696
4316.53, 0.404232
4320.13, 0.403722
4323.73, 0.403118
4327.34, 0.402515
4330.96, 0.401865
4334.58, 0.401261
4338.21, 0.400658
4341.84, 0.400008
4345.48, 0.399358
4349.12, 0.398801
4352.77, 0.398151
4356.43, 0.397594
4360.1, 0.397037
4363.76, 0.396619
4367.44, 0.396201
4371.12, 0.395737
4374.81, 0.395319
4378.51, 0.394948
4382.21, 0.394623
4385.92, 0.394205
4389.63, 0.393602
4393.35, 0.393091
4397.08, 0.392673
4400.81, 0.392209
4404.55, 0.391652
4408.29, 0.391049
4412.04, 0.390445
4415.8, 0.389981
4419.57, 0.389563
4423.34, 0.389238
4427.12, 0.388635
4430.9, 0.388124
4434.69, 0.387660
4438.49, 0.387149
4442.29, 0.386592
4446.1, 0.386035
4449.92, 0.385339
4453.74, 0.384596
4457.57, 0.383621
4461.41, 0.382507
4465.25, 0.381300
4469.1, 0.380000
4472.95, 0.378561
4476.82, 0.377122
4480.69, 0.375915
4484.56, 0.374894
4488.44, 0.374012
4492.33, 0.373316
4496.23, 0.372712
4500.13, 0.372202
4504.04, 0.371738
4507.96, 0.371413
4511.88, 0.371041
4515.81, 0.370809
4519.75, 0.370577
4523.69, 0.370438
4527.65, 0.370159
4531.6, 0.369881
4535.57, 0.369509
4539.54, 0.368999
4543.52, 0.368210
4547.5, 0.367281
4551.5, 0.366306
4555.5, 0.365239
4559.5, 0.363985
4563.52, 0.362686
4567.54, 0.361293
4571.56, 0.359993
4575.6, 0.358600
4579.64, 0.357254
4583.69, 0.355815
4587.75, 0.354144
4591.81, 0.352427
4595.88, 0.350755
4599.96, 0.348806
4604.04, 0.346670
4608.14, 0.344396
4612.24, 0.342121
4616.34, 0.339707
4620.46, 0.337293
4624.58, 0.334787
4628.71, 0.332373
4632.84, 0.329912
4636.99, 0.327591
4641.14, 0.325270
4645.3, 0.323089
4649.47, 0.321046
4653.64, 0.319236
4657.82, 0.317657
4662.01, 0.316311
4666.21, 0.315336
4670.41, 0.314686
4674.62, 0.314176
4678.84, 0.313758
4683.07, 0.313433
4687.3, 0.313201
4691.54, 0.312830
4695.79, 0.312598
4700.05, 0.312458
4704.31, 0.312365
4708.59, 0.312180
4712.87, 0.312040
4717.15, 0.311808
4721.45, 0.311669
4725.76, 0.311437
4730.07, 0.311158
4734.39, 0.310787
4738.72, 0.310369
4743.05, 0.310137
4747.39, 0.309812
4751.75, 0.309255
4756.1, 0.308652
4760.47, 0.308002
4764.85, 0.307166
4769.23, 0.306284
4773.62, 0.305217
4778.02, 0.303963
4782.43, 0.302663
4786.85, 0.301224
4791.27, 0.299832
4795.7, 0.298254
4800.14, 0.296629
4804.59, 0.294818
4809.05, 0.293054
4813.51, 0.291151
4817.99, 0.289248
4822.47, 0.287391
4826.96, 0.285534
4831.46, 0.283770
4835.96, 0.282146
4840.48, 0.280521
4845.0, 0.278942
4849.54, 0.277318
4854.08, 0.275832
4858.63, 0.274347
4863.18, 0.272861
4867.75, 0.271329
4872.33, 0.269798
4876.91, 0.268219
4881.5, 0.266502
4886.1, 0.264970
4890.71, 0.263577
4895.33, 0.262277
4899.96, 0.260978
4904.59, 0.259910
4909.24, 0.258982
4913.89, 0.258146
4918.55, 0.257264
4923.22, 0.256382
4927.9, 0.255407
4932.59, 0.254200
4937.29, 0.253040
4942.0, 0.251693
4946.71, 0.250115
4951.44, 0.248351
4956.17, 0.246448
4960.91, 0.244452
4965.67, 0.242270
4970.43, 0.239949
4975.2, 0.237582
4979.98, 0.235353
4984.76, 0.233172
4989.56, 0.230990
4994.37, 0.228854
4999.18, 0.226719
5004.01, 0.224584
5008.84, 0.222263
5013.69, 0.219849
5018.54, 0.217342
5023.4, 0.214789
5028.28, 0.212004
5033.16, 0.209033
5038.05, 0.205969
5042.95, 0.202952
5047.86, 0.199749
5052.78, 0.196313
5057.71, 0.192878
5062.65, 0.189397
5067.6, 0.185915
5072.56, 0.182526
5077.53, 0.179138
5082.5, 0.175795
5087.49, 0.172407
5092.49, 0.169064
5097.5, 0.165861
5102.51, 0.162705
5107.54, 0.159502
5112.58, 0.156484
5117.62, 0.153746
5122.68, 0.151192
5127.75, 0.148918
5132.82, 0.146922
5137.91, 0.145158
5143.01, 0.143672
5148.12, 0.142419
5153.23, 0.141212
5158.36, 0.140144
5163.5, 0.139309
5168.65, 0.138659
5173.81, 0.138195
5178.98, 0.138009
5184.15, 0.138055
5189.34, 0.138148
5194.54, 0.138473
5199.75, 0.138937
5204.98, 0.139402
5210.21, 0.139912
5215.45, 0.140516
5220.7, 0.141166
5225.96, 0.141908
5231.23, 0.142697
5236.52, 0.143579
5241.81, 0.144461
5247.12, 0.145390
5252.44, 0.146411
5257.76, 0.147432
5263.1, 0.148500
5268.45, 0.149428
5273.81, 0.150218
5279.18, 0.150868
5284.56, 0.151332
5289.95, 0.151657
5295.36, 0.151796
5300.77, 0.151703
5306.2, 0.151471
5311.63, 0.151053
5317.08, 0.150543
5322.54, 0.149939
5328.01, 0.149243
5333.49, 0.148361
5338.98, 0.147386
5344.49, 0.146411
5350.0, 0.145390
5355.53, 0.144044
5361.07, 0.142558
5366.62, 0.141026
5372.18, 0.139355
5377.75, 0.137684
5383.34, 0.135920
5388.93, 0.134063
5394.54, 0.132253
5400.16, 0.130535
5405.79, 0.128957
5411.44, 0.127332
5417.09, 0.125707
5422.76, 0.124176
5428.43, 0.122458
5434.12, 0.120648
5439.83, 0.118884
5445.54, 0.116934
5451.26, 0.114845
5457.0, 0.112663
5462.75, 0.110435
5468.52, 0.108300
5474.29, 0.106629
5480.08, 0.105468
5485.88, 0.105050
5491.69, 0.105468
5497.51, 0.106768
5503.35, 0.108810
5509.2, 0.111456
5515.06, 0.114427
5520.93, 0.117630
5526.82, 0.120880
5532.71, 0.124083
5538.63, 0.127007
5544.55, 0.129746
5550.49, 0.132253
5556.44, 0.134388
5562.4, 0.136106
5568.37, 0.137405
5574.36, 0.138520
5580.36, 0.139494
5586.37, 0.139866
5592.4, 0.139819
5598.44, 0.139727
5604.49, 0.139402
5610.56, 0.138752
5616.63, 0.137963
5622.73, 0.137127
5628.83, 0.136106
5634.95, 0.135084
5641.08, 0.133970
5647.23, 0.132717
5653.39, 0.131556
5659.56, 0.130442
5665.74, 0.129328
5671.94, 0.128539
5678.15, 0.127982
5684.38, 0.127518
5690.62, 0.127193
5696.87, 0.127054
5703.14, 0.127100
5709.42, 0.127425
5715.72, 0.127518
5722.03, 0.127611
5728.35, 0.127796
5734.69, 0.127982
5741.03, 0.127982
5747.4, 0.127843
5753.78, 0.127518
5760.17, 0.127239
5766.58, 0.127147
5773.0, 0.126636
5779.44, 0.125986
5785.88, 0.125522
5792.35, 0.125197
5798.83, 0.125058
5805.32, 0.125011
5811.83, 0.125011
5818.35, 0.125383
5824.89, 0.125847
5831.45, 0.126032
5838.01, 0.126172
5844.59, 0.126357
5851.19, 0.126775
5857.8, 0.127286
5864.43, 0.127750
5871.07, 0.127982
5877.73, 0.128446
5884.4, 0.128678
5891.09, 0.128446
5897.79, 0.128400
5904.5, 0.127936
5911.23, 0.127379
5917.98, 0.126822
5924.75, 0.126079
5931.53, 0.125429
5938.32, 0.124733
5945.13, 0.123711
5951.96, 0.122644
5958.8, 0.121576
5965.65, 0.120694
5972.53, 0.119626
5979.42, 0.118234
5986.32, 0.116934
5993.24, 0.115402
6000.18, 0.113777
6007.13, 0.112245
6014.1, 0.110667
6021.08, 0.108903
6028.09, 0.107046
6035.1, 0.105236
6042.14, 0.103890
6049.19, 0.102822
6056.25, 0.101569
6063.34, 0.100455
6070.44, 0.0998510
6077.55, 0.0992010
6084.69, 0.0985980
6091.84, 0.0981340
6099.0, 0.0978090
6106.19, 0.0976230
6113.39, 0.0975760
6120.61, 0.0972980
6127.84, 0.0971120
6135.09, 0.0972980
6142.36, 0.0978550
6149.65, 0.0987370
6156.95, 0.100130
6164.27, 0.101847
6171.61, 0.103565
6178.97, 0.105514
6186.34, 0.107650
6193.73, 0.109275
6201.14, 0.110667
6208.57, 0.112199
6216.01, 0.113499
6223.47, 0.114613
6230.95, 0.115681
6238.45, 0.116563
6245.97, 0.117305
6253.5, 0.117909
6261.06, 0.118327
6268.63, 0.118698
6276.21, 0.118976
6283.82, 0.119023
6291.45, 0.119023
6299.1, 0.118930
6306.76, 0.118744
6314.44, 0.118605
6322.14, 0.118373
6329.86, 0.118094
6337.6, 0.117862
6345.35, 0.117723
6353.13, 0.117259
6360.92, 0.116748
6368.74, 0.116284
6376.57, 0.115634
6384.43, 0.114891
6392.3, 0.114056
6400.19, 0.113174
6408.1, 0.112570
6416.03, 0.111874
6423.98, 0.110574
6431.95, 0.109414
6439.94, 0.108346
6447.95, 0.107325
6455.98, 0.106350
6464.03, 0.105561
6472.1, 0.104957
6480.19, 0.104354
6488.31, 0.104029
6496.44, 0.103797
6504.59, 0.103240
6512.76, 0.102915
6520.95, 0.102868
6529.16, 0.102497
6537.4, 0.102033
6545.65, 0.101662
6553.92, 0.101104
6562.22, 0.100501
6570.54, 0.0998980
6578.88, 0.0990620
6587.23, 0.0979940
6595.61, 0.0970190
6604.02, 0.0959520
6612.44, 0.0950230
6620.89, 0.0940950
6629.35, 0.0933520
6637.84, 0.0926560
6646.35, 0.0916810
6654.88, 0.0907990
6663.44, 0.0901490
6672.01, 0.0895460
6680.61, 0.0890350
6689.23, 0.0883850
6697.88, 0.0877820
6706.54, 0.0872250
6715.23, 0.0865280
6723.94, 0.0856000
6732.67, 0.0846710
6741.42, 0.0837900
6750.2, 0.0829080
6759.0, 0.0818860
6767.82, 0.0809110
6776.67, 0.0799370
6785.54, 0.0791940
6794.44, 0.0783120
6803.35, 0.0773830
6812.29, 0.0767340
6821.26, 0.0763160
6830.24, 0.0759910
6839.25, 0.0757120
6848.29, 0.0755270
6857.35, 0.0755270
6866.43, 0.0753410
6875.54, 0.0748300
6884.67, 0.0745050
6893.82, 0.0742270
6903.0, 0.0739020
6912.2, 0.0733910
6921.43, 0.0728340
6930.69, 0.0721840
6939.96, 0.0713950
6949.27, 0.0706990
6958.59, 0.0698630
6967.95, 0.0689350
6977.33, 0.0681460
6986.73, 0.0674960
6996.16, 0.0667070
7005.61, 0.0658710
7015.09, 0.0649430
7024.6, 0.0639680
7034.13, 0.0629930
7043.69, 0.0621110
7053.27, 0.0611360
7062.88, 0.0602540
7072.52, 0.0594190
7082.18, 0.0585830
7091.87, 0.0577470
7101.58, 0.0568190
7111.32, 0.0560300
7121.09, 0.0552870
7130.88, 0.0544520
7140.71, 0.0536620
7150.56, 0.0527800
7160.43, 0.0519910
7170.33, 0.0512490
7180.27, 0.0505060
7190.23, 0.0496240
7200.21, 0.0488350
7210.23, 0.0480460
7220.27, 0.0472100
7230.34, 0.0464210
7240.44, 0.0456780
7250.56, 0.0448420
7260.72, 0.0439140
7270.9, 0.0429390
7281.12, 0.0422430
7291.36, 0.0414540
7301.63, 0.0405720
7311.93, 0.0397360
7322.25, 0.0390860
7332.61, 0.0384360
7343.0, 0.0377870
7353.41, 0.0370900
7363.86, 0.0363940
7374.33, 0.0357440
7384.83, 0.0351870
7395.37, 0.0346760
7405.93, 0.0341190
7416.53, 0.0336090
7427.15, 0.0332370
7437.81, 0.0326800
7448.5, 0.0321230
7459.22, 0.0315660
7469.96, 0.0310090
7480.74, 0.0304060
7491.55, 0.0298020
7502.39, 0.0291990
7513.27, 0.0286420
7524.17, 0.0280380
7535.11, 0.0273420
7546.08, 0.0266920
7557.08, 0.0260420
7568.11, 0.0253460
7579.17, 0.0247420
7590.27, 0.0241390
7601.4, 0.0235350
7612.56, 0.0228850
7623.76, 0.0223280
7634.98, 0.0218180
7646.24, 0.0212610
7657.54, 0.0206110
7668.87, 0.0200540
7680.23, 0.0196360
7691.62, 0.0192650
7703.05, 0.0187540
7714.51, 0.0182430
7726.01, 0.0177790
7737.54, 0.0173610
7749.11, 0.0168510
7760.71, 0.0163870
7772.35, 0.0157830
7784.02, 0.0151800
7795.72, 0.0146230
7807.46, 0.0141120
7819.23, 0.0135080
7831.04, 0.0130440
7842.89, 0.0125800
7854.77, 0.0120690
7866.69, 0.0115590
7878.65, 0.0111410
7890.64, 0.0108160
7902.67, 0.0103980
7914.74, 0.00993400
7926.84, 0.00965600
7938.98, 0.00923800
7951.16, 0.00886600
7963.37, 0.00854100
7975.62, 0.00830900
7987.91, 0.00807700
8000.24, 0.00789200
8012.6, 0.00756700
8025.01, 0.00733400
8037.45, 0.00701000
8049.93, 0.00668500
8062.45, 0.00649900
8075.01, 0.00636000
8087.61, 0.00608100
8100.24, 0.00594200
8112.91, 0.00580300
8125.63, 0.00571000
8138.39, 0.00566300
8151.18, 0.00561700
8164.02, 0.00552400
8176.9, 0.00552400
8189.81, 0.00547800
8202.77, 0.00547800
8215.77, 0.00552400
8228.82, 0.00571000
8241.9, 0.00575600
8255.02, 0.00589500
8268.19, 0.00603500
8281.39, 0.00617400
8294.65, 0.00626700
8307.94, 0.00659200
8321.28, 0.00691700
8334.66, 0.00728800
8348.08, 0.00765900
8361.54, 0.00803100
8375.05, 0.00849500
8388.6, 0.00919100
8402.2, 0.00984100
8415.84, 0.0106770
8429.52, 0.0115120
8443.25, 0.0123480
8457.02, 0.0131840
8470.84, 0.0143900
8484.7, 0.0155970
8498.61, 0.0167580
8512.57, 0.0180580
8526.57, 0.0194970
8540.62, 0.0210290
8554.71, 0.0227460
8568.85, 0.0245100
8583.04, 0.0265060
8597.27, 0.0285950
8611.55, 0.0308230
8625.88, 0.0333300
8640.26, 0.0358830
8654.68, 0.0388080
8669.16, 0.0421040
8683.68, 0.0454920
8698.25, 0.0491600
8712.87, 0.0531980
8727.53, 0.0574690
8742.25, 0.0617400
8757.02, 0.0659180
8771.83, 0.0697700
8786.7, 0.0732520
8801.62, 0.0760840
8816.59, 0.0780800
8831.61, 0.0789620
8846.68, 0.0786830
8861.8, 0.0772910
8876.97, 0.0747370
8892.2, 0.0705600
8907.48, 0.0644780
8922.81, 0.0568190
8938.2, 0.0485100
8953.63, 0.0404790
8969.13, 0.0333770
8984.67, 0.0277600
9000.27, 0.0247420
9015.92, 0.0246030
9031.63, 0.0268780
9047.39, 0.0307310
9063.21, 0.0354190
9079.08, 0.0404790
9095.01, 0.0458640
9111.0, 0.0510160
9127.04, 0.0559370
9143.13, 0.0604860
9159.28, 0.0651280
9175.49, 0.0699100
9191.76, 0.0745520
9208.09, 0.0790550
9224.47, 0.0832790
9240.92, 0.0870850
9257.42, 0.0902880
9273.98, 0.0928420
9290.6, 0.0947450
9307.28, 0.0959980
9324.02, 0.0964160
9340.82, 0.0960450
9357.68, 0.0953020
9374.6, 0.0943730
9391.58, 0.0939560
9408.62, 0.0937700
9425.73, 0.0933520
9442.9, 0.0926560
9460.13, 0.0913560
9477.42, 0.0898710
9494.78, 0.0881530
9512.2, 0.0862960
9529.69, 0.0843930
9547.24, 0.0822580
9564.86, 0.0802620
9582.54, 0.0782650
9600.28, 0.0760840
9618.1, 0.0736230
9635.97, 0.0710700
9653.92, 0.0680990
9671.93, 0.0644780
9690.01, 0.0603930
9708.16, 0.0556590
9726.37, 0.0505060
9744.65, 0.0454000
9763.0, 0.0406650
9781.43, 0.0372290
9799.92, 0.0354650
9818.48, 0.0357900
9837.1, 0.0379720
9855.8, 0.0412680
9874.58, 0.0447030
9893.42, 0.0476280
9912.34, 0.0494850
9931.33, 0.0498090
9950.39, 0.0487420
9969.52, 0.0468390
9988.74, 0.0448890
10008.0, 0.0434960
10027.4, 0.0423360
10046.8, 0.0415470
10066.3, 0.0408040
10085.9, 0.0399680
10105.6, 0.0393180
10125.3, 0.0387150
10145.1, 0.0380650
10165.0, 0.0372760
10185.0, 0.0363940
10205.0, 0.0353730
10225.2, 0.0340730
10245.4, 0.0325410
10265.7, 0.0307770
10286.0, 0.0288270
10306.5, 0.0270170
10327.0, 0.0252990
10347.6, 0.0236750
10368.3, 0.0220500
10389.1, 0.0205180
10409.9, 0.0191250
10430.9, 0.0176860
10451.9, 0.0163400
10473.0, 0.0151330
10494.2, 0.0141580
10515.5, 0.0134620
10536.9, 0.0134160
10558.4, 0.0139730
10579.9, 0.0151800
10601.5, 0.0168970
10623.3, 0.0184750
10645.1, 0.0193570
10667.0, 0.0199150
10689.0, 0.0199150
10711.1, 0.0194970
10733.2, 0.0193110
10755.5, 0.0194500
10777.9, 0.0199150
10800.3, 0.0210290
10822.9, 0.0225600
10845.5, 0.0242780
10868.2, 0.0259030
10891.1, 0.0271560
10914.0, 0.0282700
10937.0, 0.0296160
10960.2, 0.0307770
10983.4, 0.0315660
11006.7, 0.0319370
11030.1, 0.0319370
11053.6, 0.0320770
11077.3, 0.0324480
11101.0, 0.0329120
11124.8, 0.0335160
11148.7, 0.0341660
11172.7, 0.0350480
11196.9, 0.0360230
11221.1, 0.0367650
11245.4, 0.0372760
11269.9, 0.0382040
11294.4, 0.0389010
11319.1, 0.0392720
11343.9, 0.0395970
11368.8, 0.0401080
11393.7, 0.0405250
11418.8, 0.0410360
11444.0, 0.0413610
11469.4, 0.0416390
11494.8, 0.0418250
11520.3, 0.0417790
11546.0, 0.0418250
11571.8, 0.0418720
11597.7, 0.0417790
11623.7, 0.0416860
11649.8, 0.0413140
11676.0, 0.0408500
11702.4, 0.0403860
11728.9, 0.0399680
11755.5, 0.0394580
11782.2, 0.0389470
11809.0, 0.0382970
11836.0, 0.0376470
11863.0, 0.0369510
11890.3, 0.0359760
11917.6, 0.0350010
11945.0, 0.0340730
11972.6, 0.0329120
12000.4, 0.0317520
12028.2, 0.0306380
12056.2, 0.0296630
12084.3, 0.0287810
12112.5, 0.0277600
12140.9, 0.0264600
12169.4, 0.0252990
12198.0, 0.0239070
12226.8, 0.0226070
12255.7, 0.0211680
12284.7, 0.0197290
12313.9, 0.0179650
12343.2, 0.0162010
12372.7, 0.0145760
12402.3, 0.0130910
12432.0, 0.0117440
12461.9, 0.0109090
12491.9, 0.0105380
12522.1, 0.0108620
12552.4, 0.0113730
12582.9, 0.0119770
12613.5, 0.0123940
12644.3, 0.0126730
12675.2, 0.0128120
12706.3, 0.0134620
12737.5, 0.0140650
12768.9, 0.0142980
12800.4, 0.0145760
12832.1, 0.0146690
12863.9, 0.0144830
12895.9, 0.0142980
12928.1, 0.0140650
12960.4, 0.0139260
12992.9, 0.0134160
13025.5, 0.0126260
13058.3, 0.0123480
13091.3, 0.0120230
13124.4, 0.0115120
13157.8, 0.0112340
13191.2, 0.0110950
13224.9, 0.0108160
13258.7, 0.0104910
13292.7, 0.0103520
13326.9, 0.0101660
13361.2, 0.0100270
13395.7, 0.0101660
13430.4, 0.0103050
13465.3, 0.0102590
13500.4, 0.0102130
13535.7, 0.00979500
13571.1, 0.00974800
13606.7, 0.00965600
13642.5, 0.00923800
13678.5, 0.00863400
13714.7, 0.00835600
13751.1, 0.00793800
13787.6, 0.00747400
13824.4, 0.00701000
13861.4, 0.00687000
13898.5, 0.00691700
13935.9, 0.00663800
13973.5, 0.00645200
14011.2, 0.00659200
14049.2, 0.00687000
14087.4, 0.00742700
14125.8, 0.00789200
14164.3, 0.00858800
14203.2, 0.00933100
14242.2, 0.00960900
14281.4, 0.0101200
14320.9, 0.0108620
14360.5, 0.0112340
14400.4, 0.0115120
14440.5, 0.0114200
14480.9, 0.0115120
14521.4, 0.0117440
14562.2, 0.0120230
14603.3, 0.0120690
14644.5, 0.0121160
14686.0, 0.0120690
14727.7, 0.0121620
14769.7, 0.0120230
14811.9, 0.0118840
14854.3, 0.0119770
14897.0, 0.0124870
14939.9, 0.0125800
14983.1, 0.0124410
15026.5, 0.0124410
15070.2, 0.0127190
15114.2, 0.0127660
15158.3, 0.0132300
15202.8, 0.0134160
15247.5, 0.0135080
15292.5, 0.0136480
15337.7, 0.0139730
15383.2, 0.0141120
15429.0, 0.0143900
15475.1, 0.0147150
15521.4, 0.0154580
15568.0, 0.0155970
15614.9, 0.0160150
15662.1, 0.0167580
15709.6, 0.0172220
15757.3, 0.0177790
15805.4, 0.0185680
15853.7, 0.0192650
15902.3, 0.0205640
15951.2, 0.0221430
16000.5, 0.0240460
16050.0, 0.0260880
16099.8, 0.0285950
16150.0, 0.0313800
16200.5, 0.0342590
16251.3, 0.0369970
16302.4, 0.0395970
16353.8, 0.0416860
16405.5, 0.0436360
16457.6, 0.0448890
16510.0, 0.0451210
16562.8, 0.0453530
16615.9, 0.0468390
16669.3, 0.0491130
16723.1, 0.0515730
16777.2, 0.0543590
16831.7, 0.0574230
16886.5, 0.0601150
16941.7, 0.0619720
16997.2, 0.0635500
17053.1, 0.0656390
17109.4, 0.0677280
17166.1, 0.0701420
17223.1, 0.0722310
17280.5, 0.0737160
17338.3, 0.0752950
17396.5, 0.0771050
17455.1, 0.0780800
17514.0, 0.0789620
17573.4, 0.0802150
17633.2, 0.0800290
17693.4, 0.0786830
17754.0, 0.0779870
17815.0, 0.0775230
17876.4, 0.0773370
17938.3, 0.0769660
18000.5, 0.0766870
18063.3, 0.0759910
18126.4, 0.0754340
18190.0, 0.0747370
18254.1, 0.0739480
18318.6, 0.0730200
18383.5, 0.0715810
18449.0, 0.0697240
18514.9, 0.0680060
18581.2, 0.0661030
18648.0, 0.0637360
18715.4, 0.0611360
18783.2, 0.0591400
18851.5, 0.0567730
18920.3, 0.0544980
18989.6, 0.0518980
19059.4, 0.0499490
19129.7, 0.0473490
19200.6, 0.0452140
19272.0, 0.0430320
19343.9, 0.0408970
19416.3, 0.0385290
19489.3, 0.0360690
19562.8, 0.0345370
19637.0, 0.0322620
19711.6, 0.0308230
19786.8, 0.0295700
19862.6, 0.0268310
19939.0, 0.0250670
20016.0, 0.0239070
20093.6, 0.0222820
20171.8, 0.0197750
20250.6, 0.0183360
20330.0, 0.0182900
20410.0, 0.0209360
20490.7, 0.0258560
20572.0, 0.0329120
20654.0, 0.0410820
20736.6, 0.0504130
20819.9, 0.0583510
20903.8, 0.0622040
20988.5, 0.0648030
21073.8, 0.0670780
21159.8, 0.0678210
21246.5, 0.0682850
21334.0, 0.0670320
21422.1, 0.0652680
21511.0, 0.0624820
21600.7, 0.0589080
21691.0, 0.0558440
21782.1, 0.0530590
21874.0, 0.0492990
21966.7, 0.0465600
22060.2, 0.0436360
22154.5, 0.0415930
22249.6, 0.0408970
22345.5, 0.0391330
22442.2, 0.0369050
22539.8, 0.0356510
22638.2, 0.0348160
22737.5, 0.0370440
22837.7, 0.0408970
22938.7, 0.0447960
23040.7, 0.0476280
23143.5, 0.0506910
23247.3, 0.0540340
23352.1, 0.0563080
23457.7, 0.0550550
23564.4, 0.0530590
23672.0, 0.0526880
23780.5, 0.0532910
23890.1, 0.0521310
24000.7, 0.0539410
24112.3, 0.0546370
24225.0, 0.0534300
24338.7, 0.0532450
24453.5, 0.0538950
24569.4, 0.0565410
24686.4, 0.0596040
24804.5, 0.0596040
24923.8, 0.0579800
