Database of Origin, USGS Spectral Database
Sample Description, See USGS database for additional info
Date Added,2016-08-10 05:02:09.436901

Data ID,USGS_lau02          
Sample ID, laumontite_gds5.12502
Mineral Name, laumontite
Material Class,Tectosilicate

Wavelength
1602.52, 0.349518
1603.02, 0.350199
1603.51, 0.350753
1604.01, 0.351093
1604.5, 0.351349
1605.0, 0.352200
1605.5, 0.352711
1606.0, 0.353350
1606.49, 0.353562
1606.99, 0.354031
1607.49, 0.354244
1607.99, 0.354840
1608.49, 0.355223
1608.99, 0.356032
1609.49, 0.356372
1609.99, 0.356841
1610.49, 0.357139
1610.99, 0.357905
1611.49, 0.358373
1611.99, 0.358884
1612.49, 0.359139
1612.99, 0.359863
1613.49, 0.360289
1614.0, 0.360715
1614.5, 0.361268
1615.0, 0.361779
1615.51, 0.361949
1616.01, 0.362418
1616.51, 0.362588
1617.02, 0.363226
1617.52, 0.363780
1618.03, 0.364376
1618.53, 0.364589
1619.04, 0.365057
1619.54, 0.365312
1620.05, 0.365994
1620.55, 0.366504
1621.06, 0.367100
1621.57, 0.367399
1622.08, 0.367867
1622.58, 0.368165
1623.09, 0.368676
1623.6, 0.368974
1624.11, 0.369485
1624.62, 0.369783
1625.13, 0.370464
1625.64, 0.370847
1626.15, 0.371187
1626.66, 0.371443
1627.17, 0.371954
1627.68, 0.372167
1628.19, 0.372720
1628.7, 0.372975
1629.21, 0.373359
1629.72, 0.373571
1630.24, 0.374167
1630.75, 0.374380
1631.26, 0.374806
1631.78, 0.375147
1632.29, 0.375658
1632.8, 0.376041
1633.32, 0.376637
1633.83, 0.376722
1634.35, 0.376977
1634.86, 0.377105
1635.38, 0.377829
1635.9, 0.378169
1636.41, 0.378638
1636.93, 0.379063
1637.45, 0.379574
1637.96, 0.380000
1638.48, 0.380383
1639.0, 0.380468
1639.52, 0.380766
1640.04, 0.381022
1640.56, 0.381447
1641.08, 0.381660
1641.59, 0.382001
1642.11, 0.382256
1642.63, 0.382810
1643.16, 0.383065
1643.68, 0.383576
1644.2, 0.383831
1644.72, 0.384427
1645.24, 0.384811
1645.76, 0.385194
1646.29, 0.385236
1646.81, 0.385662
1647.33, 0.385917
1647.86, 0.386130
1648.38, 0.386428
1648.9, 0.386641
1649.43, 0.386854
1649.95, 0.387195
1650.48, 0.387493
1651.0, 0.387705
1651.53, 0.387918
1652.06, 0.388387
1652.58, 0.388599
1653.11, 0.389110
1653.64, 0.389536
1654.17, 0.389791
1654.69, 0.389791
1655.22, 0.390302
1655.75, 0.390515
1656.28, 0.390643
1656.81, 0.390941
1657.34, 0.391580
1657.87, 0.391878
1658.4, 0.392516
1658.93, 0.392601
1659.46, 0.392772
1659.99, 0.392942
1660.52, 0.393410
1661.05, 0.393495
1661.59, 0.393623
1662.12, 0.393751
1662.65, 0.394176
1663.19, 0.394602
1663.72, 0.395156
1664.26, 0.395454
1664.79, 0.395837
1665.32, 0.395666
1665.86, 0.395837
1666.39, 0.396007
1666.93, 0.396688
1667.47, 0.396731
1668.0, 0.397029
1668.54, 0.397412
1669.08, 0.397838
1669.61, 0.398050
1670.15, 0.398434
1670.69, 0.398306
1671.23, 0.398987
1671.77, 0.399200
1672.31, 0.399200
1672.85, 0.399455
1673.39, 0.399711
1673.93, 0.399966
1674.47, 0.400435
1675.01, 0.400307
1675.55, 0.400520
1676.09, 0.400733
1676.64, 0.400945
1677.18, 0.401073
1677.72, 0.401584
1678.26, 0.401584
1678.81, 0.402010
1679.35, 0.402223
1679.89, 0.402521
1680.44, 0.402521
1680.98, 0.403031
1681.53, 0.403031
1682.07, 0.403244
1682.62, 0.403627
1683.17, 0.404096
1683.71, 0.403925
1684.26, 0.404181
1684.81, 0.404351
1685.36, 0.404862
1685.9, 0.405075
1686.45, 0.405330
1687.0, 0.405330
1687.55, 0.405416
1688.1, 0.405501
1688.65, 0.405884
1689.2, 0.405756
1689.75, 0.405799
1690.3, 0.405756
1690.85, 0.405926
1691.41, 0.406097
1691.96, 0.406395
1692.51, 0.406778
1693.06, 0.407246
1693.61, 0.407203
1694.17, 0.407416
1694.72, 0.407289
1695.28, 0.407203
1695.83, 0.407331
1696.39, 0.407629
1696.94, 0.407714
1697.5, 0.408012
1698.05, 0.408012
1698.61, 0.407927
1699.17, 0.407970
1699.72, 0.408396
1700.28, 0.408438
1700.84, 0.408481
1701.4, 0.408651
1701.95, 0.408864
1702.51, 0.408694
1703.07, 0.408736
1703.63, 0.408864
1704.19, 0.409162
1704.75, 0.408949
1705.31, 0.408864
1705.88, 0.408992
1706.44, 0.409162
1707.0, 0.409077
1707.56, 0.409375
1708.12, 0.409332
1708.69, 0.409375
1709.25, 0.409630
1709.81, 0.409673
1710.38, 0.409417
1710.94, 0.409673
1711.51, 0.409588
1712.07, 0.409843
1712.64, 0.409886
1713.2, 0.409886
1713.77, 0.409588
1714.34, 0.409843
1714.9, 0.409886
1715.47, 0.409971
1716.04, 0.409928
1716.61, 0.410141
1717.18, 0.410098
1717.74, 0.410056
1718.31, 0.409843
1718.88, 0.409971
1719.45, 0.410098
1720.02, 0.410226
1720.59, 0.410056
1721.17, 0.410226
1721.74, 0.410141
1722.31, 0.410184
1722.88, 0.409928
1723.45, 0.410013
1724.03, 0.410226
1724.6, 0.410311
1725.18, 0.409886
1725.75, 0.409971
1726.33, 0.410013
1726.9, 0.410098
1727.48, 0.409928
1728.05, 0.409971
1728.63, 0.409758
1729.2, 0.409843
1729.78, 0.409800
1730.36, 0.410013
1730.94, 0.409800
1731.51, 0.409886
1732.09, 0.409800
1732.67, 0.409758
1733.25, 0.409588
1733.83, 0.409630
1734.41, 0.409417
1734.99, 0.409630
1735.57, 0.409588
1736.15, 0.409630
1736.73, 0.409715
1737.32, 0.409800
1737.9, 0.409545
1738.48, 0.409800
1739.07, 0.409715
1739.65, 0.409588
1740.23, 0.409588
1740.82, 0.409715
1741.4, 0.409715
1741.99, 0.409758
1742.57, 0.409588
1743.16, 0.409545
1743.74, 0.409417
1744.33, 0.409588
1744.92, 0.409290
1745.51, 0.409247
1746.09, 0.409247
1746.68, 0.409460
1747.27, 0.409630
1747.86, 0.409630
1748.45, 0.409375
1749.04, 0.409247
1749.63, 0.409119
1750.22, 0.409375
1750.81, 0.409247
1751.4, 0.409204
1751.99, 0.409162
1752.59, 0.409545
1753.18, 0.409290
1753.77, 0.409162
1754.37, 0.409247
1754.96, 0.409502
1755.56, 0.409375
1756.15, 0.409162
1756.74, 0.408864
1757.34, 0.408821
1757.94, 0.408779
1758.53, 0.408906
1759.13, 0.408779
1759.73, 0.408906
1760.32, 0.408906
1760.92, 0.408779
1761.52, 0.408438
1762.12, 0.408566
1762.72, 0.408736
1763.32, 0.408694
1763.92, 0.408353
1764.52, 0.408310
1765.12, 0.408098
1765.72, 0.408268
1766.32, 0.408225
1766.92, 0.408055
1767.53, 0.407885
1768.13, 0.407714
1768.73, 0.407672
1769.34, 0.407757
1769.94, 0.407629
1770.55, 0.407629
1771.15, 0.407374
1771.76, 0.407246
1772.36, 0.407246
1772.97, 0.407331
1773.57, 0.406991
1774.18, 0.406820
1774.79, 0.406693
1775.4, 0.406820
1776.0, 0.406735
1776.61, 0.406778
1777.22, 0.406693
1777.83, 0.406522
1778.44, 0.406310
1779.05, 0.406395
1779.66, 0.406224
1780.27, 0.406310
1780.88, 0.406097
1781.5, 0.406097
1782.11, 0.405926
1782.72, 0.405671
1783.33, 0.405586
1783.95, 0.405756
1784.56, 0.405713
1785.18, 0.405713
1785.79, 0.405543
1786.41, 0.405501
1787.02, 0.405416
1787.64, 0.405671
1788.26, 0.405458
1788.87, 0.405330
1789.49, 0.405288
1790.11, 0.405416
1790.73, 0.405416
1791.35, 0.405330
1791.96, 0.404990
1792.58, 0.405075
1793.21, 0.404990
1793.83, 0.404862
1794.45, 0.404905
1795.07, 0.405330
1795.69, 0.405203
1796.31, 0.404947
1796.93, 0.404734
1797.56, 0.405032
1798.18, 0.405160
1798.8, 0.405288
1799.43, 0.405288
1800.05, 0.405543
1800.68, 0.405501
1801.3, 0.405416
1801.93, 0.405416
1802.56, 0.405628
1803.18, 0.405458
1803.81, 0.405501
1804.44, 0.405373
1805.07, 0.405416
1805.7, 0.405501
1806.33, 0.405926
1806.95, 0.406054
1807.58, 0.406182
1808.22, 0.406097
1808.85, 0.406224
1809.48, 0.406097
1810.11, 0.406310
1810.74, 0.406437
1811.38, 0.406522
1812.01, 0.406565
1812.64, 0.406735
1813.28, 0.406778
1813.91, 0.407076
1814.55, 0.406948
1815.18, 0.407076
1815.82, 0.407331
1816.45, 0.407331
1817.09, 0.407161
1817.73, 0.407203
1818.36, 0.407416
1819.0, 0.407587
1819.64, 0.407416
1820.28, 0.407714
1820.92, 0.407842
1821.56, 0.408012
1822.2, 0.408098
1822.84, 0.408140
1823.48, 0.407927
1824.12, 0.407927
1824.76, 0.408140
1825.41, 0.408268
1826.05, 0.408438
1826.69, 0.408779
1827.34, 0.408353
1827.98, 0.408481
1828.63, 0.408651
1829.27, 0.408694
1829.92, 0.408481
1830.56, 0.408736
1831.21, 0.408821
1831.86, 0.408906
1832.5, 0.408651
1833.15, 0.408736
1833.8, 0.408651
1834.45, 0.408608
1835.1, 0.408694
1835.75, 0.408992
1836.4, 0.409034
1837.05, 0.408949
1837.7, 0.408949
1838.35, 0.408906
1839.01, 0.408438
1839.66, 0.408694
1840.31, 0.408906
1840.96, 0.408523
1841.62, 0.408438
1842.27, 0.408736
1842.93, 0.408353
1843.58, 0.407970
1844.24, 0.407629
1844.9, 0.407502
1845.55, 0.407416
1846.21, 0.407502
1846.87, 0.407629
1847.53, 0.407714
1848.18, 0.407246
1848.84, 0.406820
1849.5, 0.406267
1850.16, 0.405969
1850.82, 0.405501
1851.48, 0.405203
1852.14, 0.404819
1852.81, 0.404692
1853.47, 0.404479
1854.13, 0.404351
1854.8, 0.403457
1855.46, 0.402904
1856.12, 0.402435
1856.79, 0.402265
1857.45, 0.401754
1858.12, 0.401201
1858.79, 0.400520
1859.45, 0.400435
1860.12, 0.399924
1860.79, 0.398944
1861.46, 0.398178
1862.12, 0.397497
1862.79, 0.396603
1863.46, 0.395964
1864.13, 0.395326
1864.8, 0.394687
1865.48, 0.393623
1866.15, 0.392814
1866.82, 0.391835
1867.49, 0.391196
1868.16, 0.390387
1868.84, 0.389238
1869.51, 0.387918
1870.19, 0.386854
1870.86, 0.386045
1871.54, 0.384938
1872.21, 0.383406
1872.89, 0.382512
1873.56, 0.381149
1874.24, 0.379489
1874.92, 0.377829
1875.6, 0.376466
1876.28, 0.374721
1876.96, 0.373273
1877.64, 0.371571
1878.32, 0.369995
1879.0, 0.367994
1879.68, 0.366164
1880.36, 0.364120
1881.04, 0.362332
1881.73, 0.360417
1882.41, 0.358458
1883.09, 0.356159
1883.78, 0.354031
1884.46, 0.351647
1885.15, 0.349178
1885.83, 0.346751
1886.52, 0.344324
1887.21, 0.341387
1887.89, 0.338535
1888.58, 0.335469
1889.27, 0.332617
1889.96, 0.329807
1890.65, 0.326742
1891.34, 0.323081
1892.03, 0.319973
1892.72, 0.316738
1893.41, 0.313161
1894.1, 0.309543
1894.79, 0.305839
1895.49, 0.301965
1896.18, 0.298091
1896.87, 0.293919
1897.57, 0.290172
1898.26, 0.286213
1898.96, 0.282254
1899.65, 0.278252
1900.35, 0.274080
1901.05, 0.269908
1901.74, 0.266034
1902.44, 0.261990
1903.14, 0.257903
1903.84, 0.253731
1904.54, 0.249814
1905.24, 0.245812
1905.94, 0.241853
1906.64, 0.237894
1907.34, 0.234275
1908.04, 0.230529
1908.75, 0.227123
1909.45, 0.223717
1910.15, 0.220567
1910.86, 0.217331
1911.56, 0.214394
1912.27, 0.211371
1912.97, 0.208774
1913.68, 0.206433
1914.39, 0.204219
1915.09, 0.201665
1915.8, 0.199579
1916.51, 0.197918
1917.22, 0.196599
1917.93, 0.195236
1918.64, 0.194385
1919.35, 0.193831
1920.06, 0.193746
1920.77, 0.193746
1921.48, 0.194044
1922.19, 0.194470
1922.91, 0.195577
1923.62, 0.196726
1924.33, 0.198344
1925.05, 0.200004
1925.76, 0.202176
1926.48, 0.204475
1927.19, 0.207199
1927.91, 0.209881
1928.63, 0.212861
1929.35, 0.215714
1930.07, 0.219034
1930.78, 0.222270
1931.5, 0.225420
1932.22, 0.228783
1932.94, 0.232444
1933.66, 0.235595
1934.39, 0.238617
1935.11, 0.241555
1935.83, 0.244748
1936.55, 0.247728
1937.28, 0.250495
1938.0, 0.253007
1938.73, 0.255604
1939.45, 0.257860
1940.18, 0.260074
1940.9, 0.262075
1941.63, 0.264118
1942.36, 0.265821
1943.09, 0.267567
1943.81, 0.269184
1944.54, 0.270674
1945.27, 0.271994
1946.0, 0.273484
1946.73, 0.274761
1947.47, 0.275868
1948.2, 0.276762
1948.93, 0.277826
1949.66, 0.278806
1950.4, 0.279742
1951.13, 0.280423
1951.86, 0.281147
1952.6, 0.281828
1953.34, 0.282424
1954.07, 0.283020
1954.81, 0.283744
1955.55, 0.284042
1956.29, 0.284468
1957.02, 0.284681
1957.76, 0.285277
1958.5, 0.285787
1959.24, 0.286043
1959.98, 0.286298
1960.72, 0.286894
1961.47, 0.287235
1962.21, 0.287746
1962.95, 0.288129
1963.7, 0.288768
1964.44, 0.289236
1965.18, 0.289874
1965.93, 0.290343
1966.67, 0.290939
1967.42, 0.291492
1968.17, 0.292429
1968.92, 0.293238
1969.66, 0.294174
1970.41, 0.294983
1971.16, 0.296005
1971.91, 0.296771
1972.66, 0.297708
1973.41, 0.298857
1974.16, 0.300262
1974.92, 0.301284
1975.67, 0.302433
1976.42, 0.303455
1977.18, 0.304690
1977.93, 0.305796
1978.69, 0.307116
1979.44, 0.308308
1980.2, 0.309756
1980.95, 0.311075
1981.71, 0.312480
1982.47, 0.313715
1983.23, 0.314992
1983.99, 0.316312
1984.74, 0.317930
1985.51, 0.319292
1986.27, 0.320654
1987.03, 0.322059
1987.79, 0.323719
1988.55, 0.325124
1989.32, 0.326614
1990.08, 0.327934
1990.84, 0.329467
1991.61, 0.330957
1992.37, 0.332660
1993.14, 0.334107
1993.9, 0.335725
1994.67, 0.337257
1995.44, 0.338875
1996.21, 0.340323
1996.98, 0.341770
1997.75, 0.343132
1998.52, 0.344452
1999.29, 0.345814
2000.06, 0.347560
2000.83, 0.348965
2001.6, 0.350370
2002.38, 0.351434
2003.15, 0.352754
2003.93, 0.353903
2004.7, 0.355180
2005.48, 0.356372
2006.25, 0.357607
2007.03, 0.358714
2007.81, 0.359906
2008.58, 0.360970
2009.36, 0.362162
2010.14, 0.362971
2010.92, 0.364035
2011.7, 0.364972
2012.48, 0.365866
2013.26, 0.366845
2014.05, 0.367909
2014.83, 0.368676
2015.61, 0.369527
2016.4, 0.370251
2017.18, 0.371187
2017.97, 0.371954
2018.75, 0.372592
2019.54, 0.373146
2020.32, 0.374040
2021.11, 0.374508
2021.9, 0.375019
2022.69, 0.375700
2023.48, 0.376211
2024.27, 0.376594
2025.06, 0.377062
2025.85, 0.377403
2026.64, 0.377829
2027.44, 0.378042
2028.23, 0.378467
2029.02, 0.378723
2029.82, 0.378978
2030.61, 0.379148
2031.41, 0.379574
2032.2, 0.379659
2033.0, 0.379787
2033.8, 0.379915
2034.6, 0.380042
2035.4, 0.380170
2036.2, 0.380511
2037.0, 0.380340
2037.8, 0.380553
2038.6, 0.380851
2039.4, 0.381107
2040.2, 0.381320
2041.01, 0.381618
2041.81, 0.381958
2042.61, 0.382512
2043.42, 0.382852
2044.22, 0.383406
2045.03, 0.383959
2045.84, 0.384470
2046.65, 0.384768
2047.46, 0.385492
2048.26, 0.386173
2049.07, 0.386897
2049.88, 0.387407
2050.69, 0.388046
2051.51, 0.388472
2052.32, 0.389025
2053.13, 0.389494
2053.94, 0.390132
2054.76, 0.390686
2055.57, 0.391282
2056.39, 0.391792
2057.2, 0.392346
2058.02, 0.392857
2058.84, 0.393453
2059.66, 0.393836
2060.48, 0.394304
2061.29, 0.394687
2062.11, 0.395113
2062.94, 0.395539
2063.76, 0.396092
2064.58, 0.396433
2065.4, 0.396773
2066.22, 0.397199
2067.05, 0.397710
2067.87, 0.397965
2068.7, 0.398221
2069.52, 0.398434
2070.35, 0.398902
2071.18, 0.399157
2072.0, 0.399626
2072.83, 0.400051
2073.66, 0.400392
2074.49, 0.400562
2075.32, 0.400903
2076.15, 0.401201
2076.98, 0.401584
2077.82, 0.401839
2078.65, 0.402180
2079.48, 0.402265
2080.32, 0.402478
2081.15, 0.402733
2081.99, 0.403031
2082.83, 0.402989
2083.66, 0.403329
2084.5, 0.403585
2085.34, 0.403925
2086.18, 0.404096
2087.02, 0.404436
2087.86, 0.404521
2088.7, 0.404819
2089.54, 0.405118
2090.39, 0.405330
2091.23, 0.405288
2092.07, 0.405416
2092.92, 0.405416
2093.76, 0.405586
2094.61, 0.405713
2095.45, 0.406139
2096.3, 0.406267
2097.15, 0.406437
2098.0, 0.406395
2098.85, 0.406522
2099.7, 0.406650
2100.55, 0.406991
2101.4, 0.406991
2102.25, 0.407076
2103.1, 0.407203
2103.96, 0.407374
2104.81, 0.407289
2105.67, 0.407374
2106.52, 0.407502
2107.38, 0.407587
2108.24, 0.407416
2109.09, 0.407289
2109.95, 0.407416
2110.81, 0.407587
2111.67, 0.407672
2112.53, 0.407842
2113.39, 0.407629
2114.25, 0.407544
2115.12, 0.407672
2115.98, 0.407672
2116.84, 0.407459
2117.71, 0.407629
2118.58, 0.407714
2119.44, 0.407800
2120.31, 0.407714
2121.18, 0.407672
2122.04, 0.407587
2122.91, 0.407587
2123.78, 0.407502
2124.65, 0.407672
2125.52, 0.407587
2126.4, 0.407502
2127.27, 0.407289
2128.14, 0.407161
2129.02, 0.406948
2129.89, 0.406948
2130.77, 0.406948
2131.64, 0.407033
2132.52, 0.406863
2133.4, 0.406693
2134.27, 0.406565
2135.15, 0.406565
2136.03, 0.406395
2136.91, 0.406267
2137.79, 0.406054
2138.68, 0.406097
2139.56, 0.406011
2140.44, 0.405969
2141.33, 0.406011
2142.21, 0.405969
2143.1, 0.405884
2143.99, 0.405756
2144.87, 0.405458
2145.76, 0.405501
2146.65, 0.405416
2147.54, 0.405373
2148.43, 0.405245
2149.32, 0.405160
2150.21, 0.405075
2151.1, 0.405032
2151.99, 0.404819
2152.89, 0.404819
2153.78, 0.404734
2154.68, 0.404607
2155.57, 0.404351
2156.47, 0.404394
2157.37, 0.404309
2158.27, 0.404479
2159.16, 0.404564
2160.06, 0.404479
2160.96, 0.404223
2161.86, 0.404181
2162.77, 0.404053
2163.67, 0.404138
2164.57, 0.404011
2165.48, 0.404011
2166.38, 0.403883
2167.29, 0.403968
2168.2, 0.403883
2169.1, 0.403755
2170.01, 0.403798
2170.92, 0.403798
2171.83, 0.403670
2172.74, 0.403670
2173.65, 0.403670
2174.56, 0.403755
2175.47, 0.403670
2176.39, 0.403627
2177.3, 0.403457
2178.22, 0.403500
2179.13, 0.403415
2180.05, 0.403415
2180.96, 0.403244
2181.88, 0.403329
2182.8, 0.403287
2183.72, 0.403159
2184.64, 0.402989
2185.56, 0.403074
2186.48, 0.403074
2187.41, 0.403074
2188.33, 0.403031
2189.25, 0.402946
2190.18, 0.402776
2191.1, 0.402733
2192.03, 0.402733
2192.96, 0.402776
2193.89, 0.402648
2194.82, 0.402733
2195.74, 0.402691
2196.68, 0.402648
2197.61, 0.402478
2198.54, 0.402563
2199.47, 0.402435
2200.4, 0.402393
2201.34, 0.402350
2202.28, 0.402435
2203.21, 0.402265
2204.15, 0.402393
2205.08, 0.402393
2206.02, 0.402350
2206.96, 0.402137
2207.9, 0.402180
2208.84, 0.402137
2209.78, 0.402137
2210.73, 0.402010
2211.67, 0.402052
2212.61, 0.402010
2213.56, 0.402010
2214.5, 0.401925
2215.45, 0.401839
2216.4, 0.401712
2217.35, 0.401712
2218.3, 0.401584
2219.24, 0.401627
2220.2, 0.401627
2221.15, 0.401541
2222.1, 0.401456
2223.05, 0.401541
2224.0, 0.401456
2224.96, 0.401456
2225.91, 0.401414
2226.87, 0.401414
2227.83, 0.401329
2228.79, 0.401371
2229.74, 0.401116
2230.7, 0.401073
2231.66, 0.401073
2232.63, 0.401073
2233.59, 0.400818
2234.55, 0.400860
2235.51, 0.400818
2236.48, 0.400818
2237.44, 0.400647
2238.41, 0.400477
2239.38, 0.400264
2240.34, 0.400264
2241.31, 0.400094
2242.28, 0.400009
2243.25, 0.399839
2244.22, 0.399924
2245.19, 0.399711
2246.17, 0.399583
2247.14, 0.399370
2248.12, 0.399285
2249.09, 0.399157
2250.07, 0.399115
2251.04, 0.399030
2252.02, 0.398817
2253.0, 0.398519
2253.98, 0.398519
2254.96, 0.398476
2255.94, 0.398348
2256.92, 0.398093
2257.91, 0.398008
2258.89, 0.397752
2259.88, 0.397587
2260.86, 0.397132
2261.85, 0.396884
2262.83, 0.396677
2263.82, 0.396677
2264.81, 0.396428
2265.8, 0.395973
2266.79, 0.395684
2267.78, 0.395642
2268.78, 0.395311
2269.77, 0.395146
2270.76, 0.394898
2271.76, 0.394608
2272.75, 0.393987
2273.75, 0.393573
2274.75, 0.393367
2275.75, 0.393201
2276.75, 0.392746
2277.75, 0.392456
2278.75, 0.392125
2279.75, 0.391629
2280.75, 0.391091
2281.76, 0.390801
2282.76, 0.390553
2283.77, 0.390346
2284.77, 0.389808
2285.78, 0.389353
2286.79, 0.388774
2287.8, 0.388195
2288.81, 0.387615
2289.82, 0.387450
2290.83, 0.386953
2291.84, 0.386374
2292.86, 0.386043
2293.87, 0.385464
2294.89, 0.384595
2295.91, 0.384098
2296.92, 0.383726
2297.94, 0.383353
2298.96, 0.382650
2299.98, 0.382154
2301.0, 0.381616
2302.02, 0.381036
2303.04, 0.380581
2304.07, 0.379919
2305.09, 0.379299
2306.12, 0.378761
2307.15, 0.378181
2308.17, 0.377933
2309.2, 0.377519
2310.23, 0.376940
2311.26, 0.376154
2312.29, 0.375451
2313.32, 0.374747
2314.35, 0.374085
2315.39, 0.373506
2316.42, 0.372968
2317.46, 0.372389
2318.5, 0.371809
2319.53, 0.371106
2320.57, 0.370113
2321.61, 0.369368
2322.65, 0.368748
2323.69, 0.367920
2324.73, 0.367051
2325.78, 0.366182
2326.82, 0.365520
2327.86, 0.364651
2328.91, 0.363741
2329.96, 0.362913
2331.01, 0.362003
2332.05, 0.361052
2333.1, 0.360307
2334.15, 0.359272
2335.21, 0.358279
2336.26, 0.357535
2337.31, 0.356707
2338.36, 0.355631
2339.42, 0.354638
2340.48, 0.353687
2341.53, 0.352735
2342.59, 0.351618
2343.65, 0.350625
2344.71, 0.349466
2345.77, 0.348390
2346.83, 0.347273
2347.9, 0.346321
2348.96, 0.345618
2350.02, 0.344377
2351.09, 0.342970
2352.16, 0.341770
2353.23, 0.340736
2354.29, 0.339825
2355.36, 0.338460
2356.43, 0.337053
2357.51, 0.335895
2358.58, 0.334571
2359.65, 0.333329
2360.73, 0.332295
2361.8, 0.330971
2362.88, 0.329647
2363.96, 0.328364
2365.03, 0.327081
2366.11, 0.325675
2367.19, 0.324226
2368.27, 0.322695
2369.36, 0.321165
2370.44, 0.319716
2371.53, 0.318268
2372.61, 0.316613
2373.7, 0.315289
2374.78, 0.314089
2375.87, 0.312889
2376.96, 0.311276
2378.05, 0.309745
2379.14, 0.308172
2380.24, 0.306766
2381.33, 0.305317
2382.42, 0.303911
2383.52, 0.302545
2384.61, 0.300973
2385.71, 0.299276
2386.81, 0.297952
2387.91, 0.296628
2389.01, 0.295304
2390.11, 0.293815
2391.22, 0.292160
2392.32, 0.290546
2393.42, 0.289222
2394.53, 0.287815
2395.64, 0.286491
2396.74, 0.285084
2397.85, 0.283760
2398.96, 0.282064
2400.07, 0.280533
2401.18, 0.279209
2402.3, 0.277926
2403.41, 0.276437
2404.52, 0.275030
2405.64, 0.273623
2406.76, 0.272051
2407.88, 0.270561
2408.99, 0.269113
2410.11, 0.267706
2411.23, 0.266465
2412.36, 0.265182
2413.48, 0.263817
2414.6, 0.262410
2415.73, 0.261169
2416.85, 0.259638
2417.98, 0.258231
2419.11, 0.257031
2420.24, 0.255707
2421.37, 0.254259
2422.5, 0.252976
2423.64, 0.251652
2424.77, 0.250493
2425.9, 0.249335
2427.04, 0.248052
2428.18, 0.246645
2429.31, 0.245694
2430.45, 0.244535
2431.59, 0.243501
2432.73, 0.242466
2433.88, 0.241308
2435.02, 0.240356
2436.16, 0.239570
2437.31, 0.238618
2438.45, 0.237791
2439.6, 0.236674
2440.75, 0.235639
2441.9, 0.234895
2443.05, 0.234108
2444.2, 0.233239
2445.35, 0.232412
2446.51, 0.231502
2447.67, 0.230922
2448.82, 0.230178
2449.98, 0.229474
2451.14, 0.228771
2452.3, 0.228192
2453.46, 0.227571
2454.62, 0.226909
2455.78, 0.226081
2456.94, 0.225626
2458.11, 0.225006
2459.28, 0.224468
2460.44, 0.224095
2461.61, 0.223723
2462.78, 0.223061
2463.95, 0.222482
2465.12, 0.221820
2466.3, 0.221323
2467.47, 0.220909
2468.65, 0.220413
2469.82, 0.219792
2471.0, 0.219378
2472.18, 0.218799
2473.36, 0.218137
2474.54, 0.217641
2475.72, 0.217392
2476.9, 0.217103
2478.08, 0.216482
2479.27, 0.215903
2480.46, 0.215572
2481.64, 0.215241
2482.83, 0.214703
2484.02, 0.214082
2485.21, 0.213503
2486.4, 0.213255
2487.6, 0.213213
2488.79, 0.212758
2489.99, 0.212344
2491.18, 0.211972
2492.38, 0.211600
2493.58, 0.211269
2494.78, 0.211186
2495.98, 0.210855
2497.18, 0.210358
2498.39, 0.209944
2499.59, 0.209655
2500.8, 0.209407
2502.01, 0.209241
2503.21, 0.208910
2504.42, 0.208786
2505.63, 0.208538
2506.84, 0.208207
2508.06, 0.207917
2509.27, 0.207876
2510.49, 0.207586
2511.7, 0.207172
2512.92, 0.206883
2514.14, 0.206676
2515.36, 0.206469
2516.58, 0.206138
2517.8, 0.205683
2519.03, 0.205434
2520.25, 0.205269
2521.48, 0.204938
2522.7, 0.204607
2523.93, 0.204441
2525.16, 0.204110
2526.39, 0.203779
2527.62, 0.203366
2528.86, 0.203076
2530.09, 0.202869
2531.33, 0.202828
2532.56, 0.202662
2533.8, 0.202166
2535.04, 0.201711
2536.28, 0.201545
2537.52, 0.201007
2538.76, 0.200469
2540.01, 0.200014
2541.25, 0.199766
2542.5, 0.199642
2543.75, 0.199476
2544.99, 0.198938
2546.24, 0.198359
2547.49, 0.197945
2548.75, 0.197697
2550.0, 0.197532
2551.26, 0.197449
2552.51, 0.197283
2553.77, 0.196828
2555.03, 0.196001
2556.29, 0.195545
2557.55, 0.195214
2558.81, 0.195339
2560.08, 0.195711
2561.34, 0.196001
2562.61, 0.195587
2563.88, 0.195173
2565.14, 0.194180
2566.41, 0.193311
2567.68, 0.192980
2568.96, 0.193394
2570.23, 0.193187
2571.51, 0.192484
2572.78, 0.192856
2574.06, 0.192649
2575.34, 0.191656
2576.62, 0.191615
2577.9, 0.191160
2579.18, 0.190498
2580.47, 0.190539
2581.75, 0.190373
2583.04, 0.190704
2584.32, 0.190622
2585.61, 0.189422
2586.9, 0.189463
2588.2, 0.189049
2589.49, 0.188470
2590.78, 0.187684
2592.08, 0.187270
2593.37, 0.188553
2594.67, 0.190663
2595.97, 0.188967
2597.27, 0.186691
2598.57, 0.185491
2599.88, 0.185201
2601.18, 0.185284
2602.49, 0.185119
2603.79, 0.185036
2605.1, 0.185574
2606.41, 0.184912
2607.72, 0.183795
2609.03, 0.183298
2610.35, 0.182677
2611.66, 0.181891
2612.98, 0.181850
2614.3, 0.181271
2615.62, 0.181643
2616.94, 0.182057
2618.26, 0.180940
2619.58, 0.180815
2620.91, 0.180526
2622.23, 0.178747
2623.56, 0.177960
2624.89, 0.177754
2626.22, 0.178209
2627.55, 0.177547
2628.88, 0.177216
2630.21, 0.177588
2631.55, 0.176098
2632.89, 0.174857
2634.22, 0.174361
2635.56, 0.173161
2636.9, 0.172416
2638.25, 0.171713
2639.59, 0.171092
2640.93, 0.170471
2642.28, 0.169851
2643.63, 0.168940
2644.98, 0.168444
2646.33, 0.167534
2647.68, 0.166334
2649.03, 0.165216
2650.39, 0.164637
2651.74, 0.164182
2653.1, 0.163189
2654.46, 0.162072
2655.82, 0.161203
2657.18, 0.159631
2658.54, 0.158886
2659.9, 0.158058
2661.27, 0.156734
2662.64, 0.155245
2664.01, 0.154872
2665.38, 0.154500
2666.74, 0.153259
2668.12, 0.151107
2669.49, 0.150569
2670.87, 0.149411
2672.24, 0.146142
2673.62, 0.144114
2675.0, 0.143080
2676.38, 0.142211
2677.76, 0.140473
2679.15, 0.138529
2680.54, 0.136129
2681.92, 0.134060
2683.31, 0.132529
2684.7, 0.130708
2686.09, 0.128929
2687.48, 0.126943
2688.88, 0.124750
2690.27, 0.122392
2691.67, 0.120530
2693.07, 0.119247
2694.47, 0.117551
2695.87, 0.114820
2697.27, 0.112048
2698.67, 0.109689
2700.08, 0.107827
2701.49, 0.105593
2702.9, 0.103152
2704.31, 0.100669
2705.72, 0.0983110
2707.13, 0.0959520
2708.54, 0.0940900
2709.96, 0.0921460
2711.38, 0.0898700
2712.8, 0.0868910
2714.22, 0.0840770
2715.64, 0.0816770
2717.06, 0.0794840
2718.49, 0.0772500
2719.91, 0.0754710
2721.34, 0.0727400
2722.77, 0.0701330
2724.2, 0.0678990
2725.63, 0.0652090
2727.07, 0.0625610
2728.5, 0.0602440
2729.94, 0.0579270
2731.38, 0.0558170
2732.82, 0.0537070
2734.26, 0.0515970
2735.7, 0.0494040
2737.15, 0.0477070
2738.59, 0.0463000
2740.04, 0.0446040
2741.49, 0.0425350
2742.94, 0.0405900
2744.39, 0.0388940
2745.84, 0.0374040
2747.3, 0.0358320
2748.76, 0.0344250
2750.21, 0.0330600
2751.67, 0.0319010
2753.14, 0.0307010
2754.6, 0.0298740
2756.06, 0.0287570
2757.53, 0.0274330
2759.0, 0.0263150
2760.46, 0.0254880
2761.94, 0.0248260
2763.41, 0.0239980
2764.88, 0.0230470
2766.36, 0.0223850
2767.83, 0.0216400
2769.31, 0.0209780
2770.79, 0.0204810
2772.27, 0.0199020
2773.76, 0.0192400
2775.24, 0.0189090
2776.73, 0.0186190
2778.22, 0.0182880
2779.71, 0.0179570
2781.2, 0.0175850
2782.69, 0.0171300
2784.18, 0.0168400
2785.68, 0.0166750
2787.18, 0.0165920
2788.68, 0.0163850
2790.18, 0.0161370
2791.68, 0.0158470
2793.19, 0.0156400
2794.69, 0.0154330
2796.2, 0.0153510
2797.71, 0.0151850
2799.22, 0.0150200
2800.73, 0.0148130
2802.24, 0.0148130
2803.76, 0.0146470
2805.28, 0.0142750
2806.8, 0.0141510
2808.32, 0.0141510
2809.84, 0.0140680
2811.36, 0.0141090
2812.89, 0.0141920
2814.42, 0.0142750
2815.94, 0.0142750
2817.48, 0.0142340
2819.01, 0.0143580
2820.54, 0.0145650
2822.08, 0.0148130
2823.61, 0.0149780
2825.15, 0.0149370
2826.69, 0.0151440
2828.23, 0.0153510
2829.78, 0.0156400
2831.32, 0.0158890
2832.87, 0.0162610
2834.42, 0.0164260
2835.97, 0.0166330
2837.52, 0.0167990
2839.08, 0.0171300
2840.63, 0.0173370
2842.19, 0.0174610
2843.75, 0.0175850
2845.31, 0.0177920
2846.87, 0.0178750
2848.44, 0.0180820
2850.0, 0.0182060
2851.57, 0.0183300
2853.14, 0.0185370
2854.71, 0.0186610
2856.28, 0.0187440
2857.86, 0.0189090
2859.43, 0.0187850
2861.01, 0.0187850
2862.59, 0.0188680
2864.17, 0.0189920
2865.76, 0.0189920
2867.34, 0.0189090
2868.93, 0.0189500
2870.52, 0.0191160
2872.11, 0.0191990
2873.7, 0.0191990
2875.29, 0.0191570
2876.89, 0.0192400
2878.49, 0.0193230
2880.08, 0.0193230
2881.69, 0.0192810
2883.29, 0.0193640
2884.89, 0.0194470
2886.5, 0.0194880
2888.11, 0.0194470
2889.72, 0.0193230
2891.33, 0.0192810
2892.94, 0.0194060
2894.56, 0.0194470
2896.17, 0.0194470
2897.79, 0.0194060
2899.42, 0.0194470
2901.04, 0.0194880
2902.66, 0.0195710
2904.29, 0.0194880
2905.92, 0.0194880
2907.55, 0.0195300
2909.18, 0.0196120
2910.81, 0.0196540
2912.45, 0.0196950
2914.08, 0.0197370
2915.72, 0.0197780
2917.36, 0.0198190
2919.01, 0.0199430
2920.65, 0.0198190
2922.3, 0.0197780
2923.94, 0.0198190
2925.59, 0.0199430
2927.25, 0.0200260
2928.9, 0.0199850
2930.56, 0.0200260
2932.21, 0.0201500
2933.87, 0.0202330
2935.53, 0.0202740
2937.2, 0.0203160
2938.86, 0.0205640
2940.53, 0.0206470
2942.2, 0.0206060
2943.87, 0.0206470
2945.54, 0.0208950
2947.22, 0.0211430
2948.89, 0.0212680
2950.57, 0.0213500
2952.25, 0.0214740
2953.93, 0.0215990
2955.62, 0.0218880
2957.3, 0.0220540
2958.99, 0.0222190
2960.68, 0.0224260
2962.37, 0.0227160
2964.07, 0.0229230
2965.76, 0.0232540
2967.46, 0.0235430
2969.16, 0.0237500
2970.86, 0.0239570
2972.56, 0.0242470
2974.27, 0.0246190
2975.98, 0.0250330
2977.69, 0.0253220
2979.4, 0.0256120
2981.11, 0.0258190
2982.83, 0.0261500
2984.54, 0.0265220
2986.26, 0.0267710
2987.98, 0.0271430
2989.71, 0.0274330
2991.43, 0.0277220
2993.16, 0.0280530
2994.89, 0.0283020
2996.62, 0.0284670
2998.35, 0.0286740
3000.09, 0.0290460
3001.83, 0.0293770
3003.57, 0.0295840
3005.31, 0.0297500
3007.05, 0.0298740
3008.79, 0.0299980
3010.54, 0.0299570
3012.29, 0.0298740
3014.04, 0.0297500
3015.8, 0.0295430
3017.55, 0.0293770
3019.31, 0.0291290
3021.07, 0.0288390
3022.83, 0.0284670
3024.59, 0.0281770
3026.36, 0.0278050
3028.13, 0.0274740
3029.9, 0.0272260
3031.67, 0.0270190
3033.44, 0.0269360
3035.22, 0.0268530
3037.0, 0.0269770
3038.78, 0.0271840
3040.56, 0.0274330
3042.34, 0.0276810
3044.13, 0.0279710
3045.92, 0.0284670
3047.71, 0.0289640
3049.5, 0.0295010
3051.3, 0.0300810
3053.09, 0.0305360
3054.89, 0.0309500
3056.69, 0.0315290
3058.5, 0.0320670
3060.3, 0.0326870
3062.11, 0.0332670
3063.92, 0.0337220
3065.73, 0.0342180
3067.55, 0.0347560
3069.36, 0.0352530
3071.18, 0.0357910
3073.0, 0.0363290
3074.82, 0.0369490
3076.65, 0.0375700
3078.48, 0.0381490
3080.31, 0.0386870
3082.14, 0.0393900
3083.97, 0.0399280
3085.8, 0.0404660
3087.64, 0.0410460
3089.48, 0.0416250
3091.33, 0.0422040
3093.17, 0.0427830
3095.02, 0.0434040
3096.87, 0.0440250
3098.72, 0.0446040
3100.57, 0.0451830
3102.43, 0.0458450
3104.28, 0.0465070
3106.14, 0.0471280
3108.01, 0.0477070
3109.87, 0.0482860
3111.74, 0.0489070
3113.61, 0.0496100
3115.48, 0.0502720
3117.35, 0.0508100
3119.23, 0.0514310
3121.1, 0.0520930
3122.98, 0.0527960
3124.87, 0.0535000
3126.75, 0.0542030
3128.64, 0.0548240
3130.53, 0.0554860
3132.42, 0.0561890
3134.31, 0.0568510
3136.21, 0.0575130
3138.11, 0.0583000
3140.01, 0.0590030
3141.91, 0.0597060
3143.82, 0.0604920
3145.73, 0.0611960
3147.64, 0.0618580
3149.55, 0.0626030
3151.46, 0.0633060
3153.38, 0.0641340
3155.3, 0.0649200
3157.22, 0.0656650
3159.14, 0.0664510
3161.07, 0.0671950
3163.0, 0.0679400
3164.93, 0.0687680
3166.86, 0.0695950
3168.8, 0.0703400
3170.74, 0.0710850
3172.68, 0.0719120
3174.62, 0.0726990
3176.56, 0.0736090
3178.51, 0.0745190
3180.46, 0.0752640
3182.42, 0.0760500
3184.37, 0.0769600
3186.33, 0.0777460
3188.29, 0.0786150
3190.25, 0.0794430
3192.21, 0.0802700
3194.18, 0.0810980
3196.15, 0.0820080
3198.12, 0.0827940
3200.09, 0.0836220
3202.07, 0.0845320
3204.05, 0.0854430
3206.03, 0.0862700
3208.02, 0.0870980
3210.0, 0.0879250
3211.99, 0.0888350
3213.98, 0.0897870
3215.98, 0.0907390
3217.97, 0.0916490
3219.97, 0.0925590
3221.97, 0.0935110
3223.98, 0.0943380
3225.98, 0.0952900
3227.99, 0.0962830
3230.0, 0.0972350
3232.02, 0.0981450
3234.03, 0.0990140
3236.05, 0.100007
3238.07, 0.100917
3240.1, 0.101952
3242.12, 0.102821
3244.15, 0.103814
3246.18, 0.104889
3248.22, 0.105800
3250.25, 0.106669
3252.29, 0.107703
3254.33, 0.108738
3256.38, 0.109772
3258.43, 0.110848
3260.47, 0.111965
3262.53, 0.112917
3264.58, 0.113827
3266.64, 0.114861
3268.7, 0.115937
3270.76, 0.117054
3272.82, 0.118213
3274.89, 0.119206
3276.96, 0.120364
3279.04, 0.121481
3281.11, 0.122475
3283.19, 0.123509
3285.27, 0.124667
3287.35, 0.125785
3289.44, 0.126943
3291.53, 0.128184
3293.62, 0.129343
3295.71, 0.130502
3297.81, 0.131619
3299.91, 0.132860
3302.01, 0.134019
3304.11, 0.135218
3306.22, 0.136460
3308.33, 0.137536
3310.44, 0.138694
3312.56, 0.139935
3314.68, 0.141094
3316.8, 0.142211
3318.92, 0.143452
3321.05, 0.144652
3323.18, 0.145894
3325.31, 0.147052
3327.44, 0.148169
3329.58, 0.149369
3331.72, 0.150652
3333.86, 0.151810
3336.01, 0.153052
3338.16, 0.154169
3340.31, 0.155286
3342.46, 0.156320
3344.61, 0.157520
3346.77, 0.158720
3348.94, 0.159879
3351.1, 0.160955
3353.27, 0.162072
3355.44, 0.163106
3357.61, 0.164182
3359.79, 0.165216
3361.97, 0.166292
3364.15, 0.167161
3366.33, 0.167947
3368.52, 0.168899
3370.71, 0.169975
3372.9, 0.170926
3375.1, 0.172044
3377.3, 0.173202
3379.5, 0.174443
3381.71, 0.175850
3383.91, 0.177174
3386.12, 0.178498
3388.34, 0.179864
3390.55, 0.181064
3392.77, 0.182181
3394.99, 0.183132
3397.22, 0.184043
3399.45, 0.184912
3401.68, 0.185822
3403.91, 0.186774
3406.15, 0.187601
3408.39, 0.188305
3410.63, 0.189256
3412.87, 0.190249
3415.12, 0.191242
3417.37, 0.192318
3419.63, 0.193559
3421.88, 0.194966
3424.14, 0.196456
3426.41, 0.197821
3428.67, 0.199352
3430.94, 0.200842
3433.21, 0.202331
3435.49, 0.203779
3437.77, 0.205186
3440.05, 0.206552
3442.33, 0.207834
3444.62, 0.209076
3446.91, 0.210358
3449.2, 0.211517
3451.5, 0.212717
3453.8, 0.213958
3456.1, 0.215199
3458.41, 0.216358
3460.72, 0.217475
3463.03, 0.218551
3465.34, 0.219502
3467.66, 0.220330
3469.98, 0.221199
3472.31, 0.221944
3474.63, 0.222771
3476.96, 0.223516
3479.3, 0.224344
3481.64, 0.225337
3483.97, 0.226288
3486.32, 0.227157
3488.66, 0.227902
3491.01, 0.228605
3493.36, 0.229350
3495.72, 0.229805
3498.08, 0.230260
3500.44, 0.230881
3502.81, 0.231833
3505.18, 0.233074
3507.55, 0.234522
3509.92, 0.236136
3512.3, 0.237998
3514.68, 0.239860
3517.06, 0.241598
3519.45, 0.243128
3521.84, 0.244701
3524.24, 0.246066
3526.64, 0.247432
3529.04, 0.248673
3531.44, 0.249956
3533.85, 0.251197
3536.26, 0.252314
3538.67, 0.253431
3541.09, 0.254507
3543.51, 0.255500
3545.93, 0.256534
3548.36, 0.257652
3550.79, 0.258769
3553.22, 0.259679
3555.66, 0.260631
3558.1, 0.261624
3560.54, 0.262617
3562.99, 0.263568
3565.44, 0.264603
3567.9, 0.265513
3570.35, 0.266465
3572.81, 0.267375
3575.28, 0.268244
3577.75, 0.269030
3580.22, 0.269899
3582.69, 0.270685
3585.17, 0.271595
3587.65, 0.272464
3590.14, 0.273333
3592.62, 0.274037
3595.11, 0.274864
3597.61, 0.275692
3600.11, 0.276519
3602.61, 0.277305
3605.11, 0.277967
3607.62, 0.278588
3610.14, 0.279416
3612.65, 0.280119
3615.17, 0.280740
3617.69, 0.281402
3620.22, 0.282064
3622.75, 0.282684
3625.28, 0.283346
3627.82, 0.283967
3630.36, 0.284629
3632.9, 0.285250
3635.45, 0.285829
3638.0, 0.286450
3640.56, 0.287112
3643.12, 0.287691
3645.68, 0.288312
3648.24, 0.288891
3650.81, 0.289553
3653.39, 0.290256
3655.96, 0.290960
3658.54, 0.291622
3661.13, 0.292284
3663.71, 0.293029
3666.3, 0.293773
3668.9, 0.294435
3671.5, 0.295180
3674.1, 0.295966
3676.7, 0.296752
3679.31, 0.297456
3681.93, 0.298325
3684.54, 0.299069
3687.17, 0.299856
3689.79, 0.300600
3692.42, 0.301304
3695.05, 0.301924
3697.69, 0.302545
3700.32, 0.303083
3702.97, 0.303745
3705.61, 0.304242
3708.27, 0.304821
3710.92, 0.305235
3713.58, 0.305731
3716.24, 0.306103
3718.91, 0.306600
3721.58, 0.307179
3724.25, 0.307676
3726.93, 0.308131
3729.61, 0.308710
3732.29, 0.309207
3734.98, 0.309703
3737.67, 0.310241
3740.37, 0.310820
3743.07, 0.311358
3745.78, 0.311896
3748.49, 0.312269
3751.2, 0.312724
3753.91, 0.313220
3756.63, 0.313634
3759.36, 0.314048
3762.09, 0.314586
3764.82, 0.314999
3767.55, 0.315455
3770.29, 0.315827
3773.04, 0.316241
3775.78, 0.316572
3778.54, 0.316903
3781.29, 0.317358
3784.05, 0.317813
3786.82, 0.318144
3789.59, 0.318434
3792.36, 0.318723
3795.13, 0.319013
3797.92, 0.319220
3800.7, 0.319427
3803.49, 0.319510
3806.28, 0.319716
3809.08, 0.319882
3811.88, 0.320006
3814.68, 0.320047
3817.49, 0.320089
3820.31, 0.320172
3823.12, 0.320296
3825.94, 0.320254
3828.77, 0.320296
3831.6, 0.320378
3834.43, 0.320503
3837.27, 0.320585
3840.11, 0.320668
3842.96, 0.320792
3845.81, 0.320958
3848.67, 0.321247
3851.53, 0.321620
3854.39, 0.321785
3857.26, 0.321827
3860.13, 0.321992
3863.01, 0.322116
3865.89, 0.322199
3868.77, 0.322364
3871.66, 0.322364
3874.55, 0.322406
3877.45, 0.322447
3880.35, 0.322489
3883.26, 0.322447
3886.17, 0.322489
3889.09, 0.322406
3892.01, 0.322364
3894.93, 0.322240
3897.86, 0.322116
3900.79, 0.321992
3903.73, 0.321868
3906.67, 0.321620
3909.62, 0.321454
3912.57, 0.321371
3915.52, 0.321330
3918.48, 0.321123
3921.45, 0.320958
3924.42, 0.320834
3927.39, 0.320916
3930.37, 0.320916
3933.35, 0.320916
3936.34, 0.320792
3939.33, 0.320668
3942.32, 0.320544
3945.32, 0.320296
3948.33, 0.319965
3951.34, 0.319841
3954.35, 0.319592
3957.37, 0.319344
3960.39, 0.319054
3963.42, 0.318641
3966.45, 0.318185
3969.49, 0.317896
3972.53, 0.317565
3975.58, 0.317151
3978.63, 0.316696
3981.68, 0.316324
3984.75, 0.315868
3987.81, 0.315496
3990.88, 0.315041
3993.95, 0.314668
3997.03, 0.314255
4000.12, 0.313800
4003.21, 0.313262
4006.3, 0.312806
4009.4, 0.312351
4012.5, 0.311938
4015.61, 0.311482
4018.72, 0.311069
4021.84, 0.310614
4024.96, 0.310283
4028.09, 0.309869
4031.22, 0.309414
4034.36, 0.308876
4037.5, 0.308503
4040.65, 0.308048
4043.8, 0.307510
4046.96, 0.306972
4050.12, 0.306435
4053.29, 0.305731
4056.46, 0.305110
4059.64, 0.304407
4062.82, 0.303745
4066.0, 0.302959
4069.19, 0.302256
4072.39, 0.301428
4075.59, 0.300600
4078.8, 0.299649
4082.01, 0.298780
4085.23, 0.297870
4088.45, 0.296918
4091.68, 0.296049
4094.91, 0.295139
4098.15, 0.294063
4101.39, 0.293111
4104.63, 0.292077
4107.89, 0.291208
4111.14, 0.290215
4114.41, 0.289305
4117.67, 0.288394
4120.95, 0.287484
4124.23, 0.286532
4127.51, 0.285664
4130.8, 0.284795
4134.09, 0.283843
4137.39, 0.282850
4140.7, 0.281940
4144.01, 0.280947
4147.32, 0.279995
4150.64, 0.279043
4153.97, 0.278092
4157.3, 0.277099
4160.64, 0.276230
4163.98, 0.275278
4167.33, 0.274409
4170.68, 0.273540
4174.04, 0.272630
4177.4, 0.271637
4180.77, 0.270685
4184.14, 0.269775
4187.52, 0.268865
4190.91, 0.267872
4194.3, 0.267044
4197.69, 0.266217
4201.1, 0.265389
4204.5, 0.264686
4207.92, 0.264230
4211.34, 0.263734
4214.76, 0.263403
4218.19, 0.263031
4221.62, 0.262658
4225.06, 0.262162
4228.51, 0.261458
4231.96, 0.260424
4235.42, 0.259224
4238.88, 0.257817
4242.35, 0.256079
4245.83, 0.254052
4249.31, 0.251735
4252.79, 0.249294
4256.28, 0.247390
4259.78, 0.246480
4263.29, 0.246066
4266.79, 0.245363
4270.31, 0.244452
4273.83, 0.243253
4277.35, 0.241970
4280.89, 0.240604
4284.42, 0.239156
4287.97, 0.237667
4291.52, 0.236177
4295.07, 0.234605
4298.63, 0.233033
4302.2, 0.231295
4305.78, 0.229764
4309.35, 0.228274
4312.94, 0.226743
4316.53, 0.225254
4320.13, 0.223888
4323.73, 0.222482
4327.34, 0.221158
4330.96, 0.219875
4334.58, 0.218592
4338.21, 0.217309
4341.84, 0.216068
4345.48, 0.214786
4349.12, 0.213503
4352.77, 0.212303
4356.43, 0.211103
4360.1, 0.209738
4363.76, 0.208496
4367.44, 0.207338
4371.12, 0.206096
4374.81, 0.204772
4378.51, 0.203490
4382.21, 0.202290
4385.92, 0.201049
4389.63, 0.199724
4393.35, 0.198483
4397.08, 0.197242
4400.81, 0.196001
4404.55, 0.194718
4408.29, 0.193518
4412.04, 0.192235
4415.8, 0.190994
4419.57, 0.189711
4423.34, 0.188429
4427.12, 0.187187
4430.9, 0.185905
4434.69, 0.184539
4438.49, 0.183257
4442.29, 0.182015
4446.1, 0.180857
4449.92, 0.179615
4453.74, 0.178416
4457.57, 0.177133
4461.41, 0.175933
4465.25, 0.174857
4469.1, 0.173823
4472.95, 0.172747
4476.82, 0.171754
4480.69, 0.170720
4484.56, 0.169809
4488.44, 0.169023
4492.33, 0.168361
4496.23, 0.167575
4500.13, 0.166872
4504.04, 0.166210
4507.96, 0.165589
4511.88, 0.165010
4515.81, 0.164513
4519.75, 0.164099
4523.69, 0.163768
4527.65, 0.163313
4531.6, 0.162899
4535.57, 0.162444
4539.54, 0.162155
4543.52, 0.161906
4547.5, 0.161617
4551.5, 0.161368
4555.5, 0.161037
4559.5, 0.160748
4563.52, 0.160500
4567.54, 0.160334
4571.56, 0.160169
4575.6, 0.159962
4579.64, 0.159837
4583.69, 0.159631
4587.75, 0.159465
4591.81, 0.159341
4595.88, 0.159258
4599.96, 0.159134
4604.04, 0.159051
4608.14, 0.158844
4612.24, 0.158638
4616.34, 0.158431
4620.46, 0.158307
4624.58, 0.158100
4628.71, 0.157934
4632.84, 0.157686
4636.99, 0.157520
4641.14, 0.157314
4645.3, 0.157189
4649.47, 0.157065
4653.64, 0.156900
4657.82, 0.156776
4662.01, 0.156817
4666.21, 0.156817
4670.41, 0.156817
4674.62, 0.156817
4678.84, 0.156858
4683.07, 0.156900
4687.3, 0.156941
4691.54, 0.156983
4695.79, 0.156983
4700.05, 0.156983
4704.31, 0.156941
4708.59, 0.157024
4712.87, 0.156983
4717.15, 0.156900
4721.45, 0.156817
4725.76, 0.156776
4730.07, 0.156734
4734.39, 0.156693
4738.72, 0.156652
4743.05, 0.156610
4747.39, 0.156610
4751.75, 0.156569
4756.1, 0.156652
4760.47, 0.156610
4764.85, 0.156693
4769.23, 0.156776
4773.62, 0.156900
4778.02, 0.157024
4782.43, 0.157272
4786.85, 0.157479
4791.27, 0.157769
4795.7, 0.158058
4800.14, 0.158389
4804.59, 0.158803
4809.05, 0.159300
4813.51, 0.159713
4817.99, 0.160169
4822.47, 0.160624
4826.96, 0.161037
4831.46, 0.161534
4835.96, 0.162072
4840.48, 0.162486
4845.0, 0.162941
4849.54, 0.163355
4854.08, 0.163810
4858.63, 0.164141
4863.18, 0.164472
4867.75, 0.164679
4872.33, 0.164803
4876.91, 0.164968
4881.5, 0.165175
4886.1, 0.165258
4890.71, 0.165299
4895.33, 0.165299
4899.96, 0.165382
4904.59, 0.165175
4909.24, 0.164968
4913.89, 0.164803
4918.55, 0.164637
4923.22, 0.164430
4927.9, 0.164306
4932.59, 0.164099
4937.29, 0.163892
4942.0, 0.163727
4946.71, 0.163686
4951.44, 0.163603
4956.17, 0.163561
4960.91, 0.163479
4965.67, 0.163479
4970.43, 0.163437
4975.2, 0.163396
4979.98, 0.163272
4984.76, 0.163189
4989.56, 0.162982
4994.37, 0.162734
4999.18, 0.162486
5004.01, 0.162279
5008.84, 0.162072
5013.69, 0.161948
5018.54, 0.161865
5023.4, 0.161741
5028.28, 0.161493
5033.16, 0.161286
5038.05, 0.160955
5042.95, 0.160624
5047.86, 0.160127
5052.78, 0.159672
5057.71, 0.159134
5062.65, 0.158679
5067.6, 0.158141
5072.56, 0.157562
5077.53, 0.157065
5082.5, 0.156734
5087.49, 0.156362
5092.49, 0.156031
5097.5, 0.155865
5102.51, 0.155700
5107.54, 0.155452
5112.58, 0.155327
5117.62, 0.155079
5122.68, 0.154665
5127.75, 0.154252
5132.82, 0.153797
5137.91, 0.153217
5143.01, 0.152472
5148.12, 0.151521
5153.23, 0.150155
5158.36, 0.148666
5163.5, 0.147052
5168.65, 0.145314
5173.81, 0.143577
5178.98, 0.141797
5184.15, 0.140184
5189.34, 0.138777
5194.54, 0.137784
5199.75, 0.137039
5204.98, 0.136501
5210.21, 0.136543
5215.45, 0.136749
5220.7, 0.136791
5225.96, 0.137287
5231.23, 0.138032
5236.52, 0.138901
5241.81, 0.139604
5247.12, 0.140473
5252.44, 0.141177
5257.76, 0.141797
5263.1, 0.142252
5268.45, 0.142666
5273.81, 0.142915
5279.18, 0.142956
5284.56, 0.142873
5289.95, 0.142997
5295.36, 0.142832
5300.77, 0.142542
5306.2, 0.142335
5311.63, 0.142170
5317.08, 0.141797
5322.54, 0.141632
5328.01, 0.141384
5333.49, 0.141053
5338.98, 0.140515
5344.49, 0.140225
5350.0, 0.139853
5355.53, 0.138818
5361.07, 0.137577
5366.62, 0.136543
5372.18, 0.135508
5377.75, 0.134474
5383.34, 0.133315
5388.93, 0.132157
5394.54, 0.130998
5400.16, 0.129840
5405.79, 0.128681
5411.44, 0.127647
5417.09, 0.126943
5422.76, 0.126116
5428.43, 0.124378
5434.12, 0.123095
5439.83, 0.122102
5445.54, 0.121109
5451.26, 0.120116
5457.0, 0.119578
5462.75, 0.119289
5468.52, 0.118626
5474.29, 0.118006
5480.08, 0.117592
5485.88, 0.116847
5491.69, 0.116434
5497.51, 0.116020
5503.35, 0.115689
5509.2, 0.115234
5515.06, 0.114903
5520.93, 0.114572
5526.82, 0.114075
5532.71, 0.113372
5538.63, 0.112792
5544.55, 0.112172
5550.49, 0.111634
5556.44, 0.110765
5562.4, 0.109772
5568.37, 0.108820
5574.36, 0.108324
5580.36, 0.107413
5586.37, 0.105924
5592.4, 0.104517
5598.44, 0.103359
5604.49, 0.102035
5610.56, 0.100710
5616.63, 0.0993450
5622.73, 0.0978550
5628.83, 0.0965310
5634.95, 0.0956210
5641.08, 0.0947940
5647.23, 0.0932630
5653.39, 0.0919800
5659.56, 0.0908630
5665.74, 0.0897460
5671.94, 0.0892080
5678.15, 0.0883800
5684.38, 0.0875110
5690.62, 0.0869320
5696.87, 0.0862290
5703.14, 0.0856080
5709.42, 0.0854010
5715.72, 0.0846560
5722.03, 0.0837870
5728.35, 0.0828360
5734.69, 0.0820500
5741.03, 0.0813050
5747.4, 0.0807260
5753.78, 0.0795670
5760.17, 0.0791120
5766.58, 0.0786570
5773.0, 0.0770020
5779.44, 0.0754710
5785.88, 0.0741050
5792.35, 0.0726570
5798.83, 0.0713330
5805.32, 0.0698020
5811.83, 0.0683950
5818.35, 0.0671540
5824.89, 0.0652920
5831.45, 0.0628100
5838.01, 0.0604100
5844.59, 0.0579690
5851.19, 0.0557340
5857.8, 0.0534580
5864.43, 0.0509350
5871.07, 0.0483280
5877.73, 0.0462590
5884.4, 0.0431140
5891.09, 0.0401770
5897.79, 0.0370730
5904.5, 0.0337220
5911.23, 0.0307840
5917.98, 0.0278460
5924.75, 0.0249910
5931.53, 0.0225920
5938.32, 0.0197780
5945.13, 0.0170890
5951.96, 0.0149370
5958.8, 0.0132820
5965.65, 0.0123720
5972.53, 0.0121650
5979.42, 0.0124960
5986.32, 0.0133650
5993.24, 0.0143160
6000.18, 0.0151020
6007.13, 0.0158060
6014.1, 0.0163440
6021.08, 0.0166750
6028.09, 0.0169230
6035.1, 0.0170890
6042.14, 0.0174200
6049.19, 0.0175850
6056.25, 0.0172540
6063.34, 0.0170890
6070.44, 0.0172130
6077.55, 0.0173780
6084.69, 0.0176260
6091.84, 0.0183300
6099.0, 0.0192400
6106.19, 0.0203160
6113.39, 0.0217230
6120.61, 0.0230880
6127.84, 0.0245360
6135.09, 0.0263150
6142.36, 0.0281770
6149.65, 0.0300810
6156.95, 0.0321500
6164.27, 0.0341360
6171.61, 0.0359150
6178.97, 0.0379420
6186.34, 0.0399280
6193.73, 0.0413350
6201.14, 0.0427010
6208.57, 0.0443140
6216.01, 0.0457210
6223.47, 0.0469210
6230.95, 0.0480800
6238.45, 0.0492380
6245.97, 0.0502720
6253.5, 0.0511830
6261.06, 0.0519690
6268.63, 0.0527550
6276.21, 0.0534580
6283.82, 0.0540790
6291.45, 0.0547410
6299.1, 0.0552790
6306.76, 0.0558170
6314.44, 0.0563960
6322.14, 0.0570170
6329.86, 0.0576370
6337.6, 0.0585890
6345.35, 0.0594170
6353.13, 0.0594170
6360.92, 0.0598300
6368.74, 0.0606580
6376.57, 0.0609480
6384.43, 0.0611960
6392.3, 0.0616510
6400.19, 0.0622720
6408.1, 0.0637610
6416.03, 0.0646720
6423.98, 0.0641750
6431.95, 0.0641340
6439.94, 0.0642580
6447.95, 0.0645060
6455.98, 0.0648370
6464.03, 0.0651680
6472.1, 0.0657060
6480.19, 0.0662440
6488.31, 0.0671540
6496.44, 0.0672370
6504.59, 0.0663680
6512.76, 0.0662020
6520.95, 0.0664920
6529.16, 0.0662440
6537.4, 0.0661610
6545.65, 0.0662850
6553.92, 0.0663680
6562.22, 0.0664090
6570.54, 0.0666990
6578.88, 0.0663680
6587.23, 0.0659960
6595.61, 0.0657060
6604.02, 0.0652920
6612.44, 0.0650030
6620.89, 0.0648370
6629.35, 0.0651680
6637.84, 0.0653340
6646.35, 0.0642580
6654.88, 0.0633890
6663.44, 0.0630990
6672.01, 0.0629750
6680.61, 0.0627270
6689.23, 0.0620650
6697.88, 0.0615680
6706.54, 0.0614860
6715.23, 0.0611130
6723.94, 0.0605750
6732.67, 0.0599550
6741.42, 0.0594990
6750.2, 0.0590860
6759.0, 0.0587130
6767.82, 0.0583410
6776.67, 0.0580100
6785.54, 0.0577620
6794.44, 0.0569750
6803.35, 0.0558580
6812.29, 0.0551960
6821.26, 0.0549070
6830.24, 0.0543690
6839.25, 0.0536650
6848.29, 0.0534580
6857.35, 0.0536240
6866.43, 0.0532520
6875.54, 0.0523000
6884.67, 0.0518450
6893.82, 0.0515140
6903.0, 0.0513070
6912.2, 0.0510590
6921.43, 0.0507690
6930.69, 0.0505620
6939.96, 0.0503550
6949.27, 0.0503550
6958.59, 0.0506030
6967.95, 0.0503550
6977.33, 0.0501070
6986.73, 0.0501070
6996.16, 0.0501070
7005.61, 0.0500240
7015.09, 0.0500240
7024.6, 0.0499410
7034.13, 0.0498590
7043.69, 0.0499830
7053.27, 0.0496520
7062.88, 0.0491550
7072.52, 0.0488660
7082.18, 0.0486170
7091.87, 0.0483280
7101.58, 0.0479140
7111.32, 0.0475420
7121.09, 0.0471280
7130.88, 0.0466310
7140.71, 0.0462590
7150.56, 0.0458040
7160.43, 0.0453490
7170.33, 0.0448520
7180.27, 0.0441900
7190.23, 0.0436520
7200.21, 0.0431970
7210.23, 0.0427420
7220.27, 0.0420390
7230.34, 0.0414180
7240.44, 0.0408390
7250.56, 0.0403010
7260.72, 0.0398040
7270.9, 0.0393080
7281.12, 0.0387700
7291.36, 0.0382730
7301.63, 0.0378600
7311.93, 0.0373630
7322.25, 0.0367840
7332.61, 0.0362870
7343.0, 0.0357080
7353.41, 0.0350870
7363.86, 0.0345910
7374.33, 0.0341360
7384.83, 0.0335980
7395.37, 0.0329360
7405.93, 0.0323560
7416.53, 0.0318600
7427.15, 0.0312810
7437.81, 0.0307010
7448.5, 0.0301630
7459.22, 0.0296670
7469.96, 0.0291700
7480.74, 0.0285080
7491.55, 0.0278460
7502.39, 0.0272260
7513.27, 0.0266880
7524.17, 0.0260670
7535.11, 0.0254470
7546.08, 0.0248260
7557.08, 0.0242880
7568.11, 0.0237920
7579.17, 0.0232120
7590.27, 0.0225920
7601.4, 0.0219710
7612.56, 0.0213920
7623.76, 0.0208540
7634.98, 0.0202330
7646.24, 0.0196120
7657.54, 0.0189920
7668.87, 0.0184130
7680.23, 0.0178330
7691.62, 0.0172950
7703.05, 0.0167570
7714.51, 0.0160950
7726.01, 0.0154330
7737.54, 0.0148540
7749.11, 0.0143160
7760.71, 0.0137780
7772.35, 0.0131580
7784.02, 0.0126610
7795.72, 0.0122060
7807.46, 0.0117510
7819.23, 0.0112540
7831.04, 0.0107990
7842.89, 0.0103030
7854.77, 0.00988900
7866.69, 0.00939200
7878.65, 0.00893700
7890.64, 0.00852400
7902.67, 0.00811000
7914.74, 0.00765500
7926.84, 0.00724100
7938.98, 0.00678600
7951.16, 0.00637200
7963.37, 0.00604100
7975.62, 0.00575100
7987.91, 0.00546200
8000.24, 0.00517200
8012.6, 0.00488200
8025.01, 0.00459300
8037.45, 0.00434500
8049.93, 0.00409600
8062.45, 0.00388900
8075.01, 0.00364100
8087.61, 0.00343400
8100.24, 0.00335100
8112.91, 0.00322700
8125.63, 0.00310300
8138.39, 0.00302000
8151.18, 0.00293800
8164.02, 0.00289600
8176.9, 0.00297900
8189.81, 0.00302000
8202.77, 0.00306200
8215.77, 0.00310300
8228.82, 0.00322700
8241.9, 0.00343400
8255.02, 0.00372400
8268.19, 0.00413800
8281.39, 0.00455100
8294.65, 0.00500700
8307.94, 0.00575100
8321.28, 0.00653700
8334.66, 0.00740600
8348.08, 0.00848200
8361.54, 0.00972300
8375.05, 0.0112130
8388.6, 0.0130340
8402.2, 0.0149370
8415.84, 0.0171710
8429.52, 0.0197370
8443.25, 0.0226330
8457.02, 0.0257780
8470.84, 0.0291700
8484.7, 0.0327700
8498.61, 0.0366180
8512.57, 0.0405900
8526.57, 0.0446040
8540.62, 0.0488660
8554.71, 0.0531270
8568.85, 0.0573480
8583.04, 0.0614860
8597.27, 0.0655820
8611.55, 0.0696370
8625.88, 0.0736500
8640.26, 0.0773330
8654.68, 0.0803530
8669.16, 0.0824630
8683.68, 0.0835390
8698.25, 0.0834980
8712.87, 0.0824630
8727.53, 0.0805190
8742.25, 0.0778290
8757.02, 0.0747670
8771.83, 0.0714570
8786.7, 0.0680230
8801.62, 0.0644650
8816.59, 0.0607820
8831.61, 0.0568510
8846.68, 0.0527960
8861.8, 0.0486590
8876.97, 0.0446040
8892.2, 0.0407140
8907.48, 0.0371560
8922.81, 0.0343010
8938.2, 0.0324390
8953.63, 0.0314460
8969.13, 0.0315290
8984.67, 0.0327290
9000.27, 0.0349630
9015.92, 0.0381080
9031.63, 0.0422450
9047.39, 0.0471690
9063.21, 0.0523830
9079.08, 0.0575130
9095.01, 0.0622720
9111.0, 0.0664510
9127.04, 0.0697610
9143.13, 0.0720370
9159.28, 0.0732360
9175.49, 0.0734430
9191.76, 0.0726160
9208.09, 0.0707950
9224.47, 0.0682300
9240.92, 0.0651680
9257.42, 0.0620230
9273.98, 0.0590440
9290.6, 0.0562720
9307.28, 0.0538310
9324.02, 0.0518860
9340.82, 0.0503970
9357.68, 0.0490730
9374.6, 0.0477070
9391.58, 0.0465900
9408.62, 0.0462590
9425.73, 0.0476660
9442.9, 0.0508520
9460.13, 0.0552380
9477.42, 0.0600790
9494.78, 0.0647130
9512.2, 0.0686850
9529.69, 0.0713330
9547.24, 0.0726570
9564.86, 0.0732360
9582.54, 0.0736500
9600.28, 0.0747260
9618.1, 0.0768360
9635.97, 0.0795670
9653.92, 0.0826700
9671.93, 0.0856080
9690.01, 0.0881730
9708.16, 0.0900350
9726.37, 0.0911940
9744.65, 0.0915660
9763.0, 0.0914830
9781.43, 0.0910280
9799.92, 0.0903660
9818.48, 0.0899110
9837.1, 0.0900770
9855.8, 0.0906970
9874.58, 0.0921040
9893.42, 0.0940490
9912.34, 0.0964490
9931.33, 0.0998000
9950.39, 0.104352
9969.52, 0.109896
9988.74, 0.115772
10008.0, 0.121026
10027.4, 0.125205
10046.8, 0.128102
10066.3, 0.129840
10085.9, 0.130584
10105.6, 0.130626
10125.3, 0.130295
10145.1, 0.129881
10165.0, 0.129426
10185.0, 0.129136
10205.0, 0.128929
10225.2, 0.128681
10245.4, 0.128350
10265.7, 0.127936
10286.0, 0.127357
10306.5, 0.126736
10327.0, 0.125826
10347.6, 0.124543
10368.3, 0.123137
10389.1, 0.121647
10409.9, 0.120033
10430.9, 0.118213
10451.9, 0.116144
10473.0, 0.114075
10494.2, 0.111634
10515.5, 0.108779
10536.9, 0.105262
10558.4, 0.101083
10579.9, 0.0962000
10601.5, 0.0909460
10623.3, 0.0857320
10645.1, 0.0810150
10667.0, 0.0772500
10689.0, 0.0743540
10711.1, 0.0719540
10733.2, 0.0700920
10755.5, 0.0686440
10777.9, 0.0677330
10800.3, 0.0673200
10822.9, 0.0673200
10845.5, 0.0674850
10868.2, 0.0678160
10891.1, 0.0682710
10914.0, 0.0685610
10937.0, 0.0688090
10960.2, 0.0692230
10983.4, 0.0695540
11006.7, 0.0699260
11030.1, 0.0704230
11053.6, 0.0707950
11077.3, 0.0712090
11101.0, 0.0716640
11124.8, 0.0720780
11148.7, 0.0724500
11172.7, 0.0727400
11196.9, 0.0728640
11221.1, 0.0729470
11245.4, 0.0729880
11269.9, 0.0729050
11294.4, 0.0728230
11319.1, 0.0728230
11343.9, 0.0726160
11368.8, 0.0723680
11393.7, 0.0720780
11418.8, 0.0717880
11444.0, 0.0714570
11469.4, 0.0710430
11494.8, 0.0707120
11520.3, 0.0704640
11546.0, 0.0699260
11571.8, 0.0693470
11597.7, 0.0688090
11623.7, 0.0682300
11649.8, 0.0675680
11676.0, 0.0669470
11702.4, 0.0663680
11728.9, 0.0656650
11755.5, 0.0649200
11782.2, 0.0641340
11809.0, 0.0632650
11836.0, 0.0623960
11863.0, 0.0614440
11890.3, 0.0604100
11917.6, 0.0594170
11945.0, 0.0583000
11972.6, 0.0569750
12000.4, 0.0558170
12028.2, 0.0544100
12056.2, 0.0527550
12084.3, 0.0510590
12112.5, 0.0492380
12140.9, 0.0472110
12169.4, 0.0449760
12198.0, 0.0426180
12226.8, 0.0402590
12255.7, 0.0382320
12284.7, 0.0367010
12313.9, 0.0356250
12343.2, 0.0347560
12372.7, 0.0339290
12402.3, 0.0330180
12432.0, 0.0323560
12461.9, 0.0319010
12491.9, 0.0315290
12522.1, 0.0316120
12552.4, 0.0319840
12582.9, 0.0327290
12613.5, 0.0340940
12644.3, 0.0357490
12675.2, 0.0377350
12706.3, 0.0395970
12737.5, 0.0405900
12768.9, 0.0408800
12800.4, 0.0409210
12832.1, 0.0408800
12863.9, 0.0412110
12895.9, 0.0424110
12928.1, 0.0443140
12960.4, 0.0464660
12992.9, 0.0484520
13025.5, 0.0501070
13058.3, 0.0511000
13091.3, 0.0515140
13124.4, 0.0514720
13157.8, 0.0507280
13191.2, 0.0496100
13224.9, 0.0482860
13258.7, 0.0468380
13292.7, 0.0457620
13326.9, 0.0451830
13361.2, 0.0446870
13395.7, 0.0439830
13430.4, 0.0436110
13465.3, 0.0436110
13500.4, 0.0434450
13535.7, 0.0433210
13571.1, 0.0431140
13606.7, 0.0429900
13642.5, 0.0429070
13678.5, 0.0426590
13714.7, 0.0421630
13751.1, 0.0419140
13787.6, 0.0415830
13824.4, 0.0408800
13861.4, 0.0405080
13898.5, 0.0401350
13935.9, 0.0397630
13973.5, 0.0397210
14011.2, 0.0395560
14049.2, 0.0395150
14087.4, 0.0395150
14125.8, 0.0393490
14164.3, 0.0391010
14203.2, 0.0391010
14242.2, 0.0387700
14281.4, 0.0383970
14320.9, 0.0379420
14360.5, 0.0374460
14400.4, 0.0369910
14440.5, 0.0364940
14480.9, 0.0359980
14521.4, 0.0354600
14562.2, 0.0351290
14603.3, 0.0346740
14644.5, 0.0340120
14686.0, 0.0334320
14727.7, 0.0329360
14769.7, 0.0323560
14811.9, 0.0316530
14854.3, 0.0310320
14897.0, 0.0302460
14939.9, 0.0296260
14983.1, 0.0290050
15026.5, 0.0281360
15070.2, 0.0273090
15114.2, 0.0265220
15158.3, 0.0257360
15202.8, 0.0249500
15247.5, 0.0244120
15292.5, 0.0235850
15337.7, 0.0226330
15383.2, 0.0220540
15429.0, 0.0213090
15475.1, 0.0203990
15521.4, 0.0196950
15568.0, 0.0191570
15614.9, 0.0186190
15662.1, 0.0178330
15709.6, 0.0172950
15757.3, 0.0170060
15805.4, 0.0166330
15853.7, 0.0162610
15902.3, 0.0162200
15951.2, 0.0164680
16000.5, 0.0170890
16050.0, 0.0176260
16099.8, 0.0183300
16150.0, 0.0188260
16200.5, 0.0190750
16251.3, 0.0190750
16302.4, 0.0189090
16353.8, 0.0186610
16405.5, 0.0182470
16457.6, 0.0178330
16510.0, 0.0177090
16562.8, 0.0171300
16615.9, 0.0166330
16669.3, 0.0164680
16723.1, 0.0163440
16777.2, 0.0162200
16831.7, 0.0162610
16886.5, 0.0165510
16941.7, 0.0167160
16997.2, 0.0169640
17053.1, 0.0176260
17109.4, 0.0184130
17166.1, 0.0195710
17223.1, 0.0203570
17280.5, 0.0204810
17338.3, 0.0205230
17396.5, 0.0209780
17455.1, 0.0216400
17514.0, 0.0226330
17573.4, 0.0241640
17633.2, 0.0255710
17693.4, 0.0265640
17754.0, 0.0268120
17815.0, 0.0261910
17876.4, 0.0252400
17938.3, 0.0242050
18000.5, 0.0231710
18063.3, 0.0220120
18126.4, 0.0213500
18190.0, 0.0210610
18254.1, 0.0207710
18318.6, 0.0203990
18383.5, 0.0199430
18449.0, 0.0200260
18514.9, 0.0205230
18581.2, 0.0208950
18648.0, 0.0215160
18715.4, 0.0215570
18783.2, 0.0211850
18851.5, 0.0222610
18920.3, 0.0235020
18989.6, 0.0236260
19059.4, 0.0233360
19129.7, 0.0229640
19200.6, 0.0228810
19272.0, 0.0225920
19343.9, 0.0223850
19416.3, 0.0222610
19489.3, 0.0219300
19562.8, 0.0213500
19637.0, 0.0209780
19711.6, 0.0214330
19786.8, 0.0227570
19862.6, 0.0239570
19939.0, 0.0249500
20016.0, 0.0261910
20093.6, 0.0277220
20171.8, 0.0288810
20250.6, 0.0299150
20330.0, 0.0305360
20410.0, 0.0311570
20490.7, 0.0316940
20572.0, 0.0316940
20654.0, 0.0312810
20736.6, 0.0308670
20819.9, 0.0300810
20903.8, 0.0289220
20988.5, 0.0280950
21073.8, 0.0276810
21159.8, 0.0282190
21246.5, 0.0299570
21334.0, 0.0328940
21422.1, 0.0377770
21511.0, 0.0449760
21600.7, 0.0535000
21691.0, 0.0627680
21782.1, 0.0719950
21874.0, 0.0790710
21966.7, 0.0840360
22060.2, 0.0884220
22154.5, 0.0917730
22249.6, 0.0921870
22345.5, 0.0924770
22442.2, 0.0940490
22539.8, 0.0944630
22638.2, 0.0931390
22737.5, 0.0916900
22837.7, 0.0894150
22938.7, 0.0868490
23040.7, 0.0836220
23143.5, 0.0807670
23247.3, 0.0780360
23352.1, 0.0760090
23457.7, 0.0741880
23564.4, 0.0718300
23672.0, 0.0688920
23780.5, 0.0661200
23890.1, 0.0632230
24000.7, 0.0591680
24112.3, 0.0578030
24225.0, 0.0579690
24338.7, 0.0570170
24453.5, 0.0584240
24569.4, 0.0606170
24686.4, 0.0610300
24804.5, 0.0602440
