Database of Origin, USGS Spectral Database
Sample Description, See USGS database for additional info
Date Added,2017-07-03 06:06:56.535379

Data ID,USGS_cin02          
Sample ID, cinnabar_hs133.5282
Mineral Name, cinnabar
Material Class,Sulfide

Wavelength
1612.49, 0.503623
1612.99, 0.504030
1613.49, 0.504192
1614.0, 0.504681
1614.5, 0.505250
1615.0, 0.505332
1615.51, 0.505413
1616.01, 0.505657
1616.51, 0.506227
1617.02, 0.506634
1617.52, 0.506797
1618.03, 0.507041
1618.53, 0.507285
1619.04, 0.506878
1619.54, 0.507367
1620.05, 0.507692
1620.55, 0.507855
1621.06, 0.508343
1621.57, 0.508343
1622.08, 0.508587
1622.58, 0.509238
1623.09, 0.509076
1623.6, 0.508587
1624.11, 0.508669
1624.62, 0.509320
1625.13, 0.509645
1625.64, 0.509727
1626.15, 0.510378
1626.66, 0.510785
1627.17, 0.511029
1627.68, 0.510622
1628.19, 0.511110
1628.7, 0.511680
1629.21, 0.511680
1629.72, 0.511599
1630.24, 0.511843
1630.75, 0.512412
1631.26, 0.512738
1631.78, 0.512901
1632.29, 0.512657
1632.8, 0.512412
1633.32, 0.512412
1633.83, 0.512819
1634.35, 0.513389
1634.86, 0.513796
1635.38, 0.514040
1635.9, 0.513877
1636.41, 0.513796
1636.93, 0.513959
1637.45, 0.513959
1637.96, 0.514203
1638.48, 0.514691
1639.0, 0.515261
1639.52, 0.515505
1640.04, 0.515180
1640.56, 0.515424
1641.08, 0.516238
1641.59, 0.516075
1642.11, 0.516156
1642.63, 0.516400
1643.16, 0.516807
1643.68, 0.517133
1644.2, 0.517540
1644.72, 0.517540
1645.24, 0.517458
1645.76, 0.517784
1646.29, 0.517947
1646.81, 0.517784
1647.33, 0.517621
1647.86, 0.517784
1648.38, 0.517947
1648.9, 0.518354
1649.43, 0.518761
1649.95, 0.519005
1650.48, 0.519249
1651.0, 0.519575
1651.53, 0.519819
1652.06, 0.520388
1652.58, 0.520388
1653.11, 0.519982
1653.64, 0.519819
1654.17, 0.520388
1654.69, 0.520958
1655.22, 0.520958
1655.75, 0.520795
1656.28, 0.521040
1656.81, 0.521365
1657.34, 0.521447
1657.87, 0.521528
1658.4, 0.521691
1658.93, 0.521853
1659.46, 0.522260
1659.99, 0.522993
1660.52, 0.523074
1661.05, 0.522993
1661.59, 0.523074
1662.12, 0.523481
1662.65, 0.523725
1663.19, 0.523725
1663.72, 0.524214
1664.26, 0.524376
1664.79, 0.524376
1665.32, 0.524539
1665.86, 0.524621
1666.39, 0.524783
1666.93, 0.525027
1667.47, 0.525027
1668.0, 0.525109
1668.54, 0.525516
1669.08, 0.526085
1669.61, 0.526167
1670.15, 0.525923
1670.69, 0.525760
1671.23, 0.526167
1671.77, 0.526899
1672.31, 0.527225
1672.85, 0.527225
1673.39, 0.527144
1673.93, 0.527144
1674.47, 0.527469
1675.01, 0.528039
1675.55, 0.527957
1676.09, 0.527876
1676.64, 0.528283
1677.18, 0.529015
1677.72, 0.529504
1678.26, 0.529422
1678.81, 0.529260
1679.35, 0.529667
1679.89, 0.529992
1680.44, 0.530399
1680.98, 0.530480
1681.53, 0.530643
1682.07, 0.531050
1682.62, 0.530969
1683.17, 0.531213
1683.71, 0.531457
1684.26, 0.531294
1684.81, 0.531213
1685.36, 0.531620
1685.9, 0.532027
1686.45, 0.531864
1687.0, 0.531945
1687.55, 0.532190
1688.1, 0.532596
1688.65, 0.532841
1689.2, 0.533166
1689.75, 0.533655
1690.3, 0.533655
1690.85, 0.533329
1691.41, 0.533899
1691.96, 0.534143
1692.51, 0.534143
1693.06, 0.534306
1693.61, 0.534468
1694.17, 0.534224
1694.72, 0.534061
1695.28, 0.534306
1695.83, 0.534875
1696.39, 0.535201
1696.94, 0.535364
1697.5, 0.535119
1698.05, 0.535364
1698.61, 0.536015
1699.17, 0.536340
1699.72, 0.536259
1700.28, 0.536015
1700.84, 0.536340
1701.4, 0.536422
1701.95, 0.536666
1702.51, 0.537073
1703.07, 0.537317
1703.63, 0.537236
1704.19, 0.537154
1704.75, 0.537154
1705.31, 0.537480
1705.88, 0.537643
1706.44, 0.537724
1707.0, 0.537724
1707.56, 0.538049
1708.12, 0.538619
1708.69, 0.538456
1709.25, 0.538456
1709.81, 0.538456
1710.38, 0.538456
1710.94, 0.538782
1711.51, 0.539189
1712.07, 0.539189
1712.64, 0.539352
1713.2, 0.539433
1713.77, 0.539514
1714.34, 0.539840
1714.9, 0.539921
1715.47, 0.539921
1716.04, 0.539840
1716.61, 0.539759
1717.18, 0.540410
1717.74, 0.540328
1718.31, 0.540165
1718.88, 0.540491
1719.45, 0.540735
1720.02, 0.540735
1720.59, 0.540817
1721.17, 0.540898
1721.74, 0.540898
1722.31, 0.541142
1722.88, 0.541386
1723.45, 0.541386
1724.03, 0.541631
1724.6, 0.542037
1725.18, 0.542119
1725.75, 0.542363
1726.33, 0.542282
1726.9, 0.542200
1727.48, 0.542526
1728.05, 0.542770
1728.63, 0.542688
1729.2, 0.542851
1729.78, 0.543177
1730.36, 0.543177
1730.94, 0.543340
1731.51, 0.543502
1732.09, 0.543584
1732.67, 0.543991
1733.25, 0.544316
1733.83, 0.543991
1734.41, 0.543991
1734.99, 0.544235
1735.57, 0.544804
1736.15, 0.545130
1736.73, 0.544967
1737.32, 0.544723
1737.9, 0.544886
1738.48, 0.544886
1739.07, 0.544804
1739.65, 0.545130
1740.23, 0.545537
1740.82, 0.545618
1741.4, 0.545863
1741.99, 0.546270
1742.57, 0.546432
1743.16, 0.546595
1743.74, 0.546676
1744.33, 0.546758
1744.92, 0.546758
1745.51, 0.546758
1746.09, 0.546921
1746.68, 0.547165
1747.27, 0.547083
1747.86, 0.547572
1748.45, 0.548141
1749.04, 0.547897
1749.63, 0.547897
1750.22, 0.548060
1750.81, 0.548548
1751.4, 0.548711
1751.99, 0.548792
1752.59, 0.549199
1753.18, 0.549362
1753.77, 0.549444
1754.37, 0.549362
1754.96, 0.549606
1755.56, 0.550013
1756.15, 0.550013
1756.74, 0.550339
1757.34, 0.550746
1757.94, 0.550664
1758.53, 0.550664
1759.13, 0.550990
1759.73, 0.551234
1760.32, 0.551071
1760.92, 0.551153
1761.52, 0.551560
1762.12, 0.551804
1762.72, 0.551641
1763.32, 0.551641
1763.92, 0.551804
1764.52, 0.552048
1765.12, 0.552129
1765.72, 0.552292
1766.32, 0.552618
1766.92, 0.552780
1767.53, 0.552943
1768.13, 0.553269
1768.73, 0.553106
1769.34, 0.553106
1769.94, 0.553513
1770.55, 0.553676
1771.15, 0.553757
1771.76, 0.553676
1772.36, 0.553838
1772.97, 0.554245
1773.57, 0.554327
1774.18, 0.554734
1774.79, 0.555141
1775.4, 0.555141
1776.0, 0.555141
1776.61, 0.554978
1777.22, 0.554978
1777.83, 0.555141
1778.44, 0.555385
1779.05, 0.555466
1779.66, 0.555385
1780.27, 0.555548
1780.88, 0.555955
1781.5, 0.556199
1782.11, 0.555955
1782.72, 0.556036
1783.33, 0.556280
1783.95, 0.556443
1784.56, 0.556687
1785.18, 0.556850
1785.79, 0.556931
1786.41, 0.556768
1787.02, 0.556850
1787.64, 0.556931
1788.26, 0.556931
1788.87, 0.557420
1789.49, 0.557826
1790.11, 0.557420
1790.73, 0.557094
1791.35, 0.557257
1791.96, 0.557664
1792.58, 0.558071
1793.21, 0.558152
1793.83, 0.558152
1794.45, 0.558396
1795.07, 0.558152
1795.69, 0.558233
1796.31, 0.558396
1796.93, 0.558559
1797.56, 0.558315
1798.18, 0.558233
1798.8, 0.558478
1799.43, 0.559047
1800.05, 0.559129
1800.68, 0.559129
1801.3, 0.559291
1801.93, 0.559617
1802.56, 0.559291
1803.18, 0.559129
1803.81, 0.559047
1804.44, 0.559047
1805.07, 0.559536
1805.7, 0.559536
1806.33, 0.559698
1806.95, 0.559861
1807.58, 0.559698
1808.22, 0.559861
1808.85, 0.560024
1809.48, 0.560349
1810.11, 0.560187
1810.74, 0.560105
1811.38, 0.560268
1812.01, 0.560349
1812.64, 0.560187
1813.28, 0.560431
1813.91, 0.560756
1814.55, 0.560512
1815.18, 0.560431
1815.82, 0.560675
1816.45, 0.560756
1817.09, 0.560919
1817.73, 0.561326
1818.36, 0.561489
1819.0, 0.561733
1819.64, 0.561733
1820.28, 0.561408
1820.92, 0.561326
1821.56, 0.561489
1822.2, 0.561408
1822.84, 0.561733
1823.48, 0.562140
1824.12, 0.562384
1824.76, 0.562628
1825.41, 0.562547
1826.05, 0.562140
1826.69, 0.562465
1827.34, 0.563035
1827.98, 0.562954
1828.63, 0.562628
1829.27, 0.562791
1829.92, 0.563035
1830.56, 0.563035
1831.21, 0.563117
1831.86, 0.563524
1832.5, 0.563849
1833.15, 0.563849
1833.8, 0.564256
1834.45, 0.564337
1835.1, 0.564337
1835.75, 0.564175
1836.4, 0.564093
1837.05, 0.564093
1837.7, 0.564337
1838.35, 0.564907
1839.01, 0.565395
1839.66, 0.565395
1840.31, 0.565558
1840.96, 0.565314
1841.62, 0.564826
1842.27, 0.564907
1842.93, 0.565395
1843.58, 0.566047
1844.24, 0.566372
1844.9, 0.566779
1845.55, 0.567105
1846.21, 0.566535
1846.87, 0.565802
1847.53, 0.566128
1848.18, 0.566535
1848.84, 0.567023
1849.5, 0.567512
1850.16, 0.567512
1850.82, 0.567430
1851.48, 0.567674
1852.14, 0.567756
1852.81, 0.567674
1853.47, 0.567349
1854.13, 0.567512
1854.8, 0.568244
1855.46, 0.568407
1856.12, 0.568000
1856.79, 0.567837
1857.45, 0.568488
1858.12, 0.568651
1858.79, 0.568651
1859.45, 0.568488
1860.12, 0.568651
1860.79, 0.569221
1861.46, 0.569546
1862.12, 0.569628
1862.79, 0.569383
1863.46, 0.569221
1864.13, 0.569221
1864.8, 0.569302
1865.48, 0.569628
1866.15, 0.570116
1866.82, 0.569872
1867.49, 0.569139
1868.16, 0.569302
1868.84, 0.569872
1869.51, 0.569872
1870.19, 0.569465
1870.86, 0.569139
1871.54, 0.569790
1872.21, 0.570360
1872.89, 0.570034
1873.56, 0.569953
1874.24, 0.570279
1874.92, 0.570034
1875.6, 0.569953
1876.28, 0.570197
1876.96, 0.570116
1877.64, 0.570360
1878.32, 0.570523
1879.0, 0.570604
1879.68, 0.570767
1880.36, 0.570604
1881.04, 0.570686
1881.73, 0.570441
1882.41, 0.570441
1883.09, 0.570441
1883.78, 0.570116
1884.46, 0.570116
1885.15, 0.570116
1885.83, 0.569953
1886.52, 0.569790
1887.21, 0.569872
1887.89, 0.569628
1888.58, 0.569383
1889.27, 0.569058
1889.96, 0.568732
1890.65, 0.568651
1891.34, 0.568895
1892.03, 0.568814
1892.72, 0.569058
1893.41, 0.568895
1894.1, 0.568814
1894.79, 0.568895
1895.49, 0.568488
1896.18, 0.568325
1896.87, 0.568325
1897.57, 0.568163
1898.26, 0.568000
1898.96, 0.567349
1899.65, 0.566942
1900.35, 0.567105
1901.05, 0.567349
1901.74, 0.567674
1902.44, 0.567105
1903.14, 0.566942
1903.84, 0.567267
1904.54, 0.567267
1905.24, 0.566942
1905.94, 0.566860
1906.64, 0.566779
1907.34, 0.567267
1908.04, 0.567756
1908.75, 0.567593
1909.45, 0.567512
1910.15, 0.567349
1910.86, 0.567267
1911.56, 0.567186
1912.27, 0.567349
1912.97, 0.567105
1913.68, 0.567186
1914.39, 0.567593
1915.09, 0.567837
1915.8, 0.567593
1916.51, 0.567756
1917.22, 0.568081
1917.93, 0.568325
1918.64, 0.568081
1919.35, 0.567674
1920.06, 0.567349
1920.77, 0.567593
1921.48, 0.568081
1922.19, 0.568407
1922.91, 0.568407
1923.62, 0.568407
1924.33, 0.568814
1925.05, 0.569221
1925.76, 0.569221
1926.48, 0.569139
1927.19, 0.569383
1927.91, 0.569221
1928.63, 0.569139
1929.35, 0.569628
1930.07, 0.569790
1930.78, 0.569790
1931.5, 0.570116
1932.22, 0.570279
1932.94, 0.570197
1933.66, 0.570441
1934.39, 0.570930
1935.11, 0.571011
1935.83, 0.570767
1936.55, 0.570767
1937.28, 0.571093
1938.0, 0.571337
1938.73, 0.571418
1939.45, 0.571825
1940.18, 0.572313
1940.9, 0.572476
1941.63, 0.572476
1942.36, 0.572639
1943.09, 0.572720
1943.81, 0.572720
1944.54, 0.572558
1945.27, 0.572802
1946.0, 0.573046
1946.73, 0.573209
1947.47, 0.573534
1948.2, 0.573616
1948.93, 0.573860
1949.66, 0.574267
1950.4, 0.574267
1951.13, 0.574023
1951.86, 0.574185
1952.6, 0.574348
1953.34, 0.574267
1954.07, 0.574511
1954.81, 0.574999
1955.55, 0.575325
1956.29, 0.575325
1957.02, 0.575162
1957.76, 0.575325
1958.5, 0.575813
1959.24, 0.575894
1959.98, 0.575894
1960.72, 0.576057
1961.47, 0.576057
1962.21, 0.575569
1962.95, 0.575650
1963.7, 0.575976
1964.44, 0.576139
1965.18, 0.576139
1965.93, 0.576627
1966.67, 0.576708
1967.42, 0.576464
1968.17, 0.576545
1968.92, 0.576708
1969.66, 0.576627
1970.41, 0.576464
1971.16, 0.576464
1971.91, 0.576464
1972.66, 0.576545
1973.41, 0.576790
1974.16, 0.577034
1974.92, 0.577197
1975.67, 0.576952
1976.42, 0.577197
1977.18, 0.577441
1977.93, 0.577197
1978.69, 0.577115
1979.44, 0.577034
1980.2, 0.576952
1980.95, 0.577197
1981.71, 0.577359
1982.47, 0.577441
1983.23, 0.577359
1983.99, 0.577359
1984.74, 0.577441
1985.51, 0.577522
1986.27, 0.577603
1987.03, 0.577441
1987.79, 0.577278
1988.55, 0.577685
1989.32, 0.577929
1990.08, 0.577848
1990.84, 0.577522
1991.61, 0.577603
1992.37, 0.577685
1993.14, 0.577603
1993.9, 0.577766
1994.67, 0.577929
1995.44, 0.577848
1996.21, 0.578010
1996.98, 0.578173
1997.75, 0.577929
1998.52, 0.577766
1999.29, 0.578010
2000.06, 0.578173
2000.83, 0.577929
2001.6, 0.578173
2002.38, 0.578255
2003.15, 0.578173
2003.93, 0.578173
2004.7, 0.578255
2005.48, 0.578336
2006.25, 0.578173
2007.03, 0.578173
2007.81, 0.578417
2008.58, 0.578580
2009.36, 0.578336
2010.14, 0.578499
2010.92, 0.578987
2011.7, 0.579150
2012.48, 0.579068
2013.26, 0.579068
2014.05, 0.578987
2014.83, 0.578987
2015.61, 0.578906
2016.4, 0.579150
2017.18, 0.579394
2017.97, 0.579475
2018.75, 0.579720
2019.54, 0.580045
2020.32, 0.580126
2021.11, 0.580045
2021.9, 0.580208
2022.69, 0.580452
2023.48, 0.580615
2024.27, 0.580615
2025.06, 0.580696
2025.85, 0.581022
2026.64, 0.581103
2027.44, 0.581022
2028.23, 0.581185
2029.02, 0.581429
2029.82, 0.581673
2030.61, 0.581673
2031.41, 0.581917
2032.2, 0.581998
2033.0, 0.581917
2033.8, 0.582161
2034.6, 0.582487
2035.4, 0.582812
2036.2, 0.582894
2037.0, 0.582975
2037.8, 0.582975
2038.6, 0.582975
2039.4, 0.582975
2040.2, 0.582812
2041.01, 0.582894
2041.81, 0.583219
2042.61, 0.583708
2043.42, 0.584114
2044.22, 0.584196
2045.03, 0.584196
2045.84, 0.584114
2046.65, 0.584196
2047.46, 0.584440
2048.26, 0.584359
2049.07, 0.584440
2049.88, 0.584440
2050.69, 0.584521
2051.51, 0.584766
2052.32, 0.584847
2053.13, 0.584847
2053.94, 0.585172
2054.76, 0.585335
2055.57, 0.585010
2056.39, 0.584847
2057.2, 0.585172
2058.02, 0.585579
2058.84, 0.585742
2059.66, 0.585661
2060.48, 0.585417
2061.29, 0.585498
2062.11, 0.585498
2062.94, 0.585742
2063.76, 0.585824
2064.58, 0.585905
2065.4, 0.586149
2066.22, 0.585986
2067.05, 0.586068
2067.87, 0.586068
2068.7, 0.585986
2069.52, 0.585824
2070.35, 0.585986
2071.18, 0.586231
2072.0, 0.585986
2072.83, 0.585742
2073.66, 0.585905
2074.49, 0.585986
2075.32, 0.586149
2076.15, 0.585986
2076.98, 0.585905
2077.82, 0.586149
2078.65, 0.586149
2079.48, 0.585986
2080.32, 0.586149
2081.15, 0.586068
2081.99, 0.586068
2082.83, 0.586231
2083.66, 0.586068
2084.5, 0.586068
2085.34, 0.585905
2086.18, 0.585905
2087.02, 0.585824
2087.86, 0.585661
2088.7, 0.585824
2089.54, 0.585661
2090.39, 0.585579
2091.23, 0.585498
2092.07, 0.585172
2092.92, 0.585172
2093.76, 0.585172
2094.61, 0.585091
2095.45, 0.585010
2096.3, 0.585091
2097.15, 0.585091
2098.0, 0.584847
2098.85, 0.584603
2099.7, 0.584684
2100.55, 0.584603
2101.4, 0.584359
2102.25, 0.584359
2103.1, 0.584359
2103.96, 0.584359
2104.81, 0.584440
2105.67, 0.584114
2106.52, 0.583870
2107.38, 0.583870
2108.24, 0.583952
2109.09, 0.583952
2109.95, 0.584033
2110.81, 0.583789
2111.67, 0.583708
2112.53, 0.583626
2113.39, 0.583708
2114.25, 0.583952
2115.12, 0.584114
2115.98, 0.584114
2116.84, 0.583952
2117.71, 0.583708
2118.58, 0.583789
2119.44, 0.583870
2120.31, 0.583870
2121.18, 0.584033
2122.04, 0.584359
2122.91, 0.584440
2123.78, 0.584521
2124.65, 0.584766
2125.52, 0.584847
2126.4, 0.584603
2127.27, 0.584521
2128.14, 0.584766
2129.02, 0.585010
2129.89, 0.585254
2130.77, 0.585335
2131.64, 0.585335
2132.52, 0.585417
2133.4, 0.585661
2134.27, 0.585579
2135.15, 0.585742
2136.03, 0.585986
2136.91, 0.586149
2137.79, 0.586393
2138.68, 0.586556
2139.56, 0.586637
2140.44, 0.586719
2141.33, 0.586719
2142.21, 0.586882
2143.1, 0.587289
2143.99, 0.587614
2144.87, 0.587858
2145.76, 0.588102
2146.65, 0.588184
2147.54, 0.588021
2148.43, 0.588265
2149.32, 0.588754
2150.21, 0.588916
2151.1, 0.588835
2151.99, 0.588754
2152.89, 0.588998
2153.78, 0.589160
2154.68, 0.589323
2155.57, 0.589567
2156.47, 0.589730
2157.37, 0.589812
2158.27, 0.589567
2159.16, 0.589486
2160.06, 0.589893
2160.96, 0.589974
2161.86, 0.590137
2162.77, 0.590381
2163.67, 0.590137
2164.57, 0.589974
2165.48, 0.589974
2166.38, 0.590056
2167.29, 0.590056
2168.2, 0.590056
2169.1, 0.590056
2170.01, 0.589812
2170.92, 0.589486
2171.83, 0.589323
2172.74, 0.589079
2173.65, 0.588916
2174.56, 0.588509
2175.47, 0.588184
2176.39, 0.588021
2177.3, 0.587533
2178.22, 0.587126
2179.13, 0.586882
2180.05, 0.586393
2180.96, 0.585986
2181.88, 0.585661
2182.8, 0.585172
2183.72, 0.584440
2184.64, 0.583789
2185.56, 0.583301
2186.48, 0.582650
2187.41, 0.581998
2188.33, 0.581429
2189.25, 0.580615
2190.18, 0.579801
2191.1, 0.579068
2192.03, 0.578336
2192.96, 0.577603
2193.89, 0.577034
2194.82, 0.576545
2195.74, 0.576057
2196.68, 0.575650
2197.61, 0.575162
2198.54, 0.574836
2199.47, 0.574429
2200.4, 0.574348
2201.34, 0.574104
2202.28, 0.573697
2203.21, 0.573534
2204.15, 0.573453
2205.08, 0.572964
2206.02, 0.572558
2206.96, 0.572558
2207.9, 0.572476
2208.84, 0.572151
2209.78, 0.572069
2210.73, 0.571662
2211.67, 0.571337
2212.61, 0.571174
2213.56, 0.570930
2214.5, 0.570441
2215.45, 0.569953
2216.4, 0.569709
2217.35, 0.569465
2218.3, 0.568895
2219.24, 0.568244
2220.2, 0.568000
2221.15, 0.568000
2222.1, 0.567918
2223.05, 0.567674
2224.0, 0.567512
2224.96, 0.567674
2225.91, 0.568000
2226.87, 0.568407
2227.83, 0.568976
2228.79, 0.569546
2229.74, 0.570279
2230.7, 0.571255
2231.66, 0.572558
2232.63, 0.573616
2233.59, 0.574836
2234.55, 0.575894
2235.51, 0.576790
2236.48, 0.577848
2237.44, 0.578662
2238.41, 0.579475
2239.38, 0.580208
2240.34, 0.580940
2241.31, 0.581591
2242.28, 0.582080
2243.25, 0.582650
2244.22, 0.583463
2245.19, 0.584359
2246.17, 0.584847
2247.14, 0.585417
2248.12, 0.586231
2249.09, 0.586800
2250.07, 0.587289
2251.04, 0.587777
2252.02, 0.588347
2253.0, 0.588835
2253.98, 0.589079
2254.96, 0.589323
2255.94, 0.589486
2256.92, 0.589893
2257.91, 0.590300
2258.89, 0.590625
2259.88, 0.590788
2260.86, 0.591032
2261.85, 0.591358
2262.83, 0.591683
2263.82, 0.591928
2264.81, 0.592253
2265.8, 0.592823
2266.79, 0.592986
2267.78, 0.592986
2268.78, 0.593311
2269.77, 0.593637
2270.76, 0.593718
2271.76, 0.593718
2272.75, 0.593799
2273.75, 0.593881
2274.75, 0.593962
2275.75, 0.594532
2276.75, 0.594939
2277.75, 0.595020
2278.75, 0.595020
2279.75, 0.595264
2280.75, 0.595346
2281.76, 0.595183
2282.76, 0.595183
2283.77, 0.595346
2284.77, 0.595427
2285.78, 0.595264
2286.79, 0.595264
2287.8, 0.595427
2288.81, 0.595155
2289.82, 0.595086
2290.83, 0.594950
2291.84, 0.595018
2292.86, 0.594814
2293.87, 0.594678
2294.89, 0.594678
2295.91, 0.594473
2296.92, 0.594337
2297.94, 0.594132
2298.96, 0.593451
2299.98, 0.592701
2301.0, 0.592701
2302.02, 0.593110
2303.04, 0.593042
2304.07, 0.592497
2305.09, 0.591883
2306.12, 0.591610
2307.15, 0.591201
2308.17, 0.590656
2309.2, 0.590520
2310.23, 0.590656
2311.26, 0.590043
2312.29, 0.589429
2313.32, 0.588748
2314.35, 0.588543
2315.39, 0.588407
2316.42, 0.587657
2317.46, 0.587453
2318.5, 0.587044
2319.53, 0.586635
2320.57, 0.586021
2321.61, 0.585544
2322.65, 0.585204
2323.69, 0.584658
2324.73, 0.584181
2325.78, 0.583500
2326.82, 0.583295
2327.86, 0.583363
2328.91, 0.582477
2329.96, 0.582068
2331.01, 0.581864
2332.05, 0.581319
2333.1, 0.580569
2334.15, 0.579819
2335.21, 0.579478
2336.26, 0.579138
2337.31, 0.578456
2338.36, 0.578115
2339.42, 0.577774
2340.48, 0.577434
2341.53, 0.576888
2342.59, 0.576479
2343.65, 0.576616
2344.71, 0.576548
2345.77, 0.576207
2346.83, 0.575934
2347.9, 0.575593
2348.96, 0.575934
2350.02, 0.576343
2351.09, 0.576684
2352.16, 0.577093
2353.23, 0.577638
2354.29, 0.577843
2355.36, 0.577911
2356.43, 0.578251
2357.51, 0.578592
2358.58, 0.579069
2359.65, 0.579887
2360.73, 0.580432
2361.8, 0.580910
2362.88, 0.581046
2363.96, 0.581523
2365.03, 0.582477
2366.11, 0.583227
2367.19, 0.583227
2368.27, 0.583227
2369.36, 0.583636
2370.44, 0.584249
2371.53, 0.584386
2372.61, 0.584318
2373.7, 0.584386
2374.78, 0.584454
2375.87, 0.585135
2376.96, 0.585544
2378.05, 0.585613
2379.14, 0.585681
2380.24, 0.585885
2381.33, 0.586021
2382.42, 0.585953
2383.52, 0.585817
2384.61, 0.585749
2385.71, 0.585476
2386.81, 0.585613
2387.91, 0.585953
2389.01, 0.586021
2390.11, 0.585681
2391.22, 0.585953
2392.32, 0.586294
2393.42, 0.586090
2394.53, 0.585681
2395.64, 0.585613
2396.74, 0.585613
2397.85, 0.585749
2398.96, 0.585476
2400.07, 0.585135
2401.18, 0.584931
2402.3, 0.584590
2403.41, 0.584454
2404.52, 0.584386
2405.64, 0.584318
2406.76, 0.583840
2407.88, 0.583568
2408.99, 0.583431
2410.11, 0.583227
2411.23, 0.582682
2412.36, 0.582273
2413.48, 0.581864
2414.6, 0.581387
2415.73, 0.581046
2416.85, 0.580569
2417.98, 0.580160
2419.11, 0.579819
2420.24, 0.579615
2421.37, 0.579274
2422.5, 0.578797
2423.64, 0.578183
2424.77, 0.578320
2425.9, 0.578047
2427.04, 0.577434
2428.18, 0.576684
2429.31, 0.576002
2430.45, 0.576002
2431.59, 0.575866
2432.73, 0.575116
2433.88, 0.575048
2435.02, 0.575253
2436.16, 0.575389
2437.31, 0.574912
2438.45, 0.574639
2439.6, 0.574707
2440.75, 0.574775
2441.9, 0.574844
2443.05, 0.574775
2444.2, 0.574639
2445.35, 0.574571
2446.51, 0.574503
2447.67, 0.574707
2448.82, 0.574639
2449.98, 0.574639
2451.14, 0.574775
2452.3, 0.574912
2453.46, 0.574980
2454.62, 0.575457
2455.78, 0.575389
2456.94, 0.575321
2458.11, 0.575798
2459.28, 0.576002
2460.44, 0.576002
2461.61, 0.576343
2462.78, 0.576684
2463.95, 0.576820
2465.12, 0.576956
2466.3, 0.577161
2467.47, 0.577365
2468.65, 0.577502
2469.82, 0.577774
2471.0, 0.577911
2472.18, 0.577979
2473.36, 0.578047
2474.54, 0.578251
2475.72, 0.578729
2476.9, 0.579001
2478.08, 0.579410
2479.27, 0.579683
2480.46, 0.579410
2481.64, 0.579615
2482.83, 0.579887
2484.02, 0.579887
2485.21, 0.579819
2486.4, 0.579819
2487.6, 0.580296
2488.79, 0.580637
2489.99, 0.580637
2491.18, 0.580501
2492.38, 0.580773
2493.58, 0.580773
2494.78, 0.581046
2495.98, 0.581182
2497.18, 0.581250
2498.39, 0.581455
2499.59, 0.581523
2500.8, 0.581250
2502.01, 0.581250
2503.21, 0.581659
2504.42, 0.581932
2505.63, 0.582000
2506.84, 0.582000
2508.06, 0.582136
2509.27, 0.582273
2510.49, 0.582341
2511.7, 0.582273
2512.92, 0.582409
2514.14, 0.582409
2515.36, 0.582545
2516.58, 0.582886
2517.8, 0.582886
2519.03, 0.582886
2520.25, 0.583023
2521.48, 0.583363
2522.7, 0.583431
2523.93, 0.583568
2525.16, 0.583704
2526.39, 0.583636
2527.62, 0.583840
2528.86, 0.584113
2530.09, 0.583909
2531.33, 0.583295
2532.56, 0.583295
2533.8, 0.583977
2535.04, 0.583568
2536.28, 0.583295
2537.52, 0.583636
2538.76, 0.584181
2540.01, 0.584590
2541.25, 0.584454
2542.5, 0.583909
2543.75, 0.584113
2544.99, 0.584590
2546.24, 0.584522
2547.49, 0.584113
2548.75, 0.584590
2550.0, 0.584318
2551.26, 0.583704
2552.51, 0.583295
2553.77, 0.584386
2555.03, 0.585135
2556.29, 0.585067
2557.55, 0.584999
2558.81, 0.584045
2560.08, 0.581591
2561.34, 0.579955
2562.61, 0.579819
2563.88, 0.580228
2565.14, 0.582068
2566.41, 0.583977
2567.68, 0.583568
2568.96, 0.581114
2570.23, 0.581319
2571.51, 0.582136
2572.78, 0.579001
2574.06, 0.579546
2575.34, 0.580705
2576.62, 0.579887
2577.9, 0.581046
2579.18, 0.581591
2580.47, 0.579751
2581.75, 0.579138
2583.04, 0.576139
2584.32, 0.576411
2585.61, 0.578592
2586.9, 0.577229
2588.2, 0.578047
2589.49, 0.579206
2590.78, 0.580024
2592.08, 0.578660
2593.37, 0.570209
2594.67, 0.563052
2595.97, 0.569255
2597.27, 0.576548
2598.57, 0.578865
2599.88, 0.578047
2601.18, 0.576548
2602.49, 0.575457
2603.79, 0.572935
2605.1, 0.569459
2606.41, 0.571572
2607.72, 0.574367
2609.03, 0.574912
2610.35, 0.575798
2611.66, 0.576752
2612.98, 0.576275
2614.3, 0.576207
2615.62, 0.572867
2616.94, 0.571163
2618.26, 0.573889
2619.58, 0.571299
2620.91, 0.572322
2622.23, 0.577093
2623.56, 0.578251
2624.89, 0.576616
2626.22, 0.573276
2627.55, 0.575253
2628.88, 0.574367
2630.21, 0.570822
2631.55, 0.574503
2632.89, 0.576820
2634.22, 0.577229
2635.56, 0.579001
2636.9, 0.579478
2638.25, 0.579478
2639.59, 0.579342
2640.93, 0.578933
2642.28, 0.578456
2643.63, 0.578592
2644.98, 0.577502
2646.33, 0.577706
2647.68, 0.578456
2649.03, 0.578388
2650.39, 0.577025
2651.74, 0.574844
2653.1, 0.574571
2654.46, 0.574707
2655.82, 0.574094
2657.18, 0.574912
2658.54, 0.573140
2659.9, 0.571776
2661.27, 0.571231
2662.64, 0.570345
2664.01, 0.564552
2665.38, 0.559372
2666.74, 0.558895
2668.12, 0.561757
2669.49, 0.556168
2670.87, 0.555078
2672.24, 0.561553
2673.62, 0.562166
2675.0, 0.558349
2676.38, 0.554464
2677.76, 0.554055
2679.15, 0.553306
2680.54, 0.555146
2681.92, 0.554464
2683.31, 0.552011
2684.7, 0.550307
2686.09, 0.548807
2687.48, 0.547376
2688.88, 0.545672
2690.27, 0.543491
2691.67, 0.539674
2693.07, 0.533404
2694.47, 0.530336
2695.87, 0.529587
2697.27, 0.528564
2698.67, 0.525906
2700.08, 0.520658
2701.49, 0.515274
2702.9, 0.511525
2704.31, 0.505800
2705.72, 0.498643
2707.13, 0.489714
2708.54, 0.478196
2709.96, 0.464564
2711.38, 0.453114
2712.8, 0.443980
2714.22, 0.431235
2715.64, 0.415763
2717.06, 0.398928
2718.49, 0.381003
2719.91, 0.361509
2721.34, 0.346992
2722.77, 0.333224
2724.2, 0.317684
2725.63, 0.306165
2727.07, 0.295805
2728.5, 0.285582
2729.94, 0.276039
2731.38, 0.267247
2732.82, 0.259273
2734.26, 0.252048
2735.7, 0.247140
2737.15, 0.242438
2738.59, 0.235758
2740.04, 0.230442
2741.49, 0.227579
2742.94, 0.225262
2744.39, 0.221990
2745.84, 0.218855
2747.3, 0.215856
2748.76, 0.212653
2750.21, 0.209108
2751.67, 0.205428
2753.14, 0.201679
2754.6, 0.197249
2756.06, 0.195886
2757.53, 0.196840
2759.0, 0.197385
2760.46, 0.197453
2761.94, 0.197113
2763.41, 0.198135
2764.88, 0.199975
2766.36, 0.201407
2767.83, 0.202906
2769.31, 0.204678
2770.79, 0.206995
2772.27, 0.210335
2773.76, 0.213879
2775.24, 0.217696
2776.73, 0.221649
2778.22, 0.226012
2779.71, 0.230646
2781.2, 0.235622
2782.69, 0.241279
2784.18, 0.246459
2785.68, 0.250957
2787.18, 0.256274
2788.68, 0.262885
2790.18, 0.269905
2791.68, 0.276244
2793.19, 0.282037
2794.69, 0.287694
2796.2, 0.292943
2797.71, 0.297714
2799.22, 0.302076
2800.73, 0.305620
2802.24, 0.308346
2803.76, 0.311959
2805.28, 0.316116
2806.8, 0.319320
2808.32, 0.321705
2809.84, 0.323954
2811.36, 0.325658
2812.89, 0.326544
2814.42, 0.327362
2815.94, 0.328385
2817.48, 0.328794
2819.01, 0.328657
2820.54, 0.328657
2822.08, 0.328657
2823.61, 0.328657
2825.15, 0.328385
2826.69, 0.327976
2828.23, 0.327635
2829.78, 0.327294
2831.32, 0.326408
2832.87, 0.325454
2834.42, 0.324772
2835.97, 0.324159
2837.52, 0.323341
2839.08, 0.322932
2840.63, 0.322387
2842.19, 0.321773
2843.75, 0.320955
2845.31, 0.320138
2846.87, 0.319660
2848.44, 0.318979
2850.0, 0.318434
2851.57, 0.317752
2853.14, 0.316798
2854.71, 0.315844
2856.28, 0.315026
2857.86, 0.314344
2859.43, 0.313390
2861.01, 0.312504
2862.59, 0.311550
2864.17, 0.310255
2865.76, 0.309028
2867.34, 0.308005
2868.93, 0.306915
2870.52, 0.305620
2872.11, 0.304938
2873.7, 0.304802
2875.29, 0.304393
2876.89, 0.303848
2878.49, 0.303166
2880.08, 0.302144
2881.69, 0.301462
2883.29, 0.300985
2884.89, 0.300372
2886.5, 0.299622
2888.11, 0.299009
2889.72, 0.298327
2891.33, 0.297441
2892.94, 0.296828
2894.56, 0.296078
2896.17, 0.295260
2897.79, 0.294647
2899.42, 0.293829
2901.04, 0.292943
2902.66, 0.292261
2904.29, 0.291511
2905.92, 0.291034
2907.55, 0.290421
2909.18, 0.289671
2910.81, 0.289126
2912.45, 0.288580
2914.08, 0.287899
2915.72, 0.287285
2917.36, 0.286877
2919.01, 0.286604
2920.65, 0.286263
2922.3, 0.285990
2923.94, 0.285786
2925.59, 0.285513
2927.25, 0.284900
2928.9, 0.284218
2930.56, 0.283809
2932.21, 0.283605
2933.87, 0.283332
2935.53, 0.282787
2937.2, 0.282174
2938.86, 0.281492
2940.53, 0.281151
2942.2, 0.280674
2943.87, 0.279924
2945.54, 0.279175
2947.22, 0.278561
2948.89, 0.278084
2950.57, 0.277539
2952.25, 0.276653
2953.93, 0.275971
2955.62, 0.275426
2957.3, 0.274813
2958.99, 0.274404
2960.68, 0.274335
2962.37, 0.274404
2964.07, 0.274608
2965.76, 0.274949
2967.46, 0.275222
2969.16, 0.275494
2970.86, 0.275699
2972.56, 0.275903
2974.27, 0.276176
2975.98, 0.276244
2977.69, 0.276108
2979.4, 0.275903
2981.11, 0.275699
2982.83, 0.275426
2984.54, 0.275222
2986.26, 0.274744
2987.98, 0.274335
2989.71, 0.273927
2991.43, 0.273518
2993.16, 0.273109
2994.89, 0.272700
2996.62, 0.272291
2998.35, 0.271814
3000.09, 0.271405
3001.83, 0.271064
3003.57, 0.270859
3005.31, 0.270791
3007.05, 0.270450
3008.79, 0.270178
3010.54, 0.269973
3012.29, 0.269973
3014.04, 0.270110
3015.8, 0.270110
3017.55, 0.270178
3019.31, 0.270178
3021.07, 0.270314
3022.83, 0.270519
3024.59, 0.270723
3026.36, 0.270928
3028.13, 0.271337
3029.9, 0.271745
3031.67, 0.271745
3033.44, 0.271950
3035.22, 0.272427
3037.0, 0.272904
3038.78, 0.273313
3040.56, 0.273381
3042.34, 0.273790
3044.13, 0.274404
3045.92, 0.275153
3047.71, 0.275699
3049.5, 0.276312
3051.3, 0.276789
3053.09, 0.277334
3054.89, 0.277948
3056.69, 0.278357
3058.5, 0.279038
3060.3, 0.279788
3062.11, 0.280470
3063.92, 0.281151
3065.73, 0.281765
3067.55, 0.282310
3069.36, 0.283060
3071.18, 0.283878
3073.0, 0.284559
3074.82, 0.285241
3076.65, 0.285854
3078.48, 0.286536
3080.31, 0.287285
3082.14, 0.287899
3083.97, 0.288512
3085.8, 0.289262
3087.64, 0.290012
3089.48, 0.290830
3091.33, 0.291716
3093.17, 0.292670
3095.02, 0.293556
3096.87, 0.294306
3098.72, 0.294919
3100.57, 0.295669
3102.43, 0.296623
3104.28, 0.297237
3106.14, 0.297918
3108.01, 0.298736
3109.87, 0.299486
3111.74, 0.300167
3113.61, 0.301122
3115.48, 0.302076
3117.35, 0.302825
3119.23, 0.303507
3121.1, 0.304325
3122.98, 0.305007
3124.87, 0.305552
3126.75, 0.306302
3128.64, 0.307256
3130.53, 0.308142
3132.42, 0.308892
3134.31, 0.309846
3136.21, 0.310800
3138.11, 0.311413
3140.01, 0.312027
3141.91, 0.312708
3143.82, 0.313663
3145.73, 0.314617
3147.64, 0.315367
3149.55, 0.316116
3151.46, 0.317070
3153.38, 0.317888
3155.3, 0.318706
3157.22, 0.319456
3159.14, 0.320138
3161.07, 0.320887
3163.0, 0.321637
3164.93, 0.322455
3166.86, 0.323341
3168.8, 0.324091
3170.74, 0.324909
3172.68, 0.325795
3174.62, 0.326544
3176.56, 0.327158
3178.51, 0.327976
3180.46, 0.328998
3182.42, 0.329884
3184.37, 0.330702
3186.33, 0.331520
3188.29, 0.332338
3190.25, 0.333224
3192.21, 0.334042
3194.18, 0.334791
3196.15, 0.335950
3198.12, 0.336973
3200.09, 0.337722
3202.07, 0.338540
3204.05, 0.339426
3206.03, 0.340380
3208.02, 0.341471
3210.0, 0.342630
3211.99, 0.343652
3213.98, 0.344538
3215.98, 0.345629
3217.97, 0.346583
3219.97, 0.347537
3221.97, 0.348423
3223.98, 0.349377
3225.98, 0.350400
3227.99, 0.351286
3230.0, 0.352104
3232.02, 0.352990
3234.03, 0.353944
3236.05, 0.354898
3238.07, 0.355580
3240.1, 0.356261
3242.12, 0.356807
3244.15, 0.357420
3246.18, 0.358170
3248.22, 0.358510
3250.25, 0.358988
3252.29, 0.359397
3254.33, 0.359805
3256.38, 0.360351
3258.43, 0.360691
3260.47, 0.361032
3262.53, 0.361441
3264.58, 0.361578
3266.64, 0.361782
3268.7, 0.362327
3270.76, 0.362873
3272.82, 0.363350
3274.89, 0.363827
3276.96, 0.364099
3279.04, 0.364576
3281.11, 0.365326
3283.19, 0.365667
3285.27, 0.365940
3287.35, 0.366349
3289.44, 0.366758
3291.53, 0.367098
3293.62, 0.367030
3295.71, 0.366826
3297.81, 0.366485
3299.91, 0.366008
3302.01, 0.365394
3304.11, 0.365258
3306.22, 0.365463
3308.33, 0.365940
3310.44, 0.366553
3312.56, 0.367507
3314.68, 0.368666
3316.8, 0.369961
3318.92, 0.371120
3321.05, 0.372278
3323.18, 0.373505
3325.31, 0.374528
3327.44, 0.375482
3329.58, 0.376232
3331.72, 0.377049
3333.86, 0.378004
3336.01, 0.378821
3338.16, 0.379435
3340.31, 0.380185
3342.46, 0.380866
3344.61, 0.381548
3346.77, 0.382434
3348.94, 0.383047
3351.1, 0.383729
3353.27, 0.384615
3355.44, 0.385501
3357.61, 0.386251
3359.79, 0.386932
3361.97, 0.387341
3364.15, 0.387478
3366.33, 0.387614
3368.52, 0.387614
3370.71, 0.387614
3372.9, 0.387818
3375.1, 0.388091
3377.3, 0.388500
3379.5, 0.388909
3381.71, 0.389522
3383.91, 0.390545
3386.12, 0.392044
3388.34, 0.393271
3390.55, 0.394361
3392.77, 0.395248
3394.99, 0.395929
3397.22, 0.396270
3399.45, 0.396202
3401.68, 0.396065
3403.91, 0.395793
3406.15, 0.395248
3408.39, 0.394566
3410.63, 0.393953
3412.87, 0.393407
3415.12, 0.392794
3417.37, 0.392453
3419.63, 0.392453
3421.88, 0.393203
3424.14, 0.395043
3426.41, 0.397565
3428.67, 0.400155
3430.94, 0.402268
3433.21, 0.404108
3435.49, 0.405471
3437.77, 0.406357
3440.05, 0.406971
3442.33, 0.407516
3444.62, 0.408061
3446.91, 0.408811
3449.2, 0.409970
3451.5, 0.411265
3453.8, 0.412696
3456.1, 0.414400
3458.41, 0.415968
3460.72, 0.417535
3463.03, 0.419103
3465.34, 0.420534
3467.66, 0.421897
3469.98, 0.422988
3472.31, 0.424010
3474.63, 0.425169
3476.96, 0.426532
3479.3, 0.427963
3481.64, 0.429054
3483.97, 0.430213
3486.32, 0.431508
3488.66, 0.432734
3491.01, 0.433689
3493.36, 0.434507
3495.72, 0.435188
3498.08, 0.435665
3500.44, 0.436006
3502.81, 0.436688
3505.18, 0.437983
3507.55, 0.439823
3509.92, 0.442208
3512.3, 0.444866
3514.68, 0.447388
3517.06, 0.449774
3519.45, 0.451887
3521.84, 0.453727
3524.24, 0.455567
3526.64, 0.457339
3529.04, 0.458975
3531.44, 0.460406
3533.85, 0.461770
3536.26, 0.463269
3538.67, 0.464564
3541.09, 0.465723
3543.51, 0.467086
3545.93, 0.468585
3548.36, 0.469812
3550.79, 0.471244
3553.22, 0.472879
3555.66, 0.474515
3558.1, 0.476151
3560.54, 0.477787
3562.99, 0.479354
3565.44, 0.480854
3567.9, 0.482217
3570.35, 0.483717
3572.81, 0.485216
3575.28, 0.486647
3577.75, 0.488010
3580.22, 0.489305
3582.69, 0.490600
3585.17, 0.492032
3587.65, 0.493259
3590.14, 0.494349
3592.62, 0.495371
3595.11, 0.496598
3597.61, 0.497621
3600.11, 0.498643
3602.61, 0.499802
3605.11, 0.500824
3607.62, 0.501846
3610.14, 0.502937
3612.65, 0.503891
3615.17, 0.504777
3617.69, 0.505663
3620.22, 0.506754
3622.75, 0.507708
3625.28, 0.508594
3627.82, 0.509412
3630.36, 0.510230
3632.9, 0.511048
3635.45, 0.511798
3638.0, 0.512684
3640.56, 0.513501
3643.12, 0.514183
3645.68, 0.514796
3648.24, 0.515410
3650.81, 0.516023
3653.39, 0.516637
3655.96, 0.517114
3658.54, 0.517591
3661.13, 0.518273
3663.71, 0.518750
3666.3, 0.519090
3668.9, 0.519363
3671.5, 0.519636
3674.1, 0.519976
3676.7, 0.520181
3679.31, 0.520522
3681.93, 0.520726
3684.54, 0.520863
3687.17, 0.521135
3689.79, 0.521272
3692.42, 0.521272
3695.05, 0.521408
3697.69, 0.521340
3700.32, 0.521203
3702.97, 0.521203
3705.61, 0.521067
3708.27, 0.520999
3710.92, 0.521135
3713.58, 0.521135
3716.24, 0.521203
3718.91, 0.521272
3721.58, 0.521408
3724.25, 0.521408
3726.93, 0.521408
3729.61, 0.521544
3732.29, 0.521612
3734.98, 0.521749
3737.67, 0.521953
3740.37, 0.522021
3743.07, 0.522021
3745.78, 0.522089
3748.49, 0.522021
3751.2, 0.521817
3753.91, 0.521680
3756.63, 0.521408
3759.36, 0.521135
3762.09, 0.520794
3764.82, 0.520385
3767.55, 0.520045
3770.29, 0.519772
3773.04, 0.519363
3775.78, 0.518886
3778.54, 0.518341
3781.29, 0.517455
3784.05, 0.516432
3786.82, 0.515342
3789.59, 0.513979
3792.36, 0.512615
3795.13, 0.511184
3797.92, 0.509753
3800.7, 0.508526
3803.49, 0.507913
3806.28, 0.507776
3809.08, 0.508458
3811.88, 0.509957
3814.68, 0.511866
3817.49, 0.513774
3820.31, 0.515478
3823.12, 0.517114
3825.94, 0.518681
3828.77, 0.519976
3831.6, 0.520931
3834.43, 0.521749
3837.27, 0.522157
3840.11, 0.522362
3842.96, 0.522362
3845.81, 0.521749
3848.67, 0.520522
3851.53, 0.518818
3854.39, 0.516569
3857.26, 0.514319
3860.13, 0.512343
3863.01, 0.511048
3865.89, 0.510094
3868.77, 0.509344
3871.66, 0.508799
3874.55, 0.508390
3877.45, 0.507981
3880.35, 0.507572
3883.26, 0.507504
3886.17, 0.507708
3889.09, 0.507776
3892.01, 0.507844
3894.93, 0.507435
3897.86, 0.506413
3900.79, 0.504573
3903.73, 0.502119
3906.67, 0.499325
3909.62, 0.496326
3912.57, 0.493463
3915.52, 0.491078
3918.48, 0.489237
3921.45, 0.487874
3924.42, 0.486784
3927.39, 0.485829
3930.37, 0.484807
3933.35, 0.483717
3936.34, 0.482353
3939.33, 0.480990
3942.32, 0.479695
3945.32, 0.478332
3948.33, 0.477242
3951.34, 0.476219
3954.35, 0.475265
3957.37, 0.474311
3960.39, 0.473697
3963.42, 0.473697
3966.45, 0.474311
3969.49, 0.476355
3972.53, 0.480172
3975.58, 0.485216
3978.63, 0.490737
3981.68, 0.495985
3984.75, 0.500620
3987.81, 0.504641
3990.88, 0.508390
3993.95, 0.511798
3997.03, 0.514933
4000.12, 0.517795
4003.21, 0.520590
4006.3, 0.523248
4009.4, 0.525770
4012.5, 0.528087
4015.61, 0.529996
4018.72, 0.531700
4021.84, 0.533335
4024.96, 0.534903
4028.09, 0.536266
4031.22, 0.537425
4034.36, 0.538584
4037.5, 0.539674
4040.65, 0.540628
4043.8, 0.541446
4046.96, 0.542128
4050.12, 0.542878
4053.29, 0.543423
4056.46, 0.543695
4059.64, 0.544173
4062.82, 0.544445
4066.0, 0.544445
4069.19, 0.544445
4072.39, 0.544241
4075.59, 0.543968
4078.8, 0.543764
4082.01, 0.543355
4085.23, 0.542946
4088.45, 0.542400
4091.68, 0.541651
4094.91, 0.540969
4098.15, 0.540219
4101.39, 0.539470
4104.63, 0.538584
4107.89, 0.537697
4111.14, 0.536811
4114.41, 0.535857
4117.67, 0.535108
4120.95, 0.534290
4124.23, 0.533335
4127.51, 0.532449
4130.8, 0.531563
4134.09, 0.530473
4137.39, 0.529450
4140.7, 0.528428
4144.01, 0.527406
4147.32, 0.526520
4150.64, 0.525634
4153.97, 0.524679
4157.3, 0.523657
4160.64, 0.522566
4163.98, 0.521544
4167.33, 0.520454
4170.68, 0.519159
4174.04, 0.517864
4177.4, 0.516500
4180.77, 0.514865
4184.14, 0.513093
4187.52, 0.511252
4190.91, 0.509685
4194.3, 0.508117
4197.69, 0.506549
4201.1, 0.505186
4204.5, 0.503550
4207.92, 0.501574
4211.34, 0.499120
4214.76, 0.496258
4218.19, 0.492781
4221.62, 0.488760
4225.06, 0.484398
4228.51, 0.479763
4231.96, 0.475060
4235.42, 0.470153
4238.88, 0.465109
4242.35, 0.459725
4245.83, 0.453795
4249.31, 0.446911
4252.79, 0.438664
4256.28, 0.428918
4259.78, 0.418217
4263.29, 0.407925
4266.79, 0.402268
4270.31, 0.403495
4273.83, 0.409152
4277.35, 0.415218
4280.89, 0.420262
4284.42, 0.424896
4287.97, 0.429735
4291.52, 0.435529
4295.07, 0.442481
4298.63, 0.449569
4302.2, 0.455772
4305.78, 0.461156
4309.35, 0.466200
4312.94, 0.471107
4316.53, 0.475538
4320.13, 0.479695
4323.73, 0.483376
4327.34, 0.486443
4330.96, 0.488896
4334.58, 0.490873
4338.21, 0.492373
4341.84, 0.493531
4345.48, 0.494281
4349.12, 0.494349
4352.77, 0.493872
4356.43, 0.493190
4360.1, 0.492100
4363.76, 0.490532
4367.44, 0.488692
4371.12, 0.486375
4374.81, 0.483785
4378.51, 0.481058
4382.21, 0.478059
4385.92, 0.474924
4389.63, 0.471857
4393.35, 0.469131
4397.08, 0.466609
4400.81, 0.464087
4404.55, 0.461702
4408.29, 0.459452
4412.04, 0.457203
4415.8, 0.455022
4419.57, 0.452909
4423.34, 0.450592
4427.12, 0.448411
4430.9, 0.446639
4434.69, 0.445003
4438.49, 0.443367
4442.29, 0.441663
4446.1, 0.439823
4449.92, 0.437574
4453.74, 0.434915
4457.57, 0.432189
4461.41, 0.429872
4465.25, 0.428509
4469.1, 0.428168
4472.95, 0.428781
4476.82, 0.430213
4480.69, 0.431985
4484.56, 0.433620
4488.44, 0.435256
4492.33, 0.437505
4496.23, 0.440368
4500.13, 0.443844
4504.04, 0.448274
4507.96, 0.453659
4511.88, 0.459248
4515.81, 0.464769
4519.75, 0.470085
4523.69, 0.474924
4527.65, 0.479354
4531.6, 0.483444
4535.57, 0.487193
4539.54, 0.490600
4543.52, 0.493668
4547.5, 0.496394
4551.5, 0.498575
4555.5, 0.500279
4559.5, 0.501642
4563.52, 0.502596
4567.54, 0.503210
4571.56, 0.503550
4575.6, 0.503619
4579.64, 0.503414
4583.69, 0.502937
4587.75, 0.502255
4591.81, 0.501506
4595.88, 0.500620
4599.96, 0.499325
4604.04, 0.498030
4608.14, 0.496667
4612.24, 0.495099
4616.34, 0.493259
4620.46, 0.491350
4624.58, 0.489374
4628.71, 0.486988
4632.84, 0.484125
4636.99, 0.480990
4641.14, 0.477650
4645.3, 0.474174
4649.47, 0.470835
4653.64, 0.467359
4657.82, 0.463678
4662.01, 0.459793
4666.21, 0.455704
4670.41, 0.451682
4674.62, 0.448206
4678.84, 0.445753
4683.07, 0.444866
4687.3, 0.445889
4691.54, 0.448547
4695.79, 0.452296
4700.05, 0.455976
4704.31, 0.459316
4708.59, 0.462110
4712.87, 0.463951
4717.15, 0.465041
4721.45, 0.465723
4725.76, 0.465927
4730.07, 0.465518
4734.39, 0.465041
4738.72, 0.464223
4743.05, 0.463133
4747.39, 0.461838
4751.75, 0.460475
4756.1, 0.458975
4760.47, 0.457339
4764.85, 0.455704
4769.23, 0.453931
4773.62, 0.451955
4778.02, 0.449910
4782.43, 0.447797
4786.85, 0.445616
4791.27, 0.443299
4795.7, 0.440913
4800.14, 0.438460
4804.59, 0.435938
4809.05, 0.433348
4813.51, 0.430622
4817.99, 0.427895
4822.47, 0.424964
4826.96, 0.421897
4831.46, 0.418626
4835.96, 0.415082
4840.48, 0.411265
4845.0, 0.407243
4849.54, 0.402881
4854.08, 0.397906
4858.63, 0.392521
4863.18, 0.386591
4867.75, 0.380048
4872.33, 0.372960
4876.91, 0.364917
4881.5, 0.355989
4886.1, 0.346242
4890.71, 0.335609
4895.33, 0.324363
4899.96, 0.312845
4904.59, 0.301667
4909.24, 0.291579
4913.89, 0.282719
4918.55, 0.275358
4923.22, 0.269701
4927.9, 0.265475
4932.59, 0.262340
4937.29, 0.259818
4942.0, 0.257500
4946.71, 0.255115
4951.44, 0.252184
4956.17, 0.248572
4960.91, 0.244482
4965.67, 0.239916
4970.43, 0.235077
4975.2, 0.230510
4979.98, 0.226557
4984.76, 0.223626
4989.56, 0.221377
4994.37, 0.219673
4999.18, 0.218446
5004.01, 0.217560
5008.84, 0.216947
5013.69, 0.216538
5018.54, 0.216401
5023.4, 0.216810
5028.28, 0.217424
5033.16, 0.217696
5038.05, 0.217901
5042.95, 0.218173
5047.86, 0.218378
5052.78, 0.218650
5057.71, 0.218855
5062.65, 0.219059
5067.6, 0.219809
5072.56, 0.220900
5077.53, 0.222195
5082.5, 0.224035
5087.49, 0.226284
5092.49, 0.228397
5097.5, 0.230305
5102.51, 0.231941
5107.54, 0.233168
5112.58, 0.233782
5117.62, 0.234054
5122.68, 0.234122
5127.75, 0.234190
5132.82, 0.234395
5137.91, 0.234804
5143.01, 0.235281
5148.12, 0.235894
5153.23, 0.236780
5158.36, 0.237667
5163.5, 0.238348
5168.65, 0.239030
5173.81, 0.239711
5178.98, 0.240257
5184.15, 0.240734
5189.34, 0.240938
5194.54, 0.240665
5199.75, 0.239779
5204.98, 0.238348
5210.21, 0.235622
5215.45, 0.232214
5220.7, 0.228533
5225.96, 0.223899
5231.23, 0.218787
5236.52, 0.213539
5241.81, 0.208563
5247.12, 0.203860
5252.44, 0.199703
5257.76, 0.196090
5263.1, 0.192955
5268.45, 0.190024
5273.81, 0.187434
5279.18, 0.185117
5284.56, 0.183140
5289.95, 0.181095
5295.36, 0.179732
5300.77, 0.178778
5306.2, 0.177824
5311.63, 0.177006
5317.08, 0.176256
5322.54, 0.175643
5328.01, 0.175098
5333.49, 0.174552
5338.98, 0.174075
5344.49, 0.173462
5350.0, 0.173053
5355.53, 0.173803
5361.07, 0.175166
5366.62, 0.176597
5372.18, 0.178574
5377.75, 0.181232
5383.34, 0.184572
5388.93, 0.188729
5394.54, 0.193500
5400.16, 0.198612
5405.79, 0.204133
5411.44, 0.209585
5417.09, 0.214084
5422.76, 0.218378
5428.43, 0.223830
5434.12, 0.227988
5439.83, 0.230714
5445.54, 0.232623
5451.26, 0.233509
5457.0, 0.232827
5462.75, 0.230919
5468.52, 0.229351
5474.29, 0.227170
5480.08, 0.224444
5485.88, 0.222399
5491.69, 0.220014
5497.51, 0.217492
5503.35, 0.215106
5509.2, 0.212993
5515.06, 0.210608
5520.93, 0.208359
5526.82, 0.206518
5532.71, 0.205087
5538.63, 0.203724
5544.55, 0.202224
5550.49, 0.200520
5556.44, 0.199566
5562.4, 0.199157
5568.37, 0.198817
5574.36, 0.197726
5580.36, 0.197453
5586.37, 0.198748
5592.4, 0.200043
5598.44, 0.200929
5604.49, 0.202224
5610.56, 0.203792
5616.63, 0.205564
5622.73, 0.208222
5628.83, 0.211221
5634.95, 0.213879
5641.08, 0.217151
5647.23, 0.223149
5653.39, 0.229351
5659.56, 0.235894
5665.74, 0.242301
5671.94, 0.247004
5678.15, 0.251775
5684.38, 0.256546
5690.62, 0.259682
5696.87, 0.262680
5703.14, 0.263975
5709.42, 0.263703
5715.72, 0.264384
5722.03, 0.265066
5728.35, 0.264930
5734.69, 0.263907
5741.03, 0.262272
5747.4, 0.260227
5753.78, 0.259341
5760.17, 0.255865
5766.58, 0.251843
5773.0, 0.252252
5779.44, 0.251843
5785.88, 0.250139
5792.35, 0.248027
5798.83, 0.245300
5805.32, 0.242847
5811.83, 0.239439
5818.35, 0.233986
5824.89, 0.230714
5831.45, 0.229828
5838.01, 0.228193
5844.59, 0.225398
5851.19, 0.221990
5857.8, 0.218310
5864.43, 0.214697
5871.07, 0.211358
5877.73, 0.205155
5884.4, 0.201884
5891.09, 0.199566
5897.79, 0.195886
5904.5, 0.195000
5911.23, 0.192819
5917.98, 0.189956
5924.75, 0.187366
5931.53, 0.183345
5938.32, 0.181436
5945.13, 0.183617
5951.96, 0.184912
5958.8, 0.185730
5965.65, 0.185662
5972.53, 0.187366
5979.42, 0.189547
5986.32, 0.190501
5993.24, 0.192614
6000.18, 0.195477
6007.13, 0.196635
6014.1, 0.197181
6021.08, 0.198544
6028.09, 0.199362
6035.1, 0.199021
6042.14, 0.195545
6049.19, 0.192682
6056.25, 0.196431
6063.34, 0.198135
6070.44, 0.196363
6077.55, 0.196158
6084.69, 0.196635
6091.84, 0.195409
6099.0, 0.193296
6106.19, 0.189683
6113.39, 0.186071
6120.61, 0.185526
6127.84, 0.184435
6135.09, 0.181436
6142.36, 0.178233
6149.65, 0.175166
6156.95, 0.171758
6164.27, 0.169168
6171.61, 0.167259
6178.97, 0.163852
6186.34, 0.161398
6193.73, 0.161943
6201.14, 0.162011
6208.57, 0.161807
6216.01, 0.162011
6223.47, 0.162829
6230.95, 0.163852
6238.45, 0.165010
6245.97, 0.166442
6253.5, 0.168282
6261.06, 0.170258
6268.63, 0.172508
6276.21, 0.175098
6283.82, 0.177960
6291.45, 0.180823
6299.1, 0.183822
6306.76, 0.186889
6314.44, 0.190365
6322.14, 0.193841
6329.86, 0.197181
6337.6, 0.198885
6345.35, 0.201134
6353.13, 0.206382
6360.92, 0.209790
6368.74, 0.211630
6376.57, 0.215447
6384.43, 0.219128
6392.3, 0.221922
6400.19, 0.223013
6408.1, 0.220218
6416.03, 0.219877
6423.98, 0.223694
6431.95, 0.224717
6439.94, 0.224853
6447.95, 0.223967
6455.98, 0.222127
6464.03, 0.219332
6472.1, 0.215106
6480.19, 0.210199
6488.31, 0.204133
6496.44, 0.199907
6504.59, 0.198544
6512.76, 0.194795
6520.95, 0.189411
6529.16, 0.186139
6537.4, 0.183140
6545.65, 0.180346
6553.92, 0.178369
6562.22, 0.177142
6570.54, 0.175438
6578.88, 0.176052
6587.23, 0.177006
6595.61, 0.177415
6604.02, 0.177892
6612.44, 0.177551
6620.89, 0.176802
6629.35, 0.174484
6637.84, 0.172576
6646.35, 0.174280
6654.88, 0.175234
6663.44, 0.173734
6672.01, 0.171485
6680.61, 0.169440
6689.23, 0.168963
6697.88, 0.168554
6706.54, 0.167328
6715.23, 0.166919
6723.94, 0.167464
6732.67, 0.168214
6741.42, 0.168691
6750.2, 0.169032
6759.0, 0.169781
6767.82, 0.169986
6776.67, 0.169849
6785.54, 0.169304
6794.44, 0.169849
6803.35, 0.171417
6812.29, 0.171826
6821.26, 0.171281
6830.24, 0.171485
6839.25, 0.172371
6848.29, 0.172030
6857.35, 0.170122
6866.43, 0.170258
6875.54, 0.172917
6884.67, 0.174212
6893.82, 0.174689
6903.0, 0.174620
6912.2, 0.175098
6921.43, 0.175575
6930.69, 0.175643
6939.96, 0.175575
6949.27, 0.174825
6958.59, 0.173734
6967.95, 0.174825
6977.33, 0.175984
6986.73, 0.176393
6996.16, 0.177142
7005.61, 0.178301
7015.09, 0.179187
7024.6, 0.179937
7034.13, 0.180141
7043.69, 0.179323
7053.27, 0.180073
7062.88, 0.181436
7072.52, 0.182459
7082.18, 0.183345
7091.87, 0.184299
7101.58, 0.185526
7111.32, 0.186821
7121.09, 0.188457
7130.88, 0.190297
7140.71, 0.191660
7150.56, 0.193228
7160.43, 0.195068
7170.33, 0.197044
7180.27, 0.199975
7190.23, 0.202361
7200.21, 0.203519
7210.23, 0.204678
7220.27, 0.206246
7230.34, 0.206927
7240.44, 0.207064
7250.56, 0.206995
7260.72, 0.206927
7270.9, 0.206518
7281.12, 0.206518
7291.36, 0.206927
7301.63, 0.207132
7311.93, 0.207541
7322.25, 0.208086
7332.61, 0.208290
7343.0, 0.208904
7353.41, 0.209926
7363.86, 0.210949
7374.33, 0.211767
7384.83, 0.212448
7395.37, 0.212993
7405.93, 0.213470
7416.53, 0.213539
7427.15, 0.213266
7437.81, 0.213130
7448.5, 0.213198
7459.22, 0.213198
7469.96, 0.213539
7480.74, 0.214288
7491.55, 0.215243
7502.39, 0.216265
7513.27, 0.217151
7524.17, 0.217764
7535.11, 0.218173
7546.08, 0.218173
7557.08, 0.217833
7568.11, 0.217219
7579.17, 0.216674
7590.27, 0.216401
7601.4, 0.216469
7612.56, 0.216810
7623.76, 0.217628
7634.98, 0.218855
7646.24, 0.219877
7657.54, 0.220559
7668.87, 0.220900
7680.23, 0.220832
7691.62, 0.220559
7703.05, 0.220354
7714.51, 0.220150
7726.01, 0.220218
7737.54, 0.220218
7749.11, 0.220082
7760.71, 0.219741
7772.35, 0.219264
7784.02, 0.218650
7795.72, 0.218242
7807.46, 0.218514
7819.23, 0.219332
7831.04, 0.220832
7842.89, 0.222808
7854.77, 0.225057
7866.69, 0.227920
7878.65, 0.230987
7890.64, 0.234327
7902.67, 0.238144
7914.74, 0.242369
7926.84, 0.246936
7938.98, 0.251775
7951.16, 0.256478
7963.37, 0.260840
7975.62, 0.264862
7987.91, 0.268610
8000.24, 0.272086
8012.6, 0.275290
8025.01, 0.278766
8037.45, 0.282514
8049.93, 0.286672
8062.45, 0.291443
8075.01, 0.296350
8087.61, 0.301053
8100.24, 0.305824
8112.91, 0.310664
8125.63, 0.315571
8138.39, 0.320274
8151.18, 0.323954
8164.02, 0.326067
8176.9, 0.326544
8189.81, 0.325249
8202.77, 0.322796
8215.77, 0.319456
8228.82, 0.315162
8241.9, 0.310118
8255.02, 0.304870
8268.19, 0.299554
8281.39, 0.294101
8294.65, 0.288989
8307.94, 0.284355
8321.28, 0.279993
8334.66, 0.275835
8348.08, 0.272223
8361.54, 0.269019
8375.05, 0.266225
8388.6, 0.263771
8402.2, 0.261454
8415.84, 0.259204
8429.52, 0.257296
8443.25, 0.255319
8457.02, 0.253207
8470.84, 0.251162
8484.7, 0.248776
8498.61, 0.246050
8512.57, 0.242983
8526.57, 0.239370
8540.62, 0.234804
8554.71, 0.229215
8568.85, 0.222058
8583.04, 0.212857
8597.27, 0.201884
8611.55, 0.192410
8625.88, 0.189683
8640.26, 0.195545
8654.68, 0.205223
8669.16, 0.213402
8683.68, 0.218242
8698.25, 0.220627
8712.87, 0.221649
8727.53, 0.221718
8742.25, 0.221377
8757.02, 0.220968
8771.83, 0.220559
8786.7, 0.220082
8801.62, 0.219741
8816.59, 0.219809
8831.61, 0.219673
8846.68, 0.219468
8861.8, 0.219332
8876.97, 0.219264
8892.2, 0.219128
8907.48, 0.218991
8922.81, 0.218582
8938.2, 0.218446
8953.63, 0.218310
8969.13, 0.218242
8984.67, 0.218378
9000.27, 0.218378
9015.92, 0.218173
9031.63, 0.217833
9047.39, 0.217424
9063.21, 0.217083
9079.08, 0.216469
9095.01, 0.215788
9111.0, 0.215174
9127.04, 0.214357
9143.13, 0.213198
9159.28, 0.212244
9175.49, 0.211562
9191.76, 0.210880
9208.09, 0.210335
9224.47, 0.210131
9240.92, 0.209994
9257.42, 0.210199
9273.98, 0.210335
9290.6, 0.209858
9307.28, 0.208018
9324.02, 0.203997
9340.82, 0.198135
9357.68, 0.190910
9374.6, 0.182390
9391.58, 0.173598
9408.62, 0.165215
9425.73, 0.157854
9442.9, 0.151924
9460.13, 0.147357
9477.42, 0.143677
9494.78, 0.140746
9512.2, 0.138156
9529.69, 0.135702
9547.24, 0.133453
9564.86, 0.131068
9582.54, 0.128478
9600.28, 0.126297
9618.1, 0.124524
9635.97, 0.122616
9653.92, 0.120571
9671.93, 0.118595
9690.01, 0.116823
9708.16, 0.115187
9726.37, 0.113687
9744.65, 0.112529
9763.0, 0.111506
9781.43, 0.110416
9799.92, 0.109598
9818.48, 0.108916
9837.1, 0.108235
9855.8, 0.107621
9874.58, 0.106803
9893.42, 0.105986
9912.34, 0.105440
9931.33, 0.105031
9950.39, 0.104554
9969.52, 0.104145
9988.74, 0.103396
10008.0, 0.102987
10027.4, 0.102987
10046.8, 0.102918
10066.3, 0.102646
10085.9, 0.102646
10105.6, 0.102646
10125.3, 0.102850
10145.1, 0.102987
10165.0, 0.103327
10185.0, 0.103668
10205.0, 0.104077
10225.2, 0.104691
10245.4, 0.105713
10265.7, 0.106599
10286.0, 0.107349
10306.5, 0.108371
10327.0, 0.109530
10347.6, 0.110552
10368.3, 0.111711
10389.1, 0.112869
10409.9, 0.113687
10430.9, 0.114642
10451.9, 0.115391
10473.0, 0.115937
10494.2, 0.116414
10515.5, 0.116891
10536.9, 0.117232
10558.4, 0.117027
10579.9, 0.116686
10601.5, 0.116550
10623.3, 0.116277
10645.1, 0.115937
10667.0, 0.115664
10689.0, 0.115323
10711.1, 0.114982
10733.2, 0.114778
10755.5, 0.114710
10777.9, 0.114505
10800.3, 0.114301
10822.9, 0.114096
10845.5, 0.113824
10868.2, 0.113347
10891.1, 0.113074
10914.0, 0.112733
10937.0, 0.112392
10960.2, 0.112120
10983.4, 0.112120
11006.7, 0.112188
11030.1, 0.112529
11053.6, 0.113210
11077.3, 0.114233
11101.0, 0.115187
11124.8, 0.116277
11148.7, 0.117641
11172.7, 0.118731
11196.9, 0.118867
11221.1, 0.118390
11245.4, 0.117300
11269.9, 0.116073
11294.4, 0.115119
11319.1, 0.114710
11343.9, 0.114982
11368.8, 0.115732
11393.7, 0.116686
11418.8, 0.117641
11444.0, 0.118663
11469.4, 0.119822
11494.8, 0.120912
11520.3, 0.121321
11546.0, 0.121321
11571.8, 0.121457
11597.7, 0.121321
11623.7, 0.120980
11649.8, 0.120708
11676.0, 0.120162
11702.4, 0.119276
11728.9, 0.118458
11755.5, 0.117709
11782.2, 0.116959
11809.0, 0.116209
11836.0, 0.115323
11863.0, 0.114301
11890.3, 0.113210
11917.6, 0.111983
11945.0, 0.110552
11972.6, 0.109257
12000.4, 0.107962
12028.2, 0.106803
12056.2, 0.106054
12084.3, 0.105440
12112.5, 0.104759
12140.9, 0.104077
12169.4, 0.103532
12198.0, 0.102782
12226.8, 0.101828
12255.7, 0.100806
12284.7, 0.100056
12313.9, 0.0999190
12343.2, 0.100806
12372.7, 0.102918
12402.3, 0.105372
12432.0, 0.106735
12461.9, 0.106803
12491.9, 0.106531
12522.1, 0.106463
12552.4, 0.106054
12582.9, 0.105645
12613.5, 0.105304
12644.3, 0.105917
12675.2, 0.108235
12706.3, 0.111302
12737.5, 0.113892
12768.9, 0.115323
12800.4, 0.115732
12832.1, 0.115187
12863.9, 0.113551
12895.9, 0.111983
12928.1, 0.110688
12960.4, 0.109734
12992.9, 0.109121
13025.5, 0.108712
13058.3, 0.108644
13091.3, 0.108644
13124.4, 0.108507
13157.8, 0.108167
13191.2, 0.107826
13224.9, 0.107962
13258.7, 0.108303
13292.7, 0.108439
13326.9, 0.108712
13361.2, 0.109121
13395.7, 0.109666
13430.4, 0.110348
13465.3, 0.110620
13500.4, 0.110620
13535.7, 0.111097
13571.1, 0.111370
13606.7, 0.111302
13642.5, 0.110688
13678.5, 0.109939
13714.7, 0.109121
13751.1, 0.109530
13787.6, 0.110279
13824.4, 0.110688
13861.4, 0.110416
13898.5, 0.109939
13935.9, 0.109530
13973.5, 0.108644
14011.2, 0.107212
14049.2, 0.105917
14087.4, 0.104418
14125.8, 0.102101
14164.3, 0.0996470
14203.2, 0.0973290
14242.2, 0.0943310
14281.4, 0.0909230
14320.9, 0.0883330
14360.5, 0.0877190
14400.4, 0.0890820
14440.5, 0.0905140
14480.9, 0.0919450
14521.4, 0.0933760
14562.2, 0.0945350
14603.3, 0.0951480
14644.5, 0.0955570
14686.0, 0.0963750
14727.7, 0.0972610
14769.7, 0.0973980
14811.9, 0.0971930
14854.3, 0.0971250
14897.0, 0.0968520
14939.9, 0.0964430
14983.1, 0.0960340
15026.5, 0.0956260
15070.2, 0.0956260
15114.2, 0.0956260
15158.3, 0.0958300
15202.8, 0.0959660
15247.5, 0.0961030
15292.5, 0.0957620
15337.7, 0.0950800
15383.2, 0.0944670
15429.0, 0.0939900
15475.1, 0.0936490
15521.4, 0.0931040
15568.0, 0.0923540
15614.9, 0.0917410
15662.1, 0.0910590
15709.6, 0.0905140
15757.3, 0.0896960
15805.4, 0.0892190
15853.7, 0.0888780
15902.3, 0.0890140
15951.2, 0.0890140
16000.5, 0.0886050
16050.0, 0.0890140
16099.8, 0.0899680
16150.0, 0.0905140
16200.5, 0.0908540
16251.3, 0.0921490
16302.4, 0.0937170
16353.8, 0.0948760
16405.5, 0.0964430
16457.6, 0.0978750
16510.0, 0.0988290
16562.8, 0.100056
16615.9, 0.100942
16669.3, 0.101078
16723.1, 0.101419
16777.2, 0.102509
16831.7, 0.103191
16886.5, 0.103055
16941.7, 0.103055
16997.2, 0.103327
17053.1, 0.104009
17109.4, 0.103941
17166.1, 0.103123
17223.1, 0.102373
17280.5, 0.102169
17338.3, 0.102305
17396.5, 0.101896
17455.1, 0.100601
17514.0, 0.100056
17573.4, 0.0995110
17633.2, 0.0991020
17693.4, 0.0990330
17754.0, 0.0997830
17815.0, 0.100260
17876.4, 0.100669
17938.3, 0.101896
18000.5, 0.104009
18063.3, 0.107076
18126.4, 0.111166
18190.0, 0.114982
18254.1, 0.117913
18318.6, 0.119072
18383.5, 0.119549
18449.0, 0.119822
18514.9, 0.119276
18581.2, 0.118390
18648.0, 0.116823
18715.4, 0.114233
18783.2, 0.111574
18851.5, 0.109666
18920.3, 0.108780
18989.6, 0.107349
19059.4, 0.106326
19129.7, 0.105577
19200.6, 0.105508
19272.0, 0.106054
19343.9, 0.107144
19416.3, 0.108167
19489.3, 0.110075
19562.8, 0.114096
19637.0, 0.121798
19711.6, 0.151175
19786.8, 0.153060
19862.6, 0.152256
19939.0, 0.152565
20016.0, 0.153956
20093.6, 0.155686
20171.8, 0.153987
20250.6, 0.151823
20330.0, 0.148270
20410.0, 0.144963
20490.7, 0.144469
20572.0, 0.143851
20654.0, 0.146137
20736.6, 0.144067
20819.9, 0.139710
20903.8, 0.138288
20988.5, 0.140822
21073.8, 0.142491
21159.8, 0.137979
21246.5, 0.135167
21334.0, 0.134920
21422.1, 0.133066
21511.0, 0.130099
21600.7, 0.128987
21691.0, 0.127318
21782.1, 0.126144
21874.0, 0.123455
21966.7, 0.118109
22060.2, 0.112670
22154.5, 0.109333
22249.6, 0.108004
22345.5, 0.106582
22442.2, 0.104450
22539.8, 0.101700
22638.2, 0.0999690
22737.5, 0.0981770
22837.7, 0.0953030
22938.7, 0.0941910
23040.7, 0.0934490
23143.5, 0.0915640
23247.3, 0.0901110
23352.1, 0.0888750
23457.7, 0.0875160
23564.4, 0.0844870
23672.0, 0.0833440
23780.5, 0.0813970
23890.1, 0.0764530
24000.7, 0.0713850
24112.3, 0.0703960
24225.0, 0.0694380
24338.7, 0.0697470
24453.5, 0.0761740
24569.4, 0.0836220
24686.4, 0.0899570
24804.5, 0.0930470
24923.8, 0.0911930
25044.2, 0.0877630
25165.8, 0.0841160
25288.6, 0.0816750
25412.5, 0.0823860
25537.7, 0.0830970
25664.1, 0.0843330
25791.8, 0.0860630
25920.8, 0.0852600
26051.1, 0.0855380
26182.6, 0.0869590
26315.5, 0.0871450
26449.8, 0.0853830
26585.4, 0.0803770
26722.5, 0.0755560
26860.9, 0.0726520
27000.8, 0.0732700
27142.1, 0.0802840
27285.0, 0.0891530
27429.4, 0.0969410
27575.3, 0.102596
27722.7, 0.108653
27871.8, 0.112701
28022.4, 0.119005
28174.7, 0.127225
28328.7, 0.132231
28484.4, 0.135383
28641.7, 0.134364
28800.9, 0.129852
28961.8, 0.123671
29124.5, 0.120303
29289.0, 0.117306
29455.4, 0.113195
29623.8, 0.107942
29794.0, 0.106644
29966.3, 0.106582
30140.5, 0.104852
30316.7, 0.104419
30495.1, 0.102967
30675.5, 0.0989800
30858.1, 0.0977750
31042.8, 0.0985170
31229.8, 0.0991350
31419.1, 0.0982080
31610.7, 0.0975900
31804.6, 0.0981150
32000.9, 0.0960450
32199.7, 0.0924600
32400.9, 0.0908530
32604.8, 0.0885970
32811.1, 0.0855070
33020.1, 0.0846110
33231.8, 0.0839930
33446.2, 0.0845800
33663.4, 0.0924290
33883.4, 0.100186
34106.3, 0.103708
34332.1, 0.105037
34561.0, 0.105810
34792.9, 0.105439
35028.0, 0.103090
35266.3, 0.0996600
35507.8, 0.0942520
35752.7, 0.0891530
36001.0, 0.0825400
36252.8, 0.0779050
36508.1, 0.0747530
36767.0, 0.0747220
37029.7, 0.0778740
37296.1, 0.0821690
37566.3, 0.0860320
37840.5, 0.0889370
38118.8, 0.0932330
38401.2, 0.0957050
38687.8, 0.0963230
38978.6, 0.0983310
39273.9, 0.104852
39573.7, 0.109055
39878.1, 0.111063
40187.3, 0.114401
40501.2, 0.116039
40820.0, 0.118387
41144.0, 0.118943
41473.2, 0.118171
41807.6, 0.118016
42147.5, 0.119221
42493.0, 0.122034
42844.2, 0.122806
43201.2, 0.123115
43564.3, 0.123177
43933.5, 0.124320
44309.0, 0.124382
44691.0, 0.121508
45079.6, 0.120612
45475.0, 0.116595
45877.5, 0.114030
46287.1, 0.111063
46704.2, 0.109580
47128.7, 0.110940
47561.1, 0.104481
48001.5, 0.0993510
48450.1, 0.0956740
48907.2, 0.0969100
49373.0, 0.0982700
49847.7, 0.0966630
50331.5, 0.0942830
50825.0, 0.0937580
51328.2, 0.0972810
51841.5, 0.0935720
52365.1, 0.0886900
52899.4, 0.0893700
53444.8, 0.0919960
54001.5, 0.0913780
54570.1, 0.0908220
55150.6, 0.0899570
55743.6, 0.0873610
56349.5, 0.0891840
56968.7, 0.0911000
57601.7, 0.0901110
58248.9, 0.0882260
58910.9, 0.0914710
59588.1, 0.0930160
60281.0, 0.0894320
60990.2, 0.0865270
61716.3, 0.0869590
62459.8, 0.0854760
63221.6, 0.0833130
64002.1, 0.0873300
64802.1, 0.0854450
65622.1, 0.0870830
66463.4, 0.0966630
67326.6, 0.103987
68212.4, 0.108838
69121.9, 0.113875
70056.0, 0.123115
71015.7, 0.136001
72002.0, 0.143449
73016.3, 0.147744
74059.4, 0.154327
75132.7, 0.152071
76237.6, 0.157262
77375.5, 0.168603
78547.9, 0.164833
79756.3, 0.156582
81002.5, 0.153090
82288.5, 0.155254
83615.7, 0.158560
84986.5, 0.170056
86402.9, 0.171446
87867.4, 0.162516
89382.4, 0.162856
90950.5, 0.166749
92574.6, 0.155779
94257.2, 0.140173
96002.7, 0.139184
97814.1, 0.140173
99695.1, 0.145458
101650.0, 0.151700
103683.0, 0.152689
105799.0, 0.169438
108003.0, 0.183498
110301.0, 0.178987
112699.0, 0.179296
115204.0, 0.192244
117822.0, 0.211403
120562.0, 0.204945
123433.0, 0.200248
126443.0, 0.217182
129604.0, 0.231675
132926.0, 0.230346
136424.0, 0.251360
140111.0, 0.278523
144003.0, 0.289370
148118.0, 0.306892
152474.0, 0.280594
157095.0, 0.294840
162004.0, 0.328616
167231.0, 0.361805
172805.0, 0.383004
178764.0, 0.327102
185148.0, 0.204141
199390.0, 0.000000
207366.0, 0.000000
216006.0, 0.000000
