Database of Origin, USGS Spectral Database
Sample Description, See USGS database for additional info
Date Added,2016-08-03 21:00:33.432707

Data ID,USGS_ann02          
Sample ID, annite_ws661.2513
Mineral Name, annite
Material Class,Phyllosilicate

Wavelength
1508.34, 0.174034
1508.78, 0.174211
1509.21, 0.174093
1509.66, 0.174211
1510.09, 0.174328
1510.53, 0.174269
1510.97, 0.174740
1511.42, 0.174975
1511.86, 0.174740
1512.3, 0.174564
1512.74, 0.174740
1513.18, 0.175211
1513.62, 0.175270
1514.06, 0.175211
1514.51, 0.175505
1514.95, 0.175682
1515.39, 0.175564
1515.83, 0.175623
1516.28, 0.175799
1516.72, 0.175799
1517.16, 0.175682
1517.61, 0.175799
1518.05, 0.175858
1518.5, 0.176035
1518.94, 0.176623
1519.39, 0.176623
1519.83, 0.176564
1520.28, 0.176858
1520.73, 0.176682
1521.17, 0.176505
1521.62, 0.176858
1522.07, 0.176976
1522.51, 0.177329
1522.96, 0.177152
1523.41, 0.176976
1523.85, 0.177035
1524.3, 0.177447
1524.75, 0.177505
1525.2, 0.177682
1525.65, 0.177858
1526.1, 0.177682
1526.55, 0.177858
1527.0, 0.178329
1527.45, 0.178564
1527.9, 0.178741
1528.35, 0.178682
1528.8, 0.178682
1529.25, 0.178682
1529.7, 0.178506
1530.15, 0.178564
1530.6, 0.178741
1531.05, 0.178859
1531.51, 0.179212
1531.96, 0.179623
1532.41, 0.179270
1532.87, 0.179329
1533.32, 0.179682
1533.77, 0.180035
1534.23, 0.180035
1534.68, 0.179976
1535.14, 0.180035
1535.59, 0.180035
1536.05, 0.180035
1536.5, 0.180153
1536.96, 0.180447
1537.41, 0.180447
1537.87, 0.180506
1538.32, 0.180565
1538.78, 0.180682
1539.24, 0.180918
1539.7, 0.181153
1540.15, 0.181389
1540.61, 0.181624
1541.07, 0.181859
1541.53, 0.181859
1541.98, 0.181565
1542.44, 0.181447
1542.9, 0.181624
1543.36, 0.181742
1543.82, 0.181800
1544.28, 0.182095
1544.74, 0.182271
1545.2, 0.182271
1545.66, 0.182565
1546.12, 0.182565
1546.59, 0.182683
1547.05, 0.182977
1547.51, 0.183036
1547.97, 0.182859
1548.43, 0.182918
1548.9, 0.182918
1549.36, 0.182977
1549.82, 0.183036
1550.29, 0.183389
1550.75, 0.183860
1551.21, 0.184095
1551.68, 0.183860
1552.14, 0.183860
1552.61, 0.184036
1553.07, 0.184213
1553.54, 0.184448
1554.0, 0.184566
1554.47, 0.184448
1554.93, 0.184566
1555.4, 0.184683
1555.87, 0.184742
1556.34, 0.185036
1556.8, 0.185095
1557.27, 0.185272
1557.74, 0.185683
1558.21, 0.185860
1558.68, 0.185625
1559.14, 0.185566
1559.61, 0.185742
1560.08, 0.185860
1560.55, 0.186154
1561.02, 0.186390
1561.49, 0.186507
1561.96, 0.186507
1562.43, 0.186566
1562.9, 0.186684
1563.38, 0.186743
1563.85, 0.186860
1564.32, 0.187096
1564.79, 0.187213
1565.26, 0.186978
1565.74, 0.186801
1566.21, 0.187213
1566.68, 0.187566
1567.16, 0.187449
1567.63, 0.187566
1568.1, 0.187978
1568.58, 0.187978
1569.05, 0.187743
1569.53, 0.188037
1570.0, 0.188390
1570.48, 0.188213
1570.96, 0.188390
1571.43, 0.188684
1571.91, 0.188508
1572.39, 0.188449
1572.86, 0.188625
1573.34, 0.188919
1573.82, 0.189096
1574.3, 0.188978
1574.77, 0.188861
1575.25, 0.189155
1575.73, 0.189508
1576.21, 0.189684
1576.69, 0.189508
1577.17, 0.189802
1577.65, 0.189978
1578.13, 0.190096
1578.61, 0.190273
1579.09, 0.190390
1579.57, 0.190096
1580.05, 0.190155
1580.54, 0.190508
1581.02, 0.190743
1581.5, 0.190802
1581.98, 0.190920
1582.47, 0.191155
1582.95, 0.191214
1583.43, 0.191214
1583.92, 0.191273
1584.4, 0.191273
1584.88, 0.191508
1585.37, 0.191685
1585.85, 0.191626
1586.34, 0.191390
1586.82, 0.191508
1587.31, 0.192097
1587.8, 0.192097
1588.28, 0.192155
1588.77, 0.192450
1589.26, 0.192450
1589.74, 0.192508
1590.23, 0.192803
1590.72, 0.193097
1591.21, 0.193391
1591.7, 0.193450
1592.19, 0.193391
1592.67, 0.193273
1593.16, 0.193391
1593.65, 0.193862
1594.14, 0.193862
1594.63, 0.193744
1595.12, 0.193862
1595.61, 0.194156
1596.11, 0.194215
1596.6, 0.194273
1597.09, 0.194332
1597.58, 0.194685
1598.08, 0.194979
1598.57, 0.194979
1599.06, 0.194921
1599.55, 0.195156
1600.05, 0.195391
1600.54, 0.195509
1601.04, 0.195568
1601.53, 0.195685
1602.03, 0.195862
1602.52, 0.195803
1603.02, 0.195862
1603.51, 0.195921
1604.01, 0.196038
1604.5, 0.196274
1605.0, 0.196568
1605.5, 0.196921
1606.0, 0.197097
1606.49, 0.196921
1606.99, 0.196980
1607.49, 0.197156
1607.99, 0.197156
1608.49, 0.197333
1608.99, 0.197509
1609.49, 0.197745
1609.99, 0.197862
1610.49, 0.198039
1610.99, 0.198157
1611.49, 0.198392
1611.99, 0.198451
1612.49, 0.198627
1612.99, 0.198804
1613.49, 0.198921
1614.0, 0.199039
1614.5, 0.199098
1615.0, 0.199039
1615.51, 0.199216
1616.01, 0.199569
1616.51, 0.199686
1617.02, 0.199804
1617.52, 0.199980
1618.03, 0.200098
1618.53, 0.200098
1619.04, 0.200451
1619.54, 0.200686
1620.05, 0.200451
1620.55, 0.200628
1621.06, 0.200981
1621.57, 0.201098
1622.08, 0.200981
1622.58, 0.200922
1623.09, 0.201334
1623.6, 0.201745
1624.11, 0.202040
1624.62, 0.202157
1625.13, 0.202334
1625.64, 0.202451
1626.15, 0.202275
1626.66, 0.202451
1627.17, 0.202805
1627.68, 0.202805
1628.19, 0.202863
1628.7, 0.202981
1629.21, 0.203216
1629.72, 0.203157
1630.24, 0.202981
1630.75, 0.203393
1631.26, 0.203569
1631.78, 0.203569
1632.29, 0.203922
1632.8, 0.204334
1633.32, 0.204511
1633.83, 0.204570
1634.35, 0.204628
1634.86, 0.204805
1635.38, 0.204805
1635.9, 0.205040
1636.41, 0.205217
1636.93, 0.205158
1637.45, 0.205099
1637.96, 0.205334
1638.48, 0.205511
1639.0, 0.205629
1639.52, 0.206040
1640.04, 0.206158
1640.56, 0.206217
1641.08, 0.206452
1641.59, 0.206452
1642.11, 0.206452
1642.63, 0.206452
1643.16, 0.206746
1643.68, 0.207041
1644.2, 0.207276
1644.72, 0.207511
1645.24, 0.207805
1645.76, 0.207923
1646.29, 0.207805
1646.81, 0.207923
1647.33, 0.207982
1647.86, 0.208335
1648.38, 0.208335
1648.9, 0.208570
1649.43, 0.208864
1649.95, 0.208923
1650.48, 0.209100
1651.0, 0.209218
1651.53, 0.209159
1652.06, 0.209276
1652.58, 0.209688
1653.11, 0.209924
1653.64, 0.210041
1654.17, 0.210041
1654.69, 0.209865
1655.22, 0.210100
1655.75, 0.210277
1656.28, 0.210394
1656.81, 0.210512
1657.34, 0.210571
1657.87, 0.210747
1658.4, 0.210747
1658.93, 0.210747
1659.46, 0.211100
1659.99, 0.211512
1660.52, 0.211512
1661.05, 0.211571
1661.59, 0.211453
1662.12, 0.211571
1662.65, 0.212159
1663.19, 0.212277
1663.72, 0.212159
1664.26, 0.212336
1664.79, 0.212630
1665.32, 0.212806
1665.86, 0.213101
1666.39, 0.213336
1666.93, 0.213336
1667.47, 0.213454
1668.0, 0.213689
1668.54, 0.213983
1669.08, 0.214101
1669.61, 0.214277
1670.15, 0.214336
1670.69, 0.214218
1671.23, 0.214395
1671.77, 0.214748
1672.31, 0.215101
1672.85, 0.215160
1673.39, 0.215101
1673.93, 0.215278
1674.47, 0.215278
1675.01, 0.215395
1675.55, 0.215866
1676.09, 0.216042
1676.64, 0.216042
1677.18, 0.216395
1677.72, 0.216690
1678.26, 0.216631
1678.81, 0.216748
1679.35, 0.217101
1679.89, 0.217219
1680.44, 0.217337
1680.98, 0.217631
1681.53, 0.217454
1682.07, 0.217219
1682.62, 0.217631
1683.17, 0.217866
1683.71, 0.217984
1684.26, 0.218160
1684.81, 0.218337
1685.36, 0.218749
1685.9, 0.218925
1686.45, 0.219043
1687.0, 0.219043
1687.55, 0.219161
1688.1, 0.219455
1688.65, 0.219749
1689.2, 0.219925
1689.75, 0.220043
1690.3, 0.220278
1690.85, 0.220278
1691.41, 0.220278
1691.96, 0.220749
1692.51, 0.221102
1693.06, 0.221161
1693.61, 0.221161
1694.17, 0.221279
1694.72, 0.221279
1695.28, 0.221220
1695.83, 0.221455
1696.39, 0.221691
1696.94, 0.221749
1697.5, 0.221985
1698.05, 0.222279
1698.61, 0.222573
1699.17, 0.222632
1699.72, 0.222573
1700.28, 0.222691
1700.84, 0.222926
1701.4, 0.223103
1701.95, 0.223514
1702.51, 0.223750
1703.07, 0.223867
1703.63, 0.223985
1704.19, 0.224044
1704.75, 0.224279
1705.31, 0.224632
1705.88, 0.224809
1706.44, 0.224868
1707.0, 0.224985
1707.56, 0.224926
1708.12, 0.224926
1708.69, 0.225103
1709.25, 0.225338
1709.81, 0.225633
1710.38, 0.226044
1710.94, 0.226103
1711.51, 0.226162
1712.07, 0.226339
1712.64, 0.226456
1713.2, 0.226574
1713.77, 0.226868
1714.34, 0.227103
1714.9, 0.227221
1715.47, 0.227280
1716.04, 0.227515
1716.61, 0.227809
1717.18, 0.227986
1717.74, 0.227986
1718.31, 0.228104
1718.88, 0.228633
1719.45, 0.228751
1720.02, 0.228692
1720.59, 0.228692
1721.17, 0.228751
1721.74, 0.229221
1722.31, 0.229398
1722.88, 0.229516
1723.45, 0.229692
1724.03, 0.229927
1724.6, 0.230104
1725.18, 0.230104
1725.75, 0.230104
1726.33, 0.230163
1726.9, 0.230339
1727.48, 0.230575
1728.05, 0.230869
1728.63, 0.231104
1729.2, 0.231222
1729.78, 0.231340
1730.36, 0.231516
1730.94, 0.231810
1731.51, 0.232104
1732.09, 0.232340
1732.67, 0.232399
1733.25, 0.232340
1733.83, 0.232575
1734.41, 0.232634
1734.99, 0.232810
1735.57, 0.232987
1736.15, 0.233105
1736.73, 0.233340
1737.32, 0.233634
1737.9, 0.233869
1738.48, 0.233987
1739.07, 0.234340
1739.65, 0.234693
1740.23, 0.234634
1740.82, 0.234693
1741.4, 0.235105
1741.99, 0.235223
1742.57, 0.235281
1743.16, 0.235517
1743.74, 0.235811
1744.33, 0.236046
1744.92, 0.236046
1745.51, 0.236223
1746.09, 0.236340
1746.68, 0.236458
1747.27, 0.236517
1747.86, 0.236870
1748.45, 0.236988
1749.04, 0.237223
1749.63, 0.237517
1750.22, 0.237694
1750.81, 0.237988
1751.4, 0.238106
1751.99, 0.238282
1752.59, 0.238282
1753.18, 0.238400
1753.77, 0.238753
1754.37, 0.238812
1754.96, 0.238929
1755.56, 0.239165
1756.15, 0.239518
1756.74, 0.239929
1757.34, 0.239929
1757.94, 0.240047
1758.53, 0.240282
1759.13, 0.240518
1759.73, 0.240812
1760.32, 0.241165
1760.92, 0.241165
1761.52, 0.241047
1762.12, 0.241106
1762.72, 0.241577
1763.32, 0.241812
1763.92, 0.241930
1764.52, 0.242342
1765.12, 0.242636
1765.72, 0.242577
1766.32, 0.242754
1766.92, 0.243283
1767.53, 0.243401
1768.13, 0.243342
1768.73, 0.243636
1769.34, 0.243871
1769.94, 0.243989
1770.55, 0.244107
1771.15, 0.244460
1771.76, 0.244695
1772.36, 0.244930
1772.97, 0.245048
1773.57, 0.245166
1774.18, 0.245460
1774.79, 0.245813
1775.4, 0.245872
1776.0, 0.245872
1776.61, 0.246166
1777.22, 0.246284
1777.83, 0.246225
1778.44, 0.246578
1779.05, 0.246872
1779.66, 0.247166
1780.27, 0.247578
1780.88, 0.247696
1781.5, 0.247460
1782.11, 0.247637
1782.72, 0.247931
1783.33, 0.248284
1783.95, 0.248402
1784.56, 0.248872
1785.18, 0.249049
1785.79, 0.248990
1786.41, 0.249049
1787.02, 0.249225
1787.64, 0.249637
1788.26, 0.249990
1788.87, 0.249990
1789.49, 0.250167
1790.11, 0.250402
1790.73, 0.250637
1791.35, 0.250990
1791.96, 0.251167
1792.58, 0.251343
1793.21, 0.251402
1793.83, 0.251461
1794.45, 0.251638
1795.07, 0.251873
1795.69, 0.251932
1796.31, 0.252226
1796.93, 0.252638
1797.56, 0.252873
1798.18, 0.253050
1798.8, 0.253226
1799.43, 0.253520
1800.05, 0.253638
1800.68, 0.253814
1801.3, 0.254050
1801.93, 0.254285
1802.56, 0.254521
1803.18, 0.254697
1803.81, 0.254579
1804.44, 0.254756
1805.07, 0.254991
1805.7, 0.255285
1806.33, 0.255580
1806.95, 0.255874
1807.58, 0.256050
1808.22, 0.255991
1808.85, 0.256109
1809.48, 0.256580
1810.11, 0.256756
1810.74, 0.256815
1811.38, 0.256933
1812.01, 0.256992
1812.64, 0.257109
1813.28, 0.257580
1813.91, 0.257933
1814.55, 0.258051
1815.18, 0.258109
1815.82, 0.258227
1816.45, 0.258286
1817.09, 0.258404
1817.73, 0.258815
1818.36, 0.259110
1819.0, 0.259345
1819.64, 0.259345
1820.28, 0.259404
1820.92, 0.259757
1821.56, 0.259933
1822.2, 0.260463
1822.84, 0.260934
1823.48, 0.260934
1824.12, 0.260875
1824.76, 0.261228
1825.41, 0.261228
1826.05, 0.260875
1826.69, 0.261522
1827.34, 0.262110
1827.98, 0.262110
1828.63, 0.262169
1829.27, 0.262463
1829.92, 0.262522
1830.56, 0.262757
1831.21, 0.263052
1831.86, 0.263405
1832.5, 0.263640
1833.15, 0.263816
1833.8, 0.264169
1834.45, 0.264405
1835.1, 0.264405
1835.75, 0.264405
1836.4, 0.264522
1837.05, 0.264640
1837.7, 0.264699
1838.35, 0.265523
1839.01, 0.265758
1839.66, 0.265640
1840.31, 0.265935
1840.96, 0.265817
1841.62, 0.265817
1842.27, 0.266641
1842.93, 0.267288
1843.58, 0.267641
1844.24, 0.268111
1844.9, 0.268406
1845.55, 0.268347
1846.21, 0.267876
1846.87, 0.267405
1847.53, 0.267700
1848.18, 0.268111
1848.84, 0.269053
1849.5, 0.269700
1850.16, 0.269759
1850.82, 0.270171
1851.48, 0.270524
1852.14, 0.270347
1852.81, 0.270229
1853.47, 0.270288
1854.13, 0.270877
1854.8, 0.271524
1855.46, 0.271818
1856.12, 0.271700
1856.79, 0.271877
1857.45, 0.272465
1858.12, 0.272877
1858.79, 0.272818
1859.45, 0.272348
1860.12, 0.272701
1860.79, 0.273348
1861.46, 0.274054
1862.12, 0.274466
1862.79, 0.274819
1863.46, 0.274701
1864.13, 0.274642
1864.8, 0.274995
1865.48, 0.275407
1866.15, 0.275525
1866.82, 0.275289
1867.49, 0.275054
1868.16, 0.275466
1868.84, 0.276113
1869.51, 0.276466
1870.19, 0.276054
1870.86, 0.275583
1871.54, 0.276466
1872.21, 0.276878
1872.89, 0.276525
1873.56, 0.277290
1874.24, 0.278055
1874.92, 0.278172
1875.6, 0.278525
1876.28, 0.278408
1876.96, 0.278290
1877.64, 0.278937
1878.32, 0.279349
1879.0, 0.279702
1879.68, 0.279996
1880.36, 0.279996
1881.04, 0.280231
1881.73, 0.280761
1882.41, 0.280996
1883.09, 0.280820
1883.78, 0.280643
1884.46, 0.281173
1885.15, 0.281644
1885.83, 0.281879
1886.52, 0.282114
1887.21, 0.282408
1887.89, 0.282644
1888.58, 0.282879
1889.27, 0.282761
1889.96, 0.282585
1890.65, 0.283056
1891.34, 0.283585
1892.03, 0.283820
1892.72, 0.284232
1893.41, 0.284173
1894.1, 0.284232
1894.79, 0.284644
1895.49, 0.284938
1896.18, 0.285056
1896.87, 0.285115
1897.57, 0.285350
1898.26, 0.285585
1898.96, 0.285291
1899.65, 0.285468
1900.35, 0.286056
1901.05, 0.286586
1901.74, 0.286762
1902.44, 0.286468
1903.14, 0.286939
1903.84, 0.287703
1904.54, 0.287292
1905.24, 0.286997
1905.94, 0.287468
1906.64, 0.287939
1907.34, 0.288410
1908.04, 0.288821
1908.75, 0.289057
1909.45, 0.289351
1910.15, 0.289469
1910.86, 0.289410
1911.56, 0.289704
1912.27, 0.289998
1912.97, 0.289704
1913.68, 0.289763
1914.39, 0.290469
1915.09, 0.290939
1915.8, 0.291292
1916.51, 0.291528
1917.22, 0.291822
1917.93, 0.292175
1918.64, 0.292469
1919.35, 0.292175
1920.06, 0.291822
1920.77, 0.292234
1921.48, 0.293116
1922.19, 0.293587
1922.91, 0.293822
1923.62, 0.293646
1924.33, 0.293999
1925.05, 0.294528
1925.76, 0.294823
1926.48, 0.294940
1927.19, 0.295117
1927.91, 0.295234
1928.63, 0.295646
1929.35, 0.295999
1930.07, 0.296117
1930.78, 0.296470
1931.5, 0.296823
1932.22, 0.296999
1932.94, 0.297058
1933.66, 0.297117
1934.39, 0.297411
1935.11, 0.297823
1935.83, 0.297823
1936.55, 0.297941
1937.28, 0.298470
1938.0, 0.298764
1938.73, 0.299000
1939.45, 0.299353
1940.18, 0.299588
1940.9, 0.299765
1941.63, 0.300059
1942.36, 0.300530
1943.09, 0.300941
1943.81, 0.301118
1944.54, 0.301177
1945.27, 0.301294
1946.0, 0.301471
1946.73, 0.301883
1947.47, 0.302118
1948.2, 0.302295
1948.93, 0.302530
1949.66, 0.302706
1950.4, 0.302942
1951.13, 0.303354
1951.86, 0.303707
1952.6, 0.303824
1953.34, 0.303942
1954.07, 0.304060
1954.81, 0.304354
1955.55, 0.304707
1956.29, 0.304883
1957.02, 0.305236
1957.76, 0.305648
1958.5, 0.305884
1959.24, 0.306178
1959.98, 0.306060
1960.72, 0.306119
1961.47, 0.306531
1962.21, 0.306825
1962.95, 0.307060
1963.7, 0.307354
1964.44, 0.307590
1965.18, 0.307766
1965.93, 0.307884
1966.67, 0.308296
1967.42, 0.308649
1968.17, 0.308649
1968.92, 0.308943
1969.66, 0.309237
1970.41, 0.309355
1971.16, 0.309473
1971.91, 0.309767
1972.66, 0.310061
1973.41, 0.310296
1974.16, 0.310473
1974.92, 0.310767
1975.67, 0.310708
1976.42, 0.310943
1977.18, 0.311532
1977.93, 0.311649
1978.69, 0.311708
1979.44, 0.311826
1980.2, 0.312179
1980.95, 0.312473
1981.71, 0.312767
1982.47, 0.313061
1983.23, 0.313356
1983.99, 0.313473
1984.74, 0.313591
1985.51, 0.313826
1986.27, 0.313885
1987.03, 0.314120
1987.79, 0.314356
1988.55, 0.314473
1989.32, 0.314768
1990.08, 0.315003
1990.84, 0.315121
1991.61, 0.315297
1992.37, 0.315768
1993.14, 0.316003
1993.9, 0.316180
1994.67, 0.316474
1995.44, 0.316650
1996.21, 0.316709
1996.98, 0.316945
1997.75, 0.317415
1998.52, 0.317592
1999.29, 0.317651
2000.06, 0.317827
2000.83, 0.318121
2001.6, 0.318533
2002.38, 0.318533
2003.15, 0.318474
2003.93, 0.318827
2004.7, 0.319180
2005.48, 0.319357
2006.25, 0.319533
2007.03, 0.319769
2007.81, 0.320122
2008.58, 0.320475
2009.36, 0.320886
2010.14, 0.321122
2010.92, 0.321240
2011.7, 0.321416
2012.48, 0.321769
2013.26, 0.321945
2014.05, 0.322063
2014.83, 0.322357
2015.61, 0.322534
2016.4, 0.322710
2017.18, 0.323181
2017.97, 0.323416
2018.75, 0.323416
2019.54, 0.323652
2020.32, 0.323887
2021.11, 0.324064
2021.9, 0.324417
2022.69, 0.324887
2023.48, 0.325123
2024.27, 0.325181
2025.06, 0.325534
2025.85, 0.325887
2026.64, 0.326358
2027.44, 0.326417
2028.23, 0.326358
2029.02, 0.326711
2029.82, 0.327182
2030.61, 0.327358
2031.41, 0.327476
2032.2, 0.327594
2033.0, 0.328005
2033.8, 0.328359
2034.6, 0.328594
2035.4, 0.328888
2036.2, 0.328947
2037.0, 0.329123
2037.8, 0.329535
2038.6, 0.329712
2039.4, 0.330182
2040.2, 0.330477
2041.01, 0.330594
2041.81, 0.330888
2042.61, 0.331124
2043.42, 0.331300
2044.22, 0.331477
2045.03, 0.331712
2045.84, 0.332006
2046.65, 0.332242
2047.46, 0.332536
2048.26, 0.332889
2049.07, 0.333183
2049.88, 0.333418
2050.69, 0.333595
2051.51, 0.333948
2052.32, 0.334419
2053.13, 0.334595
2053.94, 0.334713
2054.76, 0.334830
2055.57, 0.335007
2056.39, 0.335360
2057.2, 0.335536
2058.02, 0.335654
2058.84, 0.335948
2059.66, 0.336301
2060.48, 0.336419
2061.29, 0.336772
2062.11, 0.337125
2062.94, 0.337243
2063.76, 0.337478
2064.58, 0.337890
2065.4, 0.338184
2066.22, 0.338419
2067.05, 0.338537
2067.87, 0.338831
2068.7, 0.339067
2069.52, 0.339243
2070.35, 0.339478
2071.18, 0.339714
2072.0, 0.339831
2072.83, 0.340067
2073.66, 0.340479
2074.49, 0.340773
2075.32, 0.340832
2076.15, 0.341126
2076.98, 0.341361
2077.82, 0.341420
2078.65, 0.341596
2079.48, 0.341949
2080.32, 0.342244
2081.15, 0.342538
2081.99, 0.342832
2082.83, 0.343008
2083.66, 0.343126
2084.5, 0.343244
2085.34, 0.343479
2086.18, 0.343891
2087.02, 0.344126
2087.86, 0.344244
2088.7, 0.344479
2089.54, 0.344715
2090.39, 0.345068
2091.23, 0.345480
2092.07, 0.345656
2092.92, 0.345833
2093.76, 0.346009
2094.61, 0.346009
2095.45, 0.346127
2096.3, 0.346656
2097.15, 0.347009
2098.0, 0.347245
2098.85, 0.347421
2099.7, 0.347539
2100.55, 0.347715
2101.4, 0.347892
2102.25, 0.348127
2103.1, 0.348304
2103.96, 0.348480
2104.81, 0.348539
2105.67, 0.348715
2106.52, 0.348833
2107.38, 0.349304
2108.24, 0.349539
2109.09, 0.349716
2109.95, 0.349951
2110.81, 0.350128
2111.67, 0.350245
2112.53, 0.350481
2113.39, 0.350834
2114.25, 0.350951
2115.12, 0.351128
2115.98, 0.351363
2116.84, 0.351716
2117.71, 0.352187
2118.58, 0.352657
2119.44, 0.352775
2120.31, 0.352716
2121.18, 0.353128
2122.04, 0.353658
2122.91, 0.353775
2123.78, 0.354011
2124.65, 0.354305
2125.52, 0.354540
2126.4, 0.354775
2127.27, 0.355128
2128.14, 0.355423
2129.02, 0.355540
2129.89, 0.356011
2130.77, 0.356246
2131.64, 0.356423
2132.52, 0.356717
2133.4, 0.356952
2134.27, 0.357247
2135.15, 0.357541
2136.03, 0.357717
2136.91, 0.358129
2137.79, 0.358364
2138.68, 0.358423
2139.56, 0.358776
2140.44, 0.359188
2141.33, 0.359482
2142.21, 0.359776
2143.1, 0.359953
2143.99, 0.360188
2144.87, 0.360482
2145.76, 0.360894
2146.65, 0.361247
2147.54, 0.361424
2148.43, 0.361600
2149.32, 0.361718
2150.21, 0.362130
2151.1, 0.362424
2151.99, 0.362836
2152.89, 0.363130
2153.78, 0.363130
2154.68, 0.363248
2155.57, 0.363424
2156.47, 0.363777
2157.37, 0.364071
2158.27, 0.364542
2159.16, 0.364836
2160.06, 0.365013
2160.96, 0.365248
2161.86, 0.365542
2162.77, 0.365895
2163.67, 0.366248
2164.57, 0.366484
2165.48, 0.366778
2166.38, 0.367013
2167.29, 0.367249
2168.2, 0.367602
2169.1, 0.367896
2170.01, 0.368072
2170.92, 0.368249
2171.83, 0.368425
2172.74, 0.368661
2173.65, 0.368896
2174.56, 0.369249
2175.47, 0.369484
2176.39, 0.369778
2177.3, 0.369955
2178.22, 0.370131
2179.13, 0.370543
2180.05, 0.371073
2180.96, 0.371190
2181.88, 0.371367
2182.8, 0.371543
2183.72, 0.371661
2184.64, 0.371955
2185.56, 0.372249
2186.48, 0.372544
2187.41, 0.372897
2188.33, 0.373191
2189.25, 0.373250
2190.18, 0.373426
2191.1, 0.373720
2192.03, 0.373897
2192.96, 0.374132
2193.89, 0.374485
2194.82, 0.374662
2195.74, 0.374897
2196.68, 0.375074
2197.61, 0.375309
2198.54, 0.375544
2199.47, 0.375721
2200.4, 0.376015
2201.34, 0.376309
2202.28, 0.376780
2203.21, 0.377192
2204.15, 0.377250
2205.08, 0.377250
2206.02, 0.377545
2206.96, 0.377898
2207.9, 0.378074
2208.84, 0.378368
2209.78, 0.378839
2210.73, 0.378898
2211.67, 0.379074
2212.61, 0.379486
2213.56, 0.379663
2214.5, 0.379957
2215.45, 0.380310
2216.4, 0.380486
2217.35, 0.380722
2218.3, 0.381016
2219.24, 0.381310
2220.2, 0.381604
2221.15, 0.381781
2222.1, 0.382075
2223.05, 0.382487
2224.0, 0.382663
2224.96, 0.382781
2225.91, 0.382899
2226.87, 0.383311
2227.83, 0.383840
2228.79, 0.384075
2229.74, 0.384193
2230.7, 0.384252
2231.66, 0.384487
2232.63, 0.384781
2233.59, 0.385076
2234.55, 0.385311
2235.51, 0.385429
2236.48, 0.385605
2237.44, 0.385840
2238.41, 0.386017
2239.38, 0.386135
2240.34, 0.386370
2241.31, 0.386605
2242.28, 0.386664
2243.25, 0.386723
2244.22, 0.386899
2245.19, 0.387017
2246.17, 0.386958
2247.14, 0.386782
2248.12, 0.386899
2249.09, 0.387017
2250.07, 0.387017
2251.04, 0.387135
2252.02, 0.387311
2253.0, 0.387311
2253.98, 0.387605
2254.96, 0.388017
2255.94, 0.388253
2256.92, 0.388370
2257.91, 0.388723
2258.89, 0.389076
2259.88, 0.389547
2260.86, 0.389841
2261.85, 0.390135
2262.83, 0.390547
2263.82, 0.391018
2264.81, 0.391312
2265.8, 0.391606
2266.79, 0.391900
2267.78, 0.392371
2268.78, 0.392959
2269.77, 0.393195
2270.76, 0.393430
2271.76, 0.393901
2272.75, 0.394372
2273.75, 0.394666
2274.75, 0.395019
2275.75, 0.395489
2276.75, 0.395901
2277.75, 0.396078
2278.75, 0.396313
2279.75, 0.396548
2280.75, 0.396784
2281.76, 0.397196
2282.76, 0.397313
2283.77, 0.397725
2284.77, 0.398019
2285.78, 0.398019
2286.79, 0.398196
2287.8, 0.398431
2288.81, 0.398666
2289.82, 0.398961
2290.83, 0.399314
2291.84, 0.399490
2292.86, 0.399549
2293.87, 0.399725
2294.89, 0.400137
2295.91, 0.400373
2296.92, 0.400490
2297.94, 0.400608
2298.96, 0.400843
2299.98, 0.401020
2301.0, 0.401373
2302.02, 0.401785
2303.04, 0.401785
2304.07, 0.402020
2305.09, 0.402138
2306.12, 0.402255
2307.15, 0.402432
2308.17, 0.402785
2309.2, 0.403079
2310.23, 0.403256
2311.26, 0.403491
2312.29, 0.403667
2313.32, 0.403726
2314.35, 0.404020
2315.39, 0.404197
2316.42, 0.404491
2317.46, 0.404550
2318.5, 0.404668
2319.53, 0.404785
2320.57, 0.405021
2321.61, 0.405374
2322.65, 0.405374
2323.69, 0.405374
2324.73, 0.405609
2325.78, 0.405727
2326.82, 0.405844
2327.86, 0.405786
2328.91, 0.405844
2329.96, 0.406021
2331.01, 0.406197
2332.05, 0.406197
2333.1, 0.406139
2334.15, 0.406139
2335.21, 0.406197
2336.26, 0.406080
2337.31, 0.406080
2338.36, 0.406080
2339.42, 0.406139
2340.48, 0.406080
2341.53, 0.406021
2342.59, 0.405962
2343.65, 0.406080
2344.71, 0.406197
2345.77, 0.406021
2346.83, 0.405903
2347.9, 0.405962
2348.96, 0.405786
2350.02, 0.405609
2351.09, 0.405668
2352.16, 0.405962
2353.23, 0.406021
2354.29, 0.405903
2355.36, 0.405844
2356.43, 0.405786
2357.51, 0.405668
2358.58, 0.405727
2359.65, 0.405727
2360.73, 0.405668
2361.8, 0.405727
2362.88, 0.405844
2363.96, 0.405962
2365.03, 0.406256
2366.11, 0.406315
2367.19, 0.406256
2368.27, 0.406433
2369.36, 0.406668
2370.44, 0.407080
2371.53, 0.407492
2372.61, 0.407727
2373.7, 0.407962
2374.78, 0.408433
2375.87, 0.408845
2376.96, 0.409080
2378.05, 0.409433
2379.14, 0.409845
2380.24, 0.410316
2381.33, 0.410669
2382.42, 0.411022
2383.52, 0.411434
2384.61, 0.411904
2385.71, 0.412375
2386.81, 0.412610
2387.91, 0.412963
2389.01, 0.413375
2390.11, 0.413728
2391.22, 0.414022
2392.32, 0.414199
2393.42, 0.414434
2394.53, 0.414670
2395.64, 0.415081
2396.74, 0.415258
2397.85, 0.415434
2398.96, 0.415611
2400.07, 0.415787
2401.18, 0.416023
2402.3, 0.416140
2403.41, 0.416317
2404.52, 0.416552
2405.64, 0.416670
2406.76, 0.416905
2407.88, 0.417082
2408.99, 0.417199
2410.11, 0.417435
2411.23, 0.417494
2412.36, 0.417317
2413.48, 0.417376
2414.6, 0.417670
2415.73, 0.417964
2416.85, 0.418141
2417.98, 0.418317
2419.11, 0.418317
2420.24, 0.418435
2421.37, 0.418612
2422.5, 0.418847
2423.64, 0.419141
2424.77, 0.419376
2425.9, 0.419435
2427.04, 0.419494
2428.18, 0.419729
2429.31, 0.420141
2430.45, 0.420612
2431.59, 0.420965
2432.73, 0.421436
2433.88, 0.421789
2435.02, 0.422142
2436.16, 0.422612
2437.31, 0.422906
2438.45, 0.423377
2439.6, 0.423848
2440.75, 0.424436
2441.9, 0.425025
2443.05, 0.425436
2444.2, 0.425613
2445.35, 0.425907
2446.51, 0.426260
2447.67, 0.426731
2448.82, 0.427025
2449.98, 0.427378
2451.14, 0.427849
2452.3, 0.428202
2453.46, 0.428437
2454.62, 0.428849
2455.78, 0.429319
2456.94, 0.429790
2458.11, 0.430084
2459.28, 0.430555
2460.44, 0.430908
2461.61, 0.431143
2462.78, 0.431320
2463.95, 0.431614
2465.12, 0.431967
2466.3, 0.432555
2467.47, 0.432791
2468.65, 0.433026
2469.82, 0.433144
2471.0, 0.433203
2472.18, 0.433438
2473.36, 0.434026
2474.54, 0.434438
2475.72, 0.434673
2476.9, 0.434791
2478.08, 0.435027
2479.27, 0.435262
2480.46, 0.435497
2481.64, 0.435674
2482.83, 0.435909
2484.02, 0.435968
2485.21, 0.436262
2486.4, 0.436556
2487.6, 0.436850
2488.79, 0.437145
2489.99, 0.437498
2491.18, 0.437615
2492.38, 0.437674
2493.58, 0.437733
2494.78, 0.438204
2495.98, 0.438557
2497.18, 0.438792
2498.39, 0.438968
2499.59, 0.439204
2500.8, 0.439557
2502.01, 0.439851
2503.21, 0.439969
2504.42, 0.440263
2505.63, 0.440557
2506.84, 0.441028
2508.06, 0.441440
2509.27, 0.441675
2510.49, 0.441793
2511.7, 0.441969
2512.92, 0.442263
2514.14, 0.442675
2515.36, 0.442910
2516.58, 0.443205
2517.8, 0.443499
2519.03, 0.443911
2520.25, 0.444146
2521.48, 0.444381
2522.7, 0.444558
2523.93, 0.444911
2525.16, 0.445440
2526.39, 0.445793
2527.62, 0.446029
2528.86, 0.446264
2530.09, 0.446088
2531.33, 0.446029
2532.56, 0.446382
2533.8, 0.447264
2535.04, 0.446970
2536.28, 0.447088
2537.52, 0.448441
2538.76, 0.448970
2540.01, 0.449323
2541.25, 0.448853
2542.5, 0.447911
2543.75, 0.448853
2544.99, 0.450088
2546.24, 0.450029
2547.49, 0.449618
2548.75, 0.450559
2550.0, 0.450441
2551.26, 0.449735
2552.51, 0.449618
2553.77, 0.451912
2555.03, 0.453618
2556.29, 0.453913
2557.55, 0.454207
2558.81, 0.453324
2560.08, 0.449735
2561.34, 0.447264
2562.61, 0.447794
2563.88, 0.449147
2565.14, 0.453030
2566.41, 0.456207
2567.68, 0.455266
2568.96, 0.452148
2570.23, 0.453677
2571.51, 0.455325
2572.78, 0.450912
2574.06, 0.453324
2575.34, 0.455207
2576.62, 0.453854
2577.9, 0.456913
2579.18, 0.458266
2580.47, 0.455854
2581.75, 0.455736
2583.04, 0.451147
2584.32, 0.452324
2585.61, 0.456325
2586.9, 0.454501
2588.2, 0.456089
2589.49, 0.456522
2590.78, 0.457116
2592.08, 0.456792
2593.37, 0.454090
2594.67, 0.452360
2595.97, 0.455333
2597.27, 0.457765
2598.57, 0.458521
2599.88, 0.458684
2601.18, 0.458413
2602.49, 0.458575
2603.79, 0.457873
2605.1, 0.456846
2606.41, 0.457981
2607.72, 0.458846
2609.03, 0.458846
2610.35, 0.459548
2611.66, 0.460251
2612.98, 0.459927
2614.3, 0.459981
2615.62, 0.458575
2616.94, 0.458035
2618.26, 0.458900
2619.58, 0.457495
2620.91, 0.457657
2622.23, 0.459008
2623.56, 0.458738
2624.89, 0.457116
2626.22, 0.455009
2627.55, 0.455279
2628.88, 0.453928
2630.21, 0.451550
2631.55, 0.452306
2632.89, 0.452090
2634.22, 0.451658
2635.56, 0.451658
2636.9, 0.451279
2638.25, 0.450739
2639.59, 0.450198
2640.93, 0.449766
2642.28, 0.449604
2643.63, 0.449766
2644.98, 0.449496
2646.33, 0.449982
2647.68, 0.450631
2649.03, 0.450901
2650.39, 0.450631
2651.74, 0.450144
2653.1, 0.450739
2654.46, 0.451171
2655.82, 0.451225
2657.18, 0.452036
2658.54, 0.451928
2659.9, 0.451982
2661.27, 0.452306
2662.64, 0.452306
2664.01, 0.450523
2665.38, 0.449226
2666.74, 0.449388
2668.12, 0.450631
2669.49, 0.448307
2670.87, 0.448523
2672.24, 0.450793
2673.62, 0.449982
2675.0, 0.447983
2676.38, 0.446199
2677.76, 0.445875
2679.15, 0.445605
2680.54, 0.446199
2681.92, 0.445713
2683.31, 0.444686
2684.7, 0.443767
2686.09, 0.443010
2687.48, 0.442362
2688.88, 0.441659
2690.27, 0.440632
2691.67, 0.438903
2693.07, 0.435985
2694.47, 0.434417
2695.87, 0.433228
2697.27, 0.431553
2698.67, 0.428959
2700.08, 0.425284
2701.49, 0.421230
2702.9, 0.418150
2704.31, 0.414745
2705.72, 0.411772
2707.13, 0.408908
2708.54, 0.405935
2709.96, 0.402476
2711.38, 0.399612
2712.8, 0.396910
2714.22, 0.391667
2715.64, 0.383939
2717.06, 0.373400
2718.49, 0.359132
2719.91, 0.340811
2721.34, 0.322543
2722.77, 0.303789
2724.2, 0.284387
2725.63, 0.268390
2727.07, 0.255257
2728.5, 0.244285
2729.94, 0.235800
2731.38, 0.229585
2732.82, 0.224937
2734.26, 0.221802
2735.7, 0.221208
2737.15, 0.222019
2738.59, 0.223045
2740.04, 0.225856
2741.49, 0.230234
2742.94, 0.234935
2744.39, 0.239583
2745.84, 0.244123
2747.3, 0.248933
2748.76, 0.254176
2750.21, 0.259256
2751.67, 0.264660
2753.14, 0.269903
2754.6, 0.273740
2756.06, 0.278442
2757.53, 0.282928
2759.0, 0.285144
2760.46, 0.285846
2761.94, 0.285846
2763.41, 0.286279
2764.88, 0.286387
2766.36, 0.285144
2767.83, 0.283468
2769.31, 0.281198
2770.79, 0.277902
2772.27, 0.274172
2773.76, 0.269849
2775.24, 0.264606
2776.73, 0.258986
2778.22, 0.253419
2779.71, 0.247960
2781.2, 0.242826
2782.69, 0.238719
2784.18, 0.235962
2785.68, 0.234179
2787.18, 0.233801
2788.68, 0.234665
2790.18, 0.235800
2791.68, 0.236881
2793.19, 0.237746
2794.69, 0.238286
2796.2, 0.238611
2797.71, 0.238719
2799.22, 0.238773
2800.73, 0.238719
2802.24, 0.238340
2803.76, 0.238286
2805.28, 0.238665
2806.8, 0.238827
2808.32, 0.238827
2809.84, 0.238394
2811.36, 0.238124
2812.89, 0.237638
2814.42, 0.237151
2815.94, 0.236827
2817.48, 0.237097
2819.01, 0.237530
2820.54, 0.238232
2822.08, 0.239475
2823.61, 0.240881
2825.15, 0.242340
2826.69, 0.244069
2828.23, 0.246015
2829.78, 0.248069
2831.32, 0.250338
2832.87, 0.252716
2834.42, 0.255365
2835.97, 0.258553
2837.52, 0.261634
2839.08, 0.264498
2840.63, 0.267849
2842.19, 0.271254
2843.75, 0.274389
2845.31, 0.277199
2846.87, 0.280117
2848.44, 0.283144
2850.0, 0.286117
2851.57, 0.288981
2853.14, 0.291575
2854.71, 0.293953
2856.28, 0.296493
2857.86, 0.298763
2859.43, 0.300763
2861.01, 0.302438
2862.59, 0.304330
2864.17, 0.306221
2865.76, 0.307789
2867.34, 0.309248
2868.93, 0.310329
2870.52, 0.311248
2872.11, 0.312653
2873.7, 0.313680
2875.29, 0.314544
2876.89, 0.315355
2878.49, 0.315950
2880.08, 0.316598
2881.69, 0.317355
2883.29, 0.317787
2884.89, 0.318274
2886.5, 0.318760
2888.11, 0.319084
2889.72, 0.319517
2891.33, 0.319841
2892.94, 0.320057
2894.56, 0.320543
2896.17, 0.320760
2897.79, 0.321084
2899.42, 0.321354
2901.04, 0.321570
2902.66, 0.321732
2904.29, 0.322111
2905.92, 0.322381
2907.55, 0.322597
2909.18, 0.322759
2910.81, 0.322759
2912.45, 0.322867
2914.08, 0.323030
2915.72, 0.323300
2917.36, 0.323516
2919.01, 0.323678
2920.65, 0.323786
2922.3, 0.323732
2923.94, 0.323894
2925.59, 0.324002
2927.25, 0.324002
2928.9, 0.324165
2930.56, 0.324543
2932.21, 0.324867
2933.87, 0.324975
2935.53, 0.325029
2937.2, 0.325245
2938.86, 0.325191
2940.53, 0.325137
2942.2, 0.325299
2943.87, 0.325462
2945.54, 0.325462
2947.22, 0.325732
2948.89, 0.325948
2950.57, 0.326110
2952.25, 0.326272
2953.93, 0.326488
2955.62, 0.326542
2957.3, 0.326597
2958.99, 0.326759
2960.68, 0.326921
2962.37, 0.326921
2964.07, 0.327299
2965.76, 0.327569
2967.46, 0.327515
2969.16, 0.327732
2970.86, 0.327840
2972.56, 0.327948
2974.27, 0.328002
2975.98, 0.328218
2977.69, 0.328542
2979.4, 0.328812
2981.11, 0.329083
2982.83, 0.329083
2984.54, 0.329137
2986.26, 0.329407
2987.98, 0.329515
2989.71, 0.329839
2991.43, 0.330110
2993.16, 0.330272
2994.89, 0.330434
2996.62, 0.330704
2998.35, 0.330920
3000.09, 0.331082
3001.83, 0.331353
3003.57, 0.331731
3005.31, 0.331839
3007.05, 0.332055
3008.79, 0.332109
3010.54, 0.332163
3012.29, 0.332596
3014.04, 0.332920
3015.8, 0.333028
3017.55, 0.333028
3019.31, 0.333406
3021.07, 0.333622
3022.83, 0.333731
3024.59, 0.334001
3026.36, 0.334163
3028.13, 0.334379
3029.9, 0.334487
3031.67, 0.334811
3033.44, 0.335136
3035.22, 0.335352
3037.0, 0.335460
3038.78, 0.335514
3040.56, 0.335676
3042.34, 0.336109
3044.13, 0.336325
3045.92, 0.336379
3047.71, 0.336433
3049.5, 0.336541
3051.3, 0.336703
3053.09, 0.336865
3054.89, 0.336919
3056.69, 0.337027
3058.5, 0.337298
3060.3, 0.337514
3062.11, 0.337676
3063.92, 0.337838
3065.73, 0.337946
3067.55, 0.338216
3069.36, 0.338433
3071.18, 0.338433
3073.0, 0.338487
3074.82, 0.338649
3076.65, 0.338973
3078.48, 0.339189
3080.31, 0.339405
3082.14, 0.339459
3083.97, 0.339567
3085.8, 0.339838
3087.64, 0.340054
3089.48, 0.339946
3091.33, 0.340162
3093.17, 0.340594
3095.02, 0.340756
3096.87, 0.340919
3098.72, 0.341243
3100.57, 0.341513
3102.43, 0.341675
3104.28, 0.341891
3106.14, 0.342108
3108.01, 0.342432
3109.87, 0.342594
3111.74, 0.342810
3113.61, 0.343080
3115.48, 0.343351
3117.35, 0.343729
3119.23, 0.343999
3121.1, 0.344377
3122.98, 0.344648
3124.87, 0.344864
3126.75, 0.345188
3128.64, 0.345621
3130.53, 0.345891
3132.42, 0.346161
3134.31, 0.346485
3136.21, 0.346810
3138.11, 0.347134
3140.01, 0.347620
3141.91, 0.348107
3143.82, 0.348323
3145.73, 0.348863
3147.64, 0.349404
3149.55, 0.349944
3151.46, 0.350431
3153.38, 0.350755
3155.3, 0.351133
3157.22, 0.351457
3159.14, 0.351836
3161.07, 0.352376
3163.0, 0.353079
3164.93, 0.353619
3166.86, 0.354106
3168.8, 0.354538
3170.74, 0.355133
3172.68, 0.355673
3174.62, 0.356051
3176.56, 0.356538
3178.51, 0.357024
3180.46, 0.357457
3182.42, 0.358159
3184.37, 0.358645
3186.33, 0.359132
3188.29, 0.359564
3190.25, 0.360159
3192.21, 0.360753
3194.18, 0.361294
3196.15, 0.361780
3198.12, 0.362104
3200.09, 0.362483
3202.07, 0.363023
3204.05, 0.363564
3206.03, 0.364104
3208.02, 0.364482
3210.0, 0.364969
3211.99, 0.365725
3213.98, 0.366320
3215.98, 0.366698
3217.97, 0.367077
3219.97, 0.367563
3221.97, 0.368049
3223.98, 0.368536
3225.98, 0.369076
3227.99, 0.369617
3230.0, 0.370157
3232.02, 0.370535
3234.03, 0.371130
3236.05, 0.371508
3238.07, 0.371941
3240.1, 0.372535
3242.12, 0.373130
3244.15, 0.373616
3246.18, 0.374373
3248.22, 0.374805
3250.25, 0.375346
3252.29, 0.375886
3254.33, 0.376481
3256.38, 0.377129
3258.43, 0.377670
3260.47, 0.378264
3262.53, 0.378967
3264.58, 0.379723
3266.64, 0.380210
3268.7, 0.380912
3270.76, 0.381561
3272.82, 0.382209
3274.89, 0.382966
3276.96, 0.383506
3279.04, 0.383993
3281.11, 0.384803
3283.19, 0.385452
3285.27, 0.385992
3287.35, 0.386587
3289.44, 0.387236
3291.53, 0.387938
3293.62, 0.388533
3295.71, 0.389127
3297.81, 0.389776
3299.91, 0.390424
3302.01, 0.390965
3304.11, 0.391613
3306.22, 0.392262
3308.33, 0.393072
3310.44, 0.393721
3312.56, 0.394261
3314.68, 0.394694
3316.8, 0.395342
3318.92, 0.395829
3321.05, 0.396477
3323.18, 0.397072
3325.31, 0.397612
3327.44, 0.398153
3329.58, 0.398747
3331.72, 0.399288
3333.86, 0.399882
3336.01, 0.400423
3338.16, 0.400909
3340.31, 0.401341
3342.46, 0.401720
3344.61, 0.402152
3346.77, 0.402638
3348.94, 0.403341
3351.1, 0.403936
3353.27, 0.404314
3355.44, 0.404638
3357.61, 0.405070
3359.79, 0.405611
3361.97, 0.406097
3364.15, 0.406476
3366.33, 0.406908
3368.52, 0.407503
3370.71, 0.407935
3372.9, 0.408367
3375.1, 0.408692
3377.3, 0.409124
3379.5, 0.409556
3381.71, 0.409881
3383.91, 0.410313
3386.12, 0.410853
3388.34, 0.411394
3390.55, 0.411934
3392.77, 0.412421
3394.99, 0.412691
3397.22, 0.412961
3399.45, 0.413231
3401.68, 0.413664
3403.91, 0.414204
3406.15, 0.414583
3408.39, 0.414907
3410.63, 0.415285
3412.87, 0.415663
3415.12, 0.416096
3417.37, 0.416636
3419.63, 0.417339
3421.88, 0.417987
3424.14, 0.418636
3426.41, 0.419230
3428.67, 0.419825
3430.94, 0.420365
3433.21, 0.420906
3435.49, 0.421608
3437.77, 0.422257
3440.05, 0.422689
3442.33, 0.423122
3444.62, 0.423662
3446.91, 0.424203
3449.2, 0.424689
3451.5, 0.425121
3453.8, 0.425446
3456.1, 0.425932
3458.41, 0.426473
3460.72, 0.426851
3463.03, 0.427445
3465.34, 0.427824
3467.66, 0.428040
3469.98, 0.428256
3472.31, 0.428634
3474.63, 0.429067
3476.96, 0.429337
3479.3, 0.429715
3481.64, 0.430148
3483.97, 0.430634
3486.32, 0.431120
3488.66, 0.431553
3491.01, 0.431985
3493.36, 0.432309
3495.72, 0.432634
3498.08, 0.433120
3500.44, 0.433769
3502.81, 0.434417
3505.18, 0.435012
3507.55, 0.435498
3509.92, 0.436093
3512.3, 0.436795
3514.68, 0.437390
3517.06, 0.438038
3519.45, 0.438525
3521.84, 0.439011
3524.24, 0.439497
3526.64, 0.440092
3529.04, 0.440686
3531.44, 0.441443
3533.85, 0.441875
3536.26, 0.442308
3538.67, 0.442848
3541.09, 0.443335
3543.51, 0.443821
3545.93, 0.444362
3548.36, 0.444956
3550.79, 0.445388
3553.22, 0.445821
3555.66, 0.446469
3558.1, 0.447010
3560.54, 0.447280
3562.99, 0.447820
3565.44, 0.448415
3567.9, 0.448901
3570.35, 0.449334
3572.81, 0.449712
3575.28, 0.450144
3577.75, 0.450685
3580.22, 0.451117
3582.69, 0.451442
3585.17, 0.451928
3587.65, 0.452468
3590.14, 0.452847
3592.62, 0.453279
3595.11, 0.453819
3597.61, 0.454360
3600.11, 0.454684
3602.61, 0.455009
3605.11, 0.455549
3607.62, 0.455927
3610.14, 0.456306
3612.65, 0.456522
3615.17, 0.456954
3617.69, 0.457387
3620.22, 0.457873
3622.75, 0.458143
3625.28, 0.458467
3627.82, 0.458900
3630.36, 0.459332
3632.9, 0.459656
3635.45, 0.459927
3638.0, 0.460413
3640.56, 0.460791
3643.12, 0.461062
3645.68, 0.461440
3648.24, 0.461818
3650.81, 0.462197
3653.39, 0.462575
3655.96, 0.462791
3658.54, 0.463223
3661.13, 0.463602
3663.71, 0.463926
3666.3, 0.464250
3668.9, 0.464575
3671.5, 0.464953
3674.1, 0.465331
3676.7, 0.465710
3679.31, 0.466034
3681.93, 0.466250
3684.54, 0.466520
3687.17, 0.466899
3689.79, 0.467169
3692.42, 0.467439
3695.05, 0.467925
3697.69, 0.468304
3700.32, 0.468520
3702.97, 0.468682
3705.61, 0.468952
3708.27, 0.469493
3710.92, 0.469871
3713.58, 0.470141
3716.24, 0.470411
3718.91, 0.470790
3721.58, 0.471114
3724.25, 0.471492
3726.93, 0.471871
3729.61, 0.472195
3732.29, 0.472519
3734.98, 0.472843
3737.67, 0.473114
3740.37, 0.473492
3743.07, 0.473816
3745.78, 0.473978
3748.49, 0.474195
3751.2, 0.474465
3753.91, 0.474843
3756.63, 0.475059
3759.36, 0.475276
3762.09, 0.475546
3764.82, 0.475816
3767.55, 0.475978
3770.29, 0.476086
3773.04, 0.476302
3775.78, 0.476627
3778.54, 0.476843
3781.29, 0.476951
3784.05, 0.477113
3786.82, 0.477329
3789.59, 0.477545
3792.36, 0.477708
3795.13, 0.477870
3797.92, 0.478140
3800.7, 0.478302
3803.49, 0.478410
3806.28, 0.478572
3809.08, 0.478788
3811.88, 0.478897
3814.68, 0.478951
3817.49, 0.479059
3820.31, 0.479167
3823.12, 0.479329
3825.94, 0.479437
3828.77, 0.479599
3831.6, 0.479761
3834.43, 0.479923
3837.27, 0.480086
3840.11, 0.480248
3842.96, 0.480356
3845.81, 0.480356
3848.67, 0.480572
3851.53, 0.480680
3854.39, 0.480842
3857.26, 0.481112
3860.13, 0.481275
3863.01, 0.481329
3865.89, 0.481221
3868.77, 0.481221
3871.66, 0.481437
3874.55, 0.481599
3877.45, 0.481815
3880.35, 0.481869
3883.26, 0.481923
3886.17, 0.481923
3889.09, 0.482031
3892.01, 0.482139
3894.93, 0.482085
3897.86, 0.482139
3900.79, 0.482247
3903.73, 0.482247
3906.67, 0.482139
3909.62, 0.482247
3912.57, 0.482355
3915.52, 0.482355
3918.48, 0.482301
3921.45, 0.482355
3924.42, 0.482193
3927.39, 0.482031
3930.37, 0.482031
3933.35, 0.482139
3936.34, 0.482031
3939.33, 0.481977
3942.32, 0.481923
3945.32, 0.481761
3948.33, 0.481653
3951.34, 0.481545
3954.35, 0.481491
3957.37, 0.481491
3960.39, 0.481437
3963.42, 0.481383
3966.45, 0.481167
3969.49, 0.481167
3972.53, 0.481167
3975.58, 0.481004
3978.63, 0.480788
3981.68, 0.480680
3984.75, 0.480626
3987.81, 0.480626
3990.88, 0.480410
3993.95, 0.480140
3997.03, 0.480032
4000.12, 0.479923
4003.21, 0.479923
4006.3, 0.479869
4009.4, 0.479761
4012.5, 0.479599
4015.61, 0.479437
4018.72, 0.479275
4021.84, 0.479113
4024.96, 0.479113
4028.09, 0.479059
4031.22, 0.478897
4034.36, 0.478734
4037.5, 0.478680
4040.65, 0.478518
4043.8, 0.478356
4046.96, 0.478140
4050.12, 0.478140
4053.29, 0.478032
4056.46, 0.477978
4059.64, 0.477762
4062.82, 0.477599
4066.0, 0.477599
4069.19, 0.477545
4072.39, 0.477437
4075.59, 0.477275
4078.8, 0.477113
4082.01, 0.477059
4085.23, 0.477005
4088.45, 0.476843
4091.68, 0.476843
4094.91, 0.476789
4098.15, 0.476627
4101.39, 0.476573
4104.63, 0.476465
4107.89, 0.476302
4111.14, 0.476194
4114.41, 0.476194
4117.67, 0.476194
4120.95, 0.476086
4124.23, 0.475924
4127.51, 0.475816
4130.8, 0.475816
4134.09, 0.475708
4137.39, 0.475708
4140.7, 0.475600
4144.01, 0.475492
4147.32, 0.475384
4150.64, 0.475276
4153.97, 0.475276
4157.3, 0.475222
4160.64, 0.475167
4163.98, 0.475113
4167.33, 0.475005
4170.68, 0.474951
4174.04, 0.474897
4177.4, 0.474897
4180.77, 0.474843
4184.14, 0.474789
4187.52, 0.474627
4190.91, 0.474627
4194.3, 0.474735
4197.69, 0.474573
4201.1, 0.474465
4204.5, 0.474357
4207.92, 0.474141
4211.34, 0.474087
4214.76, 0.474141
4218.19, 0.474087
4221.62, 0.473978
4225.06, 0.473870
4228.51, 0.473978
4231.96, 0.473870
4235.42, 0.473762
4238.88, 0.473708
4242.35, 0.473654
4245.83, 0.473654
4249.31, 0.473708
4252.79, 0.473546
4256.28, 0.473438
4259.78, 0.473384
4263.29, 0.473330
4266.79, 0.473222
4270.31, 0.473168
4273.83, 0.473114
4277.35, 0.473060
4280.89, 0.473060
4284.42, 0.473060
4287.97, 0.473006
4291.52, 0.473006
4295.07, 0.473060
4298.63, 0.472952
4302.2, 0.472898
4305.78, 0.472843
4309.35, 0.472843
4312.94, 0.472843
4316.53, 0.472789
4320.13, 0.472681
4323.73, 0.472627
4327.34, 0.472627
4330.96, 0.472681
4334.58, 0.472519
4338.21, 0.472303
4341.84, 0.472357
4345.48, 0.472303
4349.12, 0.472195
4352.77, 0.472141
4356.43, 0.472087
4360.1, 0.472033
4363.76, 0.472033
4367.44, 0.471871
4371.12, 0.471763
4374.81, 0.471763
4378.51, 0.471546
4382.21, 0.471438
4385.92, 0.471438
4389.63, 0.471384
4393.35, 0.471276
4397.08, 0.471222
4400.81, 0.471168
4404.55, 0.471114
4408.29, 0.470952
4412.04, 0.470790
4415.8, 0.470628
4419.57, 0.470466
4423.34, 0.470357
4427.12, 0.470249
4430.9, 0.469979
4434.69, 0.469817
4438.49, 0.469655
4442.29, 0.469601
4446.1, 0.469439
4449.92, 0.469222
4453.74, 0.469006
4457.57, 0.468736
4461.41, 0.468520
4465.25, 0.468412
4469.1, 0.468304
4472.95, 0.468033
4476.82, 0.467709
4480.69, 0.467439
4484.56, 0.467115
4488.44, 0.466790
4492.33, 0.466574
4496.23, 0.466304
4500.13, 0.466034
4504.04, 0.465710
4507.96, 0.465439
4511.88, 0.465223
4515.81, 0.464737
4519.75, 0.464358
4523.69, 0.464088
4527.65, 0.463710
4531.6, 0.463277
4535.57, 0.462899
4539.54, 0.462521
4543.52, 0.462034
4547.5, 0.461548
4551.5, 0.461116
4555.5, 0.460737
4559.5, 0.460089
4563.52, 0.459548
4567.54, 0.458954
4571.56, 0.458359
4575.6, 0.457819
4579.64, 0.457224
4583.69, 0.456522
4587.75, 0.455819
4591.81, 0.455225
4595.88, 0.454630
4599.96, 0.453819
4604.04, 0.453009
4608.14, 0.452198
4612.24, 0.451550
4616.34, 0.450847
4620.46, 0.450090
4624.58, 0.449280
4628.71, 0.448469
4632.84, 0.447658
4636.99, 0.446956
4641.14, 0.446091
4645.3, 0.445280
4649.47, 0.444524
4653.64, 0.443767
4657.82, 0.442848
4662.01, 0.441929
4666.21, 0.441173
4670.41, 0.440416
4674.62, 0.439606
4678.84, 0.438795
4683.07, 0.437876
4687.3, 0.437011
4691.54, 0.436255
4695.79, 0.435444
4700.05, 0.434687
4704.31, 0.433877
4708.59, 0.433120
4712.87, 0.432418
4717.15, 0.431661
4721.45, 0.430904
4725.76, 0.430094
4730.07, 0.429283
4734.39, 0.428364
4738.72, 0.427553
4743.05, 0.426689
4747.39, 0.425878
4751.75, 0.424959
4756.1, 0.423986
4760.47, 0.422960
4764.85, 0.421879
4769.23, 0.420852
4773.62, 0.419879
4778.02, 0.418852
4782.43, 0.417879
4786.85, 0.416906
4791.27, 0.415880
4795.7, 0.414799
4800.14, 0.413826
4804.59, 0.412799
4809.05, 0.411880
4813.51, 0.410962
4817.99, 0.410097
4822.47, 0.409232
4826.96, 0.408421
4831.46, 0.407773
4835.96, 0.407070
4840.48, 0.406260
4845.0, 0.405665
4849.54, 0.405016
4854.08, 0.404422
4858.63, 0.403936
4863.18, 0.403503
4867.75, 0.403125
4872.33, 0.402747
4876.91, 0.402260
4881.5, 0.401882
4886.1, 0.401450
4890.71, 0.401179
4895.33, 0.400855
4899.96, 0.400585
4904.59, 0.400315
4909.24, 0.400098
4913.89, 0.399990
4918.55, 0.399774
4923.22, 0.399612
4927.9, 0.399558
4932.59, 0.399342
4937.29, 0.399288
4942.0, 0.399342
4946.71, 0.399288
4951.44, 0.399288
4956.17, 0.399180
4960.91, 0.399234
4965.67, 0.399180
4970.43, 0.399071
4975.2, 0.398855
4979.98, 0.398531
4984.76, 0.398477
4989.56, 0.398315
4994.37, 0.397991
4999.18, 0.397612
5004.01, 0.397342
5008.84, 0.396910
5013.69, 0.396477
5018.54, 0.395937
5023.4, 0.395559
5028.28, 0.395126
5033.16, 0.394640
5038.05, 0.394207
5042.95, 0.393721
5047.86, 0.393343
5052.78, 0.393126
5057.71, 0.392748
5062.65, 0.392532
5067.6, 0.392424
5072.56, 0.392316
5077.53, 0.392046
5082.5, 0.392046
5087.49, 0.392208
5092.49, 0.392262
5097.5, 0.392262
5102.51, 0.392424
5107.54, 0.392532
5112.58, 0.392694
5117.62, 0.392856
5122.68, 0.392964
5127.75, 0.392964
5132.82, 0.393072
5137.91, 0.393235
5143.01, 0.393289
5148.12, 0.393289
5153.23, 0.393451
5158.36, 0.393613
5163.5, 0.393667
5168.65, 0.393559
5173.81, 0.393505
5178.98, 0.393451
5184.15, 0.393343
5189.34, 0.393181
5194.54, 0.392910
5199.75, 0.392640
5204.98, 0.392478
5210.21, 0.391937
5215.45, 0.391721
5220.7, 0.391667
5225.96, 0.391343
5231.23, 0.390803
5236.52, 0.390316
5241.81, 0.389884
5247.12, 0.389343
5252.44, 0.388749
5257.76, 0.388208
5263.1, 0.387614
5268.45, 0.386857
5273.81, 0.386047
5279.18, 0.385290
5284.56, 0.384533
5289.95, 0.383452
5295.36, 0.382534
5300.77, 0.381831
5306.2, 0.380912
5311.63, 0.379993
5317.08, 0.378967
5322.54, 0.377832
5328.01, 0.376535
5333.49, 0.375346
5338.98, 0.374102
5344.49, 0.372373
5350.0, 0.370481
5355.53, 0.369401
5361.07, 0.368266
5366.62, 0.366752
5372.18, 0.365023
5377.75, 0.363402
5383.34, 0.361834
5388.93, 0.360213
5394.54, 0.358375
5400.16, 0.356592
5405.79, 0.354700
5411.44, 0.352863
5417.09, 0.350377
5422.76, 0.348107
5428.43, 0.346864
5434.12, 0.345350
5439.83, 0.343351
5445.54, 0.341405
5451.26, 0.339567
5457.0, 0.337514
5462.75, 0.335082
5468.52, 0.333406
5474.29, 0.331731
5480.08, 0.329785
5485.88, 0.328272
5491.69, 0.326597
5497.51, 0.324867
5503.35, 0.323138
5509.2, 0.321570
5515.06, 0.319841
5520.93, 0.318165
5526.82, 0.316814
5532.71, 0.315517
5538.63, 0.314058
5544.55, 0.312545
5550.49, 0.310977
5556.44, 0.309788
5562.4, 0.308708
5568.37, 0.307573
5574.36, 0.305897
5580.36, 0.304654
5586.37, 0.304330
5592.4, 0.303681
5598.44, 0.302492
5604.49, 0.301574
5610.56, 0.300709
5616.63, 0.299736
5622.73, 0.299033
5628.83, 0.298061
5634.95, 0.296439
5641.08, 0.294980
5647.23, 0.294710
5653.39, 0.294169
5659.56, 0.293629
5665.74, 0.293088
5671.94, 0.291737
5678.15, 0.290873
5684.38, 0.290224
5690.62, 0.289305
5696.87, 0.288765
5703.14, 0.287576
5709.42, 0.285954
5715.72, 0.285468
5722.03, 0.285090
5728.35, 0.284495
5734.69, 0.283684
5741.03, 0.282820
5747.4, 0.281901
5753.78, 0.281577
5760.17, 0.280063
5766.58, 0.278550
5773.0, 0.279253
5779.44, 0.279577
5785.88, 0.279307
5792.35, 0.279037
5798.83, 0.278604
5805.32, 0.278226
5811.83, 0.277469
5818.35, 0.275740
5824.89, 0.275470
5831.45, 0.276226
5838.01, 0.276605
5844.59, 0.276551
5851.19, 0.276118
5857.8, 0.275470
5864.43, 0.275091
5871.07, 0.274767
5877.73, 0.272875
5884.4, 0.273092
5891.09, 0.273362
5897.79, 0.273200
5904.5, 0.274551
5911.23, 0.274605
5917.98, 0.274227
5924.75, 0.273794
5931.53, 0.272065
5938.32, 0.271632
5945.13, 0.273254
5951.96, 0.273632
5958.8, 0.273200
5965.65, 0.271957
5972.53, 0.271686
5979.42, 0.271578
5986.32, 0.270551
5993.24, 0.270281
6000.18, 0.270389
6007.13, 0.269525
6014.1, 0.268606
6021.08, 0.268390
6028.09, 0.267849
6035.1, 0.266606
6042.14, 0.263742
6049.19, 0.261418
6056.25, 0.262877
6063.34, 0.262823
6070.44, 0.261148
6077.55, 0.260877
6084.69, 0.261148
6091.84, 0.260607
6099.0, 0.259796
6106.19, 0.258229
6113.39, 0.256932
6120.61, 0.257689
6127.84, 0.258121
6135.09, 0.257797
6142.36, 0.257635
6149.65, 0.257797
6156.95, 0.257743
6164.27, 0.258445
6171.61, 0.259472
6178.97, 0.259364
6186.34, 0.259742
6193.73, 0.261634
6201.14, 0.262715
6208.57, 0.263363
6216.01, 0.264012
6223.47, 0.265093
6230.95, 0.265958
6238.45, 0.266876
6245.97, 0.267795
6253.5, 0.268768
6261.06, 0.269741
6268.63, 0.270768
6276.21, 0.271740
6283.82, 0.272767
6291.45, 0.273848
6299.1, 0.274983
6306.76, 0.275956
6314.44, 0.276983
6322.14, 0.278118
6329.86, 0.279091
6337.6, 0.278983
6345.35, 0.279523
6353.13, 0.281793
6360.92, 0.282928
6368.74, 0.283252
6376.57, 0.284765
6384.43, 0.286171
6392.3, 0.287197
6400.19, 0.287522
6408.1, 0.286008
6416.03, 0.286603
6423.98, 0.289792
6431.95, 0.291629
6439.94, 0.293142
6447.95, 0.294223
6455.98, 0.295196
6464.03, 0.296007
6472.1, 0.296169
6480.19, 0.296115
6488.31, 0.295520
6496.44, 0.296439
6504.59, 0.299304
6512.76, 0.300168
6520.95, 0.300168
6529.16, 0.301357
6537.4, 0.302006
6545.65, 0.302006
6553.92, 0.301898
6562.22, 0.301790
6570.54, 0.301033
6578.88, 0.301844
6587.23, 0.302492
6595.61, 0.302654
6604.02, 0.303087
6612.44, 0.302979
6620.89, 0.302492
6629.35, 0.300817
6637.84, 0.299736
6646.35, 0.301465
6654.88, 0.302546
6663.44, 0.301898
6672.01, 0.300871
6680.61, 0.300060
6689.23, 0.300276
6697.88, 0.300222
6706.54, 0.299087
6715.23, 0.298385
6723.94, 0.298115
6732.67, 0.298061
6741.42, 0.297520
6750.2, 0.296601
6759.0, 0.295899
6767.82, 0.294818
6776.67, 0.293359
6785.54, 0.291575
6794.44, 0.290981
6803.35, 0.291197
6812.29, 0.290386
6821.26, 0.288873
6830.24, 0.287900
6839.25, 0.287360
6848.29, 0.285630
6857.35, 0.282928
6866.43, 0.281631
6875.54, 0.281955
6884.67, 0.281144
6893.82, 0.279901
6903.0, 0.278334
6912.2, 0.277253
6921.43, 0.276172
6930.69, 0.274929
6939.96, 0.273524
6949.27, 0.271686
6958.59, 0.269471
6967.95, 0.268822
6977.33, 0.268011
6986.73, 0.266552
6996.16, 0.265147
7005.61, 0.263904
7015.09, 0.262282
7024.6, 0.260877
7034.13, 0.259094
7043.69, 0.256824
7053.27, 0.255797
7062.88, 0.254986
7072.52, 0.253581
7082.18, 0.252068
7091.87, 0.250555
7101.58, 0.248987
7111.32, 0.247150
7121.09, 0.245582
7130.88, 0.244123
7140.71, 0.242232
7150.56, 0.240340
7160.43, 0.238557
7170.33, 0.236611
7180.27, 0.235260
7190.23, 0.233584
7200.21, 0.231693
7210.23, 0.229909
7220.27, 0.228450
7230.34, 0.226721
7240.44, 0.225045
7250.56, 0.223154
7260.72, 0.221370
7270.9, 0.219533
7281.12, 0.217857
7291.36, 0.216452
7301.63, 0.214885
7311.93, 0.213209
7322.25, 0.211534
7332.61, 0.209804
7343.0, 0.208237
7353.41, 0.206724
7363.86, 0.205211
7374.33, 0.203589
7384.83, 0.202130
7395.37, 0.200779
7405.93, 0.199428
7416.53, 0.198077
7427.15, 0.196888
7437.81, 0.195644
7448.5, 0.194293
7459.22, 0.192834
7469.96, 0.191537
7480.74, 0.190294
7491.55, 0.189051
7502.39, 0.187808
7513.27, 0.186673
7524.17, 0.185376
7535.11, 0.184133
7546.08, 0.182890
7557.08, 0.181593
7568.11, 0.180350
7579.17, 0.179053
7590.27, 0.177918
7601.4, 0.176837
7612.56, 0.175594
7623.76, 0.174405
7634.98, 0.173324
7646.24, 0.172189
7657.54, 0.170946
7668.87, 0.169757
7680.23, 0.168514
7691.62, 0.167163
7703.05, 0.165919
7714.51, 0.164568
7726.01, 0.163271
7737.54, 0.161920
7749.11, 0.160461
7760.71, 0.159056
7772.35, 0.157651
7784.02, 0.156245
7795.72, 0.154894
7807.46, 0.153381
7819.23, 0.151868
7831.04, 0.150517
7842.89, 0.149057
7854.77, 0.147598
7866.69, 0.145977
7878.65, 0.144626
7890.64, 0.143112
7902.67, 0.141545
7914.74, 0.139978
7926.84, 0.138302
7938.98, 0.136519
7951.16, 0.134897
7963.37, 0.133060
7975.62, 0.131168
7987.91, 0.129223
8000.24, 0.127277
8012.6, 0.125169
8025.01, 0.123061
8037.45, 0.121008
8049.93, 0.118900
8062.45, 0.116792
8075.01, 0.114901
8087.61, 0.112955
8100.24, 0.110901
8112.91, 0.108631
8125.63, 0.106415
8138.39, 0.104037
8151.18, 0.101714
8164.02, 0.0992810
8176.9, 0.0966870
8189.81, 0.0940930
8202.77, 0.0914990
8215.77, 0.0889590
8228.82, 0.0863650
8241.9, 0.0836080
8255.02, 0.0809600
8268.19, 0.0780420
8281.39, 0.0752850
8294.65, 0.0724750
8307.94, 0.0697190
8321.28, 0.0669080
8334.66, 0.0641520
8348.08, 0.0612330
8361.54, 0.0584230
8375.05, 0.0556670
8388.6, 0.0529650
8402.2, 0.0502080
8415.84, 0.0474520
8429.52, 0.0448040
8443.25, 0.0422090
8457.02, 0.0395610
8470.84, 0.0370210
8484.7, 0.0344810
8498.61, 0.0321570
8512.57, 0.0298870
8526.57, 0.0276710
8540.62, 0.0254010
8554.71, 0.0233480
8568.85, 0.0214020
8583.04, 0.0195100
8597.27, 0.0176190
8611.55, 0.0161060
8625.88, 0.0145920
8640.26, 0.0134570
8654.68, 0.0124300
8669.16, 0.0114580
8683.68, 0.0107550
8698.25, 0.0102150
8712.87, 0.00999800
8727.53, 0.0101060
8742.25, 0.0104310
8757.02, 0.0110790
8771.83, 0.0118360
8786.7, 0.0128630
8801.62, 0.0144300
8816.59, 0.0164300
8831.61, 0.0187000
8846.68, 0.0216180
8861.8, 0.0252390
8876.97, 0.0294010
8892.2, 0.0340490
8907.48, 0.0393990
8922.81, 0.0453440
8938.2, 0.0517760
8953.63, 0.0587470
8969.13, 0.0663140
8984.67, 0.0740420
9000.27, 0.0818790
9015.92, 0.0898240
9031.63, 0.0982550
9047.39, 0.107010
9063.21, 0.116090
9079.08, 0.125548
9095.01, 0.135546
9111.0, 0.145706
9127.04, 0.156245
9143.13, 0.166892
9159.28, 0.177431
9175.49, 0.187754
9191.76, 0.197752
9208.09, 0.206940
9224.47, 0.215371
9240.92, 0.222883
9257.42, 0.229585
9273.98, 0.235314
9290.6, 0.240124
9307.28, 0.244231
9324.02, 0.247366
9340.82, 0.250014
9357.68, 0.252338
9374.6, 0.254230
9391.58, 0.255905
9408.62, 0.257364
9425.73, 0.258661
9442.9, 0.260067
9460.13, 0.262012
9477.42, 0.264336
9494.78, 0.267093
9512.2, 0.270497
9529.69, 0.274335
9547.24, 0.278442
9564.86, 0.282820
9582.54, 0.287738
9600.28, 0.292872
9618.1, 0.297898
9635.97, 0.303141
9653.92, 0.308708
9671.93, 0.314166
9690.01, 0.319354
9708.16, 0.324056
9726.37, 0.327840
9744.65, 0.330326
9763.0, 0.331677
9781.43, 0.331353
9799.92, 0.329461
9818.48, 0.326056
9837.1, 0.321246
9855.8, 0.315355
9874.58, 0.308762
9893.42, 0.301519
9912.34, 0.293845
9931.33, 0.286171
9950.39, 0.278334
9969.52, 0.270065
9988.74, 0.261796
10008.0, 0.254068
10027.4, 0.246393
10046.8, 0.238773
10066.3, 0.231747
10085.9, 0.225478
10105.6, 0.219424
10125.3, 0.213912
10145.1, 0.209210
10165.0, 0.205211
10185.0, 0.201644
10205.0, 0.198779
10225.2, 0.196293
10245.4, 0.194185
10265.7, 0.192402
10286.0, 0.190888
10306.5, 0.189537
10327.0, 0.188132
10347.6, 0.186403
10368.3, 0.184673
10389.1, 0.182620
10409.9, 0.180187
10430.9, 0.177755
10451.9, 0.175215
10473.0, 0.172513
10494.2, 0.169865
10515.5, 0.167433
10536.9, 0.165055
10558.4, 0.163163
10579.9, 0.161758
10601.5, 0.160785
10623.3, 0.160461
10645.1, 0.160461
10667.0, 0.160785
10689.0, 0.161163
10711.1, 0.161380
10733.2, 0.161596
10755.5, 0.161380
10777.9, 0.160839
10800.3, 0.160299
10822.9, 0.159110
10845.5, 0.157651
10868.2, 0.155813
10891.1, 0.154029
10914.0, 0.152084
10937.0, 0.149922
10960.2, 0.147706
10983.4, 0.145815
11006.7, 0.143923
11030.1, 0.142356
11053.6, 0.141059
11077.3, 0.140086
11101.0, 0.139005
11124.8, 0.138194
11148.7, 0.137654
11172.7, 0.137059
11196.9, 0.136843
11221.1, 0.137005
11245.4, 0.137005
11269.9, 0.137275
11294.4, 0.137654
11319.1, 0.138194
11343.9, 0.138627
11368.8, 0.139221
11393.7, 0.140086
11418.8, 0.141059
11444.0, 0.142139
11469.4, 0.143274
11494.8, 0.144409
11520.3, 0.145598
11546.0, 0.146787
11571.8, 0.148139
11597.7, 0.149328
11623.7, 0.150625
11649.8, 0.151976
11676.0, 0.153165
11702.4, 0.154138
11728.9, 0.155273
11755.5, 0.156407
11782.2, 0.157542
11809.0, 0.158894
11836.0, 0.160029
11863.0, 0.161055
11890.3, 0.162082
11917.6, 0.162947
11945.0, 0.163758
11972.6, 0.164622
12000.4, 0.165055
12028.2, 0.165325
12056.2, 0.165379
12084.3, 0.165325
12112.5, 0.165163
12140.9, 0.164676
12169.4, 0.164028
12198.0, 0.163109
12226.8, 0.162028
12255.7, 0.161109
12284.7, 0.160245
12313.9, 0.159164
12343.2, 0.157542
12372.7, 0.155597
12402.3, 0.153651
12432.0, 0.151381
12461.9, 0.148949
12491.9, 0.146679
12522.1, 0.144517
12552.4, 0.142248
12582.9, 0.139545
12613.5, 0.136843
12644.3, 0.134141
12675.2, 0.131601
12706.3, 0.129223
12737.5, 0.126682
12768.9, 0.124413
12800.4, 0.121872
12832.1, 0.119062
12863.9, 0.116360
12895.9, 0.113820
12928.1, 0.111442
12960.4, 0.109010
12992.9, 0.105929
13025.5, 0.102903
13058.3, 0.100038
13091.3, 0.0972820
13124.4, 0.0947420
13157.8, 0.0924180
13191.2, 0.0900400
13224.9, 0.0880400
13258.7, 0.0863650
13292.7, 0.0846350
13326.9, 0.0829600
13361.2, 0.0817710
13395.7, 0.0802030
13430.4, 0.0786900
13465.3, 0.0772310
13500.4, 0.0759340
13535.7, 0.0744210
13571.1, 0.0729070
13606.7, 0.0713400
13642.5, 0.0698810
13678.5, 0.0680970
13714.7, 0.0668540
13751.1, 0.0658810
13787.6, 0.0646920
13824.4, 0.0635570
13861.4, 0.0632870
13898.5, 0.0632870
13935.9, 0.0634490
13973.5, 0.0633950
14011.2, 0.0634490
14049.2, 0.0637740
14087.4, 0.0644220
14125.8, 0.0647460
14164.3, 0.0651250
14203.2, 0.0652330
14242.2, 0.0650710
14281.4, 0.0646920
14320.9, 0.0644220
14360.5, 0.0642600
14400.4, 0.0638280
14440.5, 0.0629630
14480.9, 0.0624770
14521.4, 0.0615040
14562.2, 0.0604230
14603.3, 0.0592880
14644.5, 0.0585850
14686.0, 0.0575040
14727.7, 0.0559370
14769.7, 0.0542620
14811.9, 0.0530190
14854.3, 0.0521540
14897.0, 0.0513970
14939.9, 0.0505320
14983.1, 0.0500460
15026.5, 0.0492350
15070.2, 0.0482630
15114.2, 0.0475600
15158.3, 0.0473440
15202.8, 0.0468030
15247.5, 0.0455600
15292.5, 0.0446420
15337.7, 0.0443170
15383.2, 0.0438310
15429.0, 0.0434530
15475.1, 0.0431820
15521.4, 0.0427500
15568.0, 0.0424800
15614.9, 0.0422090
15662.1, 0.0413450
15709.6, 0.0407500
15757.3, 0.0402100
15805.4, 0.0393990
15853.7, 0.0386970
15902.3, 0.0384260
15951.2, 0.0377780
16000.5, 0.0371290
16050.0, 0.0365890
16099.8, 0.0361020
16150.0, 0.0354540
16200.5, 0.0347510
16251.3, 0.0343730
16302.4, 0.0342110
16353.8, 0.0340490
16405.5, 0.0342110
16457.6, 0.0346430
16510.0, 0.0350210
16562.8, 0.0354540
16615.9, 0.0358320
16669.3, 0.0355620
16723.1, 0.0355620
16777.2, 0.0364810
16831.7, 0.0379940
16886.5, 0.0390750
16941.7, 0.0403180
16997.2, 0.0417770
17053.1, 0.0431280
17109.4, 0.0443710
17166.1, 0.0470200
17223.1, 0.0491810
17280.5, 0.0513970
17338.3, 0.0536130
17396.5, 0.0559370
17455.1, 0.0586930
17514.0, 0.0617200
17573.4, 0.0636110
17633.2, 0.0656110
17693.4, 0.0681510
17754.0, 0.0706370
17815.0, 0.0733400
17876.4, 0.0765820
17938.3, 0.0805820
18000.5, 0.0853380
18063.3, 0.0913370
18126.4, 0.0972280
18190.0, 0.103983
18254.1, 0.113225
18318.6, 0.123332
18383.5, 0.134195
18449.0, 0.146895
18514.9, 0.160677
18581.2, 0.175756
18648.0, 0.192672
18715.4, 0.209048
18783.2, 0.225802
18851.5, 0.242988
18920.3, 0.260067
18989.6, 0.275253
19059.4, 0.289629
19129.7, 0.303195
19200.6, 0.315463
19272.0, 0.325786
19343.9, 0.334811
19416.3, 0.343513
19489.3, 0.351241
19562.8, 0.357132
19637.0, 0.362104
19711.6, 0.366536
19786.8, 0.369725
19862.6, 0.371616
19939.0, 0.373454
20016.0, 0.374535
20093.6, 0.374643
20171.8, 0.375724
20250.6, 0.375994
20330.0, 0.375400
20410.0, 0.373400
20490.7, 0.372751
20572.0, 0.371941
20654.0, 0.369725
20736.6, 0.367995
20819.9, 0.366969
20903.8, 0.365131
20988.5, 0.362969
21073.8, 0.361510
21159.8, 0.359186
21246.5, 0.356484
21334.0, 0.353944
21422.1, 0.352430
21511.0, 0.350268
21600.7, 0.347782
21691.0, 0.346539
21782.1, 0.344486
21874.0, 0.340378
21966.7, 0.337027
22060.2, 0.333298
22154.5, 0.327786
22249.6, 0.323030
22345.5, 0.318544
22442.2, 0.312761
22539.8, 0.309897
22638.2, 0.307627
22737.5, 0.304762
22837.7, 0.300168
22938.7, 0.294872
23040.7, 0.289900
23143.5, 0.285252
23247.3, 0.280334
23352.1, 0.276605
23457.7, 0.272713
23564.4, 0.268390
23672.0, 0.265255
23780.5, 0.263147
23890.1, 0.257581
24000.7, 0.250447
24112.3, 0.244880
24225.0, 0.239800
24338.7, 0.235476
24453.5, 0.237151
24569.4, 0.235692
24686.4, 0.233801
