Database of Origin, USGS Spectral Database
Sample Description, See USGS database for additional info
Date Added,2016-08-10 03:00:44.061795

Data ID,USGS_hyp04          
Sample ID, hypersthene_pyx02.10424
Mineral Name, hypersthene
Material Class,Inosilicate

Wavelength
1652.58, 0.513227
1653.11, 0.513501
1653.64, 0.513461
1654.17, 0.513187
1654.69, 0.513031
1655.22, 0.512992
1655.75, 0.513109
1656.28, 0.512952
1656.81, 0.512952
1657.34, 0.512678
1657.87, 0.512522
1658.4, 0.512639
1658.93, 0.512717
1659.46, 0.512678
1659.99, 0.513031
1660.52, 0.512952
1661.05, 0.512482
1661.59, 0.512443
1662.12, 0.512600
1662.65, 0.512561
1663.19, 0.512287
1663.72, 0.512130
1664.26, 0.512600
1664.79, 0.512678
1665.32, 0.512365
1665.86, 0.512482
1666.39, 0.512169
1666.93, 0.512091
1667.47, 0.512600
1668.0, 0.512600
1668.54, 0.512326
1669.08, 0.512052
1669.61, 0.511699
1670.15, 0.511817
1670.69, 0.511503
1671.23, 0.511308
1671.77, 0.511817
1672.31, 0.511856
1672.85, 0.511621
1673.39, 0.511856
1673.93, 0.511934
1674.47, 0.511621
1675.01, 0.511582
1675.55, 0.511621
1676.09, 0.511151
1676.64, 0.510838
1677.18, 0.510799
1677.72, 0.510994
1678.26, 0.510916
1678.81, 0.511034
1679.35, 0.510994
1679.89, 0.510603
1680.44, 0.510642
1680.98, 0.510916
1681.53, 0.510759
1682.07, 0.510289
1682.62, 0.510015
1683.17, 0.510055
1683.71, 0.510485
1684.26, 0.510289
1684.81, 0.510133
1685.36, 0.509859
1685.9, 0.509467
1686.45, 0.509271
1687.0, 0.509232
1687.55, 0.509546
1688.1, 0.510211
1688.65, 0.509546
1689.2, 0.509350
1689.75, 0.509467
1690.3, 0.509154
1690.85, 0.508762
1691.41, 0.508606
1691.96, 0.508841
1692.51, 0.508645
1693.06, 0.508566
1693.61, 0.508958
1694.17, 0.508841
1694.72, 0.508488
1695.28, 0.508801
1695.83, 0.508958
1696.39, 0.508527
1696.94, 0.508057
1697.5, 0.507979
1698.05, 0.508449
1698.61, 0.508449
1699.17, 0.508018
1699.72, 0.507744
1700.28, 0.508018
1700.84, 0.508097
1701.4, 0.507940
1701.95, 0.508175
1702.51, 0.507979
1703.07, 0.507783
1703.63, 0.507862
1704.19, 0.507666
1704.75, 0.507666
1705.31, 0.507587
1705.88, 0.507235
1706.44, 0.507157
1707.0, 0.507039
1707.56, 0.506765
1708.12, 0.506922
1708.69, 0.507274
1709.25, 0.507274
1709.81, 0.507196
1710.38, 0.507118
1710.94, 0.507118
1711.51, 0.507118
1712.07, 0.507392
1712.64, 0.507235
1713.2, 0.507000
1713.77, 0.507000
1714.34, 0.506961
1714.9, 0.506648
1715.47, 0.506256
1716.04, 0.506334
1716.61, 0.506530
1717.18, 0.506609
1717.74, 0.506609
1718.31, 0.506374
1718.88, 0.505786
1719.45, 0.505786
1720.02, 0.506021
1720.59, 0.506178
1721.17, 0.506569
1721.74, 0.506726
1722.31, 0.506413
1722.88, 0.506178
1723.45, 0.506256
1724.03, 0.506569
1724.6, 0.506452
1725.18, 0.506217
1725.75, 0.505943
1726.33, 0.505786
1726.9, 0.505786
1727.48, 0.505747
1728.05, 0.505551
1728.63, 0.505551
1729.2, 0.505669
1729.78, 0.505238
1730.36, 0.504885
1730.94, 0.505042
1731.51, 0.505277
1732.09, 0.505473
1732.67, 0.505434
1733.25, 0.505160
1733.83, 0.504925
1734.41, 0.505081
1734.99, 0.505120
1735.57, 0.505003
1736.15, 0.505277
1736.73, 0.505512
1737.32, 0.505160
1737.9, 0.504885
1738.48, 0.504964
1739.07, 0.505160
1739.65, 0.505081
1740.23, 0.504846
1740.82, 0.504611
1741.4, 0.504651
1741.99, 0.504533
1742.57, 0.504220
1743.16, 0.504102
1743.74, 0.504533
1744.33, 0.504768
1744.92, 0.504729
1745.51, 0.504572
1746.09, 0.504376
1746.68, 0.504298
1747.27, 0.504494
1747.86, 0.504572
1748.45, 0.504181
1749.04, 0.503867
1749.63, 0.503750
1750.22, 0.503750
1750.81, 0.503711
1751.4, 0.503515
1751.99, 0.503515
1752.59, 0.503554
1753.18, 0.503319
1753.77, 0.503280
1754.37, 0.503437
1754.96, 0.503162
1755.56, 0.502928
1756.15, 0.503123
1756.74, 0.503358
1757.34, 0.503084
1757.94, 0.502967
1758.53, 0.503045
1759.13, 0.502810
1759.73, 0.502614
1760.32, 0.502301
1760.92, 0.502536
1761.52, 0.502653
1762.12, 0.502497
1762.72, 0.502340
1763.32, 0.502301
1763.92, 0.502458
1764.52, 0.502223
1765.12, 0.502105
1765.72, 0.502183
1766.32, 0.502183
1766.92, 0.501948
1767.53, 0.501714
1768.13, 0.501518
1768.73, 0.501518
1769.34, 0.501909
1769.94, 0.501909
1770.55, 0.501557
1771.15, 0.501792
1771.76, 0.501909
1772.36, 0.501674
1772.97, 0.501714
1773.57, 0.501635
1774.18, 0.501596
1774.79, 0.501674
1775.4, 0.501439
1776.0, 0.501205
1776.61, 0.501361
1777.22, 0.501244
1777.83, 0.501009
1778.44, 0.500970
1779.05, 0.500930
1779.66, 0.500970
1780.27, 0.501087
1780.88, 0.500852
1781.5, 0.500852
1782.11, 0.501009
1782.72, 0.501087
1783.33, 0.500891
1783.95, 0.500735
1784.56, 0.500774
1785.18, 0.500617
1785.79, 0.500656
1786.41, 0.500891
1787.02, 0.500891
1787.64, 0.500695
1788.26, 0.500578
1788.87, 0.500500
1789.49, 0.500421
1790.11, 0.500382
1790.73, 0.500186
1791.35, 0.500225
1791.96, 0.500225
1792.58, 0.500304
1793.21, 0.500460
1793.83, 0.500304
1794.45, 0.500225
1795.07, 0.500500
1795.69, 0.500539
1796.31, 0.500343
1796.93, 0.500460
1797.56, 0.500617
1798.18, 0.500460
1798.8, 0.500343
1799.43, 0.500421
1800.05, 0.500460
1800.68, 0.500578
1801.3, 0.500421
1801.93, 0.500343
1802.56, 0.500343
1803.18, 0.500304
1803.81, 0.500421
1804.44, 0.500343
1805.07, 0.500265
1805.7, 0.500304
1806.33, 0.500421
1806.95, 0.500265
1807.58, 0.500343
1808.22, 0.500421
1808.85, 0.500382
1809.48, 0.500382
1810.11, 0.500382
1810.74, 0.500147
1811.38, 0.499912
1812.01, 0.500147
1812.64, 0.500421
1813.28, 0.500695
1813.91, 0.500500
1814.55, 0.500421
1815.18, 0.500578
1815.82, 0.500421
1816.45, 0.500265
1817.09, 0.500225
1817.73, 0.500382
1818.36, 0.500382
1819.0, 0.500186
1819.64, 0.500500
1820.28, 0.500460
1820.92, 0.500265
1821.56, 0.500343
1822.2, 0.500460
1822.84, 0.500578
1823.48, 0.500774
1824.12, 0.500695
1824.76, 0.500539
1825.41, 0.500578
1826.05, 0.500539
1826.69, 0.500304
1827.34, 0.500343
1827.98, 0.500539
1828.63, 0.500500
1829.27, 0.500304
1829.92, 0.500186
1830.56, 0.500304
1831.21, 0.500343
1831.86, 0.500461
1832.5, 0.500539
1833.15, 0.500265
1833.8, 0.500460
1834.45, 0.500578
1835.1, 0.500304
1835.75, 0.500225
1836.4, 0.500147
1837.05, 0.500382
1837.7, 0.500382
1838.35, 0.500108
1839.01, 0.500343
1839.66, 0.500304
1840.31, 0.499991
1840.96, 0.500460
1841.62, 0.500656
1842.27, 0.500069
1842.93, 0.500108
1843.58, 0.500382
1844.24, 0.500460
1844.9, 0.500421
1845.55, 0.500578
1846.21, 0.500695
1846.87, 0.500500
1847.53, 0.500382
1848.18, 0.500656
1848.84, 0.500539
1849.5, 0.500500
1850.16, 0.500460
1850.82, 0.500500
1851.48, 0.500461
1852.14, 0.500617
1852.81, 0.500656
1853.47, 0.500695
1854.13, 0.500343
1854.8, 0.500265
1855.46, 0.500617
1856.12, 0.500852
1856.79, 0.500735
1857.45, 0.500539
1858.12, 0.500421
1858.79, 0.500813
1859.45, 0.500813
1860.12, 0.500304
1860.79, 0.500304
1861.46, 0.500460
1862.12, 0.500500
1862.79, 0.500500
1863.46, 0.500695
1864.13, 0.500617
1864.8, 0.500421
1865.48, 0.500578
1866.15, 0.500970
1866.82, 0.501126
1867.49, 0.500970
1868.16, 0.500656
1868.84, 0.500695
1869.51, 0.501048
1870.19, 0.501400
1870.86, 0.501087
1871.54, 0.500774
1872.21, 0.501479
1872.89, 0.501400
1873.56, 0.501048
1874.24, 0.501205
1874.92, 0.501518
1875.6, 0.501518
1876.28, 0.501792
1876.96, 0.501439
1877.64, 0.501126
1878.32, 0.501557
1879.0, 0.501753
1879.68, 0.501674
1880.36, 0.501596
1881.04, 0.501674
1881.73, 0.501831
1882.41, 0.501909
1883.09, 0.502066
1883.78, 0.501909
1884.46, 0.501635
1885.15, 0.501909
1885.83, 0.502301
1886.52, 0.502144
1887.21, 0.502027
1887.89, 0.502379
1888.58, 0.502458
1889.27, 0.502575
1889.96, 0.502418
1890.65, 0.502379
1891.34, 0.502653
1892.03, 0.502614
1892.72, 0.502497
1893.41, 0.502692
1894.1, 0.502732
1894.79, 0.502771
1895.49, 0.502692
1896.18, 0.502888
1896.87, 0.503241
1897.57, 0.503084
1898.26, 0.502888
1898.96, 0.503084
1899.65, 0.503280
1900.35, 0.503280
1901.05, 0.503084
1901.74, 0.503358
1902.44, 0.503593
1903.14, 0.503280
1903.84, 0.503437
1904.54, 0.504102
1905.24, 0.503946
1905.94, 0.503476
1906.64, 0.503750
1907.34, 0.503867
1908.04, 0.504141
1908.75, 0.504298
1909.45, 0.504494
1910.15, 0.504494
1910.86, 0.504494
1911.56, 0.504455
1912.27, 0.504455
1912.97, 0.504925
1913.68, 0.505081
1914.39, 0.505081
1915.09, 0.505277
1915.8, 0.505316
1916.51, 0.505277
1917.22, 0.505512
1917.93, 0.505786
1918.64, 0.505786
1919.35, 0.505747
1920.06, 0.506021
1920.77, 0.505943
1921.48, 0.505708
1922.19, 0.505943
1922.91, 0.506334
1923.62, 0.506609
1924.33, 0.506648
1925.05, 0.507000
1925.76, 0.506922
1926.48, 0.506883
1927.19, 0.506961
1927.91, 0.507353
1928.63, 0.507431
1929.35, 0.507392
1930.07, 0.507313
1930.78, 0.507509
1931.5, 0.507862
1932.22, 0.508018
1932.94, 0.507901
1933.66, 0.508097
1934.39, 0.508410
1935.11, 0.508527
1935.83, 0.508449
1936.55, 0.508527
1937.28, 0.508723
1938.0, 0.508958
1938.73, 0.509115
1939.45, 0.509036
1940.18, 0.509154
1940.9, 0.509428
1941.63, 0.509546
1942.36, 0.509663
1943.09, 0.509624
1943.81, 0.509820
1944.54, 0.510015
1945.27, 0.510015
1946.0, 0.510211
1946.73, 0.510446
1947.47, 0.510603
1948.2, 0.510681
1948.93, 0.510446
1949.66, 0.510407
1950.4, 0.510681
1951.13, 0.510916
1951.86, 0.511034
1952.6, 0.511347
1953.34, 0.511464
1954.07, 0.511464
1954.81, 0.511582
1955.55, 0.512091
1956.29, 0.512169
1957.02, 0.511895
1957.76, 0.512052
1958.5, 0.512248
1959.24, 0.512443
1959.98, 0.512678
1960.72, 0.512639
1961.47, 0.512913
1962.21, 0.513266
1962.95, 0.513422
1963.7, 0.513657
1964.44, 0.513853
1965.18, 0.513892
1965.93, 0.513853
1966.67, 0.514127
1967.42, 0.514323
1968.17, 0.514284
1968.92, 0.514754
1969.66, 0.514871
1970.41, 0.514793
1971.16, 0.515341
1971.91, 0.515733
1972.66, 0.515772
1973.41, 0.516085
1974.16, 0.516438
1974.92, 0.516281
1975.67, 0.516124
1976.42, 0.516594
1977.18, 0.517025
1977.93, 0.517182
1978.69, 0.517260
1979.44, 0.517573
1980.2, 0.517769
1980.95, 0.517808
1981.71, 0.518043
1982.47, 0.518239
1983.23, 0.518591
1983.99, 0.518748
1984.74, 0.518826
1985.51, 0.518944
1986.27, 0.519100
1987.03, 0.519492
1987.79, 0.519688
1988.55, 0.519884
1989.32, 0.520197
1990.08, 0.520589
1990.84, 0.520784
1991.61, 0.520863
1992.37, 0.521333
1993.14, 0.521528
1993.9, 0.521528
1994.67, 0.521802
1995.44, 0.521842
1996.21, 0.522037
1996.98, 0.522429
1997.75, 0.522781
1998.52, 0.523056
1999.29, 0.523291
2000.06, 0.523408
2000.83, 0.523408
2001.6, 0.523760
2002.38, 0.524270
2003.15, 0.524426
2003.93, 0.524309
2004.7, 0.524504
2005.48, 0.525092
2006.25, 0.525405
2007.03, 0.525405
2007.81, 0.525640
2008.58, 0.525993
2009.36, 0.526188
2010.14, 0.526227
2010.92, 0.526423
2011.7, 0.526462
2012.48, 0.526737
2013.26, 0.527050
2014.05, 0.527363
2014.83, 0.527520
2015.61, 0.527833
2016.4, 0.528225
2017.18, 0.528499
2017.97, 0.528890
2018.75, 0.528969
2019.54, 0.529008
2020.32, 0.529125
2021.11, 0.529282
2021.9, 0.529517
2022.69, 0.529634
2023.48, 0.529869
2024.27, 0.530065
2025.06, 0.530378
2025.85, 0.530809
2026.64, 0.531162
2027.44, 0.531632
2028.23, 0.531553
2029.02, 0.531514
2029.82, 0.531592
2030.61, 0.531710
2031.41, 0.531906
2032.2, 0.532415
2033.0, 0.532767
2033.8, 0.533198
2034.6, 0.533511
2035.4, 0.533785
2036.2, 0.533864
2037.0, 0.534020
2037.8, 0.534255
2038.6, 0.534490
2039.4, 0.534686
2040.2, 0.534843
2041.01, 0.534999
2041.81, 0.535117
2042.61, 0.535547
2043.42, 0.535939
2044.22, 0.536057
2045.03, 0.536213
2045.84, 0.536292
2046.65, 0.536527
2047.46, 0.536957
2048.26, 0.537075
2049.07, 0.536996
2049.88, 0.537271
2050.69, 0.537662
2051.51, 0.537897
2052.32, 0.538289
2053.13, 0.538641
2053.94, 0.538798
2054.76, 0.538798
2055.57, 0.538915
2056.39, 0.539072
2057.2, 0.539346
2058.02, 0.539816
2058.84, 0.540012
2059.66, 0.540051
2060.48, 0.540482
2061.29, 0.540756
2062.11, 0.540677
2062.94, 0.540795
2063.76, 0.541069
2064.58, 0.541421
2065.4, 0.541970
2066.22, 0.542126
2067.05, 0.542126
2067.87, 0.542518
2068.7, 0.542675
2069.52, 0.542831
2070.35, 0.543027
2071.18, 0.543223
2072.0, 0.543458
2072.83, 0.543810
2073.66, 0.543967
2074.49, 0.544202
2075.32, 0.544437
2076.15, 0.544750
2076.98, 0.544985
2077.82, 0.545181
2078.65, 0.545416
2079.48, 0.545612
2080.32, 0.545807
2081.15, 0.545886
2081.99, 0.546238
2082.83, 0.546786
2083.66, 0.547100
2084.5, 0.547335
2085.34, 0.547609
2086.18, 0.547922
2087.02, 0.548196
2087.86, 0.548353
2088.7, 0.548431
2089.54, 0.548823
2090.39, 0.549293
2091.23, 0.549684
2092.07, 0.549958
2092.92, 0.549958
2093.76, 0.550272
2094.61, 0.550624
2095.45, 0.551094
2096.3, 0.551485
2097.15, 0.551485
2098.0, 0.551603
2098.85, 0.551877
2099.7, 0.552308
2100.55, 0.552660
2101.4, 0.552778
2102.25, 0.553130
2103.1, 0.553678
2103.96, 0.553874
2104.81, 0.554070
2105.67, 0.554383
2106.52, 0.554775
2107.38, 0.554971
2108.24, 0.555362
2109.09, 0.555558
2109.95, 0.555636
2110.81, 0.555793
2111.67, 0.556224
2112.53, 0.556655
2113.39, 0.556890
2114.25, 0.557085
2115.12, 0.557242
2115.98, 0.557359
2116.84, 0.557712
2117.71, 0.558182
2118.58, 0.558652
2119.44, 0.558926
2120.31, 0.559082
2121.18, 0.559357
2122.04, 0.559591
2122.91, 0.559866
2123.78, 0.560218
2124.65, 0.560296
2125.52, 0.560453
2126.4, 0.560766
2127.27, 0.561197
2128.14, 0.561471
2129.02, 0.561510
2129.89, 0.561745
2130.77, 0.562137
2131.64, 0.562528
2132.52, 0.562724
2133.4, 0.562842
2134.27, 0.562959
2135.15, 0.563312
2136.03, 0.563586
2136.91, 0.563821
2137.79, 0.564134
2138.68, 0.564487
2139.56, 0.564839
2140.44, 0.564878
2141.33, 0.565113
2142.21, 0.565426
2143.1, 0.565583
2143.99, 0.566014
2144.87, 0.566209
2145.76, 0.566327
2146.65, 0.566562
2147.54, 0.566836
2148.43, 0.567032
2149.32, 0.567267
2150.21, 0.567502
2151.1, 0.567580
2151.99, 0.567893
2152.89, 0.568246
2153.78, 0.568481
2154.68, 0.568598
2155.57, 0.568637
2156.47, 0.568872
2157.37, 0.569147
2158.27, 0.569381
2159.16, 0.569460
2160.06, 0.569695
2160.96, 0.569930
2161.86, 0.570204
2162.77, 0.570400
2163.67, 0.570595
2164.57, 0.570752
2165.48, 0.570830
2166.38, 0.570870
2167.29, 0.570948
2168.2, 0.571222
2169.1, 0.571535
2170.01, 0.571653
2170.92, 0.571888
2171.83, 0.572162
2172.74, 0.572240
2173.65, 0.572514
2174.56, 0.572710
2175.47, 0.572710
2176.39, 0.573023
2177.3, 0.573493
2178.22, 0.573572
2179.13, 0.573650
2180.05, 0.573885
2180.96, 0.573846
2181.88, 0.574002
2182.8, 0.574198
2183.72, 0.574472
2184.64, 0.574629
2185.56, 0.574707
2186.48, 0.574746
2187.41, 0.575020
2188.33, 0.575334
2189.25, 0.575647
2190.18, 0.575725
2191.1, 0.575764
2192.03, 0.575882
2192.96, 0.576078
2193.89, 0.576313
2194.82, 0.576430
2195.74, 0.576548
2196.68, 0.576783
2197.61, 0.577096
2198.54, 0.577370
2199.47, 0.577566
2200.4, 0.577566
2201.34, 0.577801
2202.28, 0.578114
2203.21, 0.578192
2204.15, 0.578271
2205.08, 0.578506
2206.02, 0.578819
2206.96, 0.579132
2207.9, 0.579250
2208.84, 0.579367
2209.78, 0.579485
2210.73, 0.579641
2211.67, 0.579876
2212.61, 0.580111
2213.56, 0.580307
2214.5, 0.580385
2215.45, 0.580738
2216.4, 0.581129
2217.35, 0.581168
2218.3, 0.580973
2219.24, 0.581168
2220.2, 0.581599
2221.15, 0.581834
2222.1, 0.581873
2223.05, 0.581952
2224.0, 0.582265
2224.96, 0.582500
2225.91, 0.582617
2226.87, 0.582774
2227.83, 0.582970
2228.79, 0.583205
2229.74, 0.583362
2230.7, 0.583479
2231.66, 0.583636
2232.63, 0.583831
2233.59, 0.584027
2234.55, 0.584184
2235.51, 0.584380
2236.48, 0.584575
2237.44, 0.584732
2238.41, 0.584928
2239.38, 0.585124
2240.34, 0.585359
2241.31, 0.585554
2242.28, 0.585829
2243.25, 0.585985
2244.22, 0.586181
2245.19, 0.586181
2246.17, 0.586181
2247.14, 0.586259
2248.12, 0.586651
2249.09, 0.586886
2250.07, 0.586847
2251.04, 0.587043
2252.02, 0.587003
2253.0, 0.586886
2253.98, 0.586847
2254.96, 0.587043
2255.94, 0.587277
2256.92, 0.587277
2257.91, 0.587082
2258.89, 0.587082
2259.88, 0.587199
2260.86, 0.587238
2261.85, 0.587121
2262.83, 0.587199
2263.82, 0.587317
2264.81, 0.587082
2265.8, 0.586925
2266.79, 0.586847
2267.78, 0.586886
2268.78, 0.586964
2269.77, 0.586847
2270.76, 0.586729
2271.76, 0.586533
2272.75, 0.586455
2273.75, 0.586377
2274.75, 0.586259
2275.75, 0.586063
2276.75, 0.585946
2277.75, 0.585554
2278.75, 0.585280
2279.75, 0.585241
2280.75, 0.585006
2281.76, 0.584301
2282.76, 0.583753
2283.77, 0.583087
2284.77, 0.582382
2285.78, 0.581560
2286.79, 0.580620
2287.8, 0.579485
2288.81, 0.578349
2289.82, 0.577488
2290.83, 0.576978
2291.84, 0.576704
2292.86, 0.576900
2293.87, 0.577683
2294.89, 0.578427
2295.91, 0.579015
2296.92, 0.579406
2297.94, 0.579211
2298.96, 0.578780
2299.98, 0.578349
2301.0, 0.577918
2302.02, 0.577566
2303.04, 0.577018
2304.07, 0.576195
2305.09, 0.575255
2306.12, 0.574159
2307.15, 0.572906
2308.17, 0.571574
2309.2, 0.570360
2310.23, 0.569147
2311.26, 0.567737
2312.29, 0.566562
2313.32, 0.566131
2314.35, 0.566249
2315.39, 0.567071
2316.42, 0.568520
2317.46, 0.570478
2318.5, 0.572162
2319.53, 0.573376
2320.57, 0.574433
2321.61, 0.575373
2322.65, 0.575999
2323.69, 0.576665
2324.73, 0.577566
2325.78, 0.578623
2326.82, 0.579680
2327.86, 0.580816
2328.91, 0.581873
2329.96, 0.582892
2331.01, 0.583792
2332.05, 0.584615
2333.1, 0.585319
2334.15, 0.585829
2335.21, 0.586220
2336.26, 0.586651
2337.31, 0.587238
2338.36, 0.587786
2339.42, 0.588178
2340.48, 0.588648
2341.53, 0.589040
2342.59, 0.589353
2343.65, 0.589744
2344.71, 0.590097
2345.77, 0.590449
2346.83, 0.590880
2347.9, 0.591193
2348.96, 0.591428
2350.02, 0.591624
2351.09, 0.592094
2352.16, 0.592486
2353.23, 0.592564
2354.29, 0.592721
2355.36, 0.593112
2356.43, 0.593308
2357.51, 0.593426
2358.58, 0.593660
2359.65, 0.593935
2360.73, 0.594209
2361.8, 0.594483
2362.88, 0.594639
2363.96, 0.594757
2365.03, 0.594874
2366.11, 0.595031
2367.19, 0.595149
2368.27, 0.595031
2369.36, 0.594718
2370.44, 0.594639
2371.53, 0.594561
2372.61, 0.594483
2373.7, 0.594326
2374.78, 0.594013
2375.87, 0.593700
2376.96, 0.593465
2378.05, 0.593230
2379.14, 0.592956
2380.24, 0.592564
2381.33, 0.592447
2382.42, 0.592211
2383.52, 0.592016
2384.61, 0.591820
2385.71, 0.591742
2386.81, 0.591702
2387.91, 0.591663
2389.01, 0.591624
2390.11, 0.591663
2391.22, 0.591624
2392.32, 0.591781
2393.42, 0.592212
2394.53, 0.592799
2395.64, 0.593347
2396.74, 0.593700
2397.85, 0.594130
2398.96, 0.594718
2400.07, 0.595384
2401.18, 0.596049
2402.3, 0.596597
2403.41, 0.597185
2404.52, 0.597616
2405.64, 0.597968
2406.76, 0.598203
2407.88, 0.598360
2408.99, 0.598751
2410.11, 0.599025
2411.23, 0.599221
2412.36, 0.599299
2413.48, 0.599378
2414.6, 0.599339
2415.73, 0.599378
2416.85, 0.599378
2417.98, 0.599221
2419.11, 0.599064
2420.24, 0.599143
2421.37, 0.599104
2422.5, 0.598830
2423.64, 0.598555
2424.77, 0.598399
2425.9, 0.598242
2427.04, 0.598125
2428.18, 0.598125
2429.31, 0.598125
2430.45, 0.598046
2431.59, 0.598085
2432.73, 0.598046
2433.88, 0.597851
2435.02, 0.597772
2436.16, 0.597772
2437.31, 0.597733
2438.45, 0.597616
2439.6, 0.597537
2440.75, 0.597341
2441.9, 0.597302
2443.05, 0.597302
2444.2, 0.597341
2445.35, 0.597263
2446.51, 0.597341
2447.67, 0.597185
2448.82, 0.597185
2449.98, 0.597185
2451.14, 0.597106
2452.3, 0.597028
2453.46, 0.597146
2454.62, 0.597067
2455.78, 0.596950
2456.94, 0.596754
2458.11, 0.596793
2459.28, 0.596715
2460.44, 0.596480
2461.61, 0.596323
2462.78, 0.596245
2463.95, 0.596167
2465.12, 0.596049
2466.3, 0.596010
2467.47, 0.596167
2468.65, 0.596128
2469.82, 0.596284
2471.0, 0.596402
2472.18, 0.596597
2473.36, 0.596871
2474.54, 0.597028
2475.72, 0.596950
2476.9, 0.597067
2478.08, 0.597302
2479.27, 0.597498
2480.46, 0.597576
2481.64, 0.597537
2482.83, 0.597616
2484.02, 0.597655
2485.21, 0.597694
2486.4, 0.597733
2487.6, 0.597576
2488.79, 0.597537
2489.99, 0.597537
2491.18, 0.597616
2492.38, 0.597772
2493.58, 0.597616
2494.78, 0.597381
2495.98, 0.597263
2497.18, 0.597185
2498.39, 0.597224
2499.59, 0.597263
2500.8, 0.597302
2502.01, 0.597381
2503.21, 0.597576
2504.42, 0.597811
2505.63, 0.597929
2506.84, 0.598007
2508.06, 0.597968
2509.27, 0.597968
2510.49, 0.598046
2511.7, 0.598125
2512.92, 0.598203
2514.14, 0.598320
2515.36, 0.598320
2516.58, 0.598477
2517.8, 0.598516
2519.03, 0.598673
2520.25, 0.599064
2521.48, 0.599339
2522.7, 0.599456
2523.93, 0.599534
2525.16, 0.599613
2526.39, 0.599808
2527.62, 0.600004
2528.86, 0.600043
2530.09, 0.600200
2531.33, 0.600396
2532.56, 0.600357
2533.8, 0.600435
2535.04, 0.600866
2536.28, 0.600905
2537.52, 0.600944
2538.76, 0.601218
2540.01, 0.601492
2541.25, 0.601962
2542.5, 0.602080
2543.75, 0.601845
2544.99, 0.601884
2546.24, 0.602197
2547.49, 0.602236
2548.75, 0.602041
2550.0, 0.602354
2551.26, 0.602236
2552.51, 0.601923
2553.77, 0.601414
2555.03, 0.601806
2556.29, 0.602001
2557.55, 0.602276
2558.81, 0.602511
2560.08, 0.602902
2561.34, 0.602315
2562.61, 0.601884
2563.88, 0.601727
2565.14, 0.601375
2566.41, 0.601845
2567.68, 0.602550
2568.96, 0.602745
2570.23, 0.601806
2571.51, 0.602315
2572.78, 0.603098
2574.06, 0.601453
2575.34, 0.602080
2576.62, 0.602158
2577.9, 0.601218
2579.18, 0.602080
2580.47, 0.602471
2581.75, 0.601962
2583.04, 0.602824
2584.32, 0.601062
2585.61, 0.601297
2586.9, 0.602197
2588.2, 0.601414
2589.49, 0.601492
2590.78, 0.601884
2592.08, 0.603020
2593.37, 0.604860
2594.67, 0.602432
2595.97, 0.598751
2597.27, 0.599965
2598.57, 0.601375
2599.88, 0.602236
2601.18, 0.602236
2602.49, 0.601884
2603.79, 0.602432
2605.1, 0.601962
2606.41, 0.600239
2607.72, 0.600866
2609.03, 0.601414
2610.35, 0.600983
2611.66, 0.601297
2612.98, 0.601492
2614.3, 0.601218
2615.62, 0.602197
2616.94, 0.600474
2618.26, 0.599965
2619.58, 0.601571
2620.91, 0.599495
2622.23, 0.599495
2623.56, 0.600631
2624.89, 0.601257
2626.22, 0.600944
2627.55, 0.599143
2628.88, 0.600905
2630.21, 0.600200
2631.55, 0.598007
2632.89, 0.599260
2634.22, 0.599143
2635.56, 0.598790
2636.9, 0.599143
2638.25, 0.599064
2639.59, 0.599064
2640.93, 0.598830
2642.28, 0.598399
2643.63, 0.598399
2644.98, 0.598555
2646.33, 0.597616
2647.68, 0.597302
2649.03, 0.597185
2650.39, 0.597185
2651.74, 0.596950
2653.1, 0.595775
2654.46, 0.595697
2655.82, 0.595266
2657.18, 0.594796
2658.54, 0.594992
2659.9, 0.594013
2661.27, 0.593347
2662.64, 0.593347
2664.01, 0.593974
2665.38, 0.592055
2666.74, 0.589431
2668.12, 0.588217
2669.49, 0.589784
2670.87, 0.584967
2672.24, 0.582931
2673.62, 0.583166
2675.0, 0.581873
2676.38, 0.578349
2677.76, 0.574433
2679.15, 0.570517
2680.54, 0.565544
2681.92, 0.561354
2683.31, 0.555245
2684.7, 0.548000
2686.09, 0.540286
2687.48, 0.531514
2688.88, 0.522312
2690.27, 0.511699
2691.67, 0.500617
2693.07, 0.487303
2694.47, 0.471247
2695.87, 0.454565
2697.27, 0.436199
2698.67, 0.416463
2700.08, 0.397823
2701.49, 0.378674
2702.9, 0.359564
2704.31, 0.341551
2705.72, 0.324438
2707.13, 0.309244
2708.54, 0.297144
2709.96, 0.287941
2711.38, 0.280422
2712.8, 0.275136
2714.22, 0.271416
2715.64, 0.265620
2717.06, 0.251170
2718.49, 0.222192
2719.91, 0.202495
2721.34, 0.215496
2722.77, 0.238247
2724.2, 0.251914
2725.63, 0.258845
2727.07, 0.263975
2728.5, 0.266051
2729.94, 0.264680
2731.38, 0.262331
2732.82, 0.269967
2734.26, 0.283085
2735.7, 0.290956
2737.15, 0.295460
2738.59, 0.298357
2740.04, 0.299885
2741.49, 0.301294
2742.94, 0.301921
2744.39, 0.302234
2745.84, 0.304036
2747.3, 0.307129
2748.76, 0.309244
2750.21, 0.310889
2751.67, 0.312416
2753.14, 0.314178
2754.6, 0.315862
2756.06, 0.315666
2757.53, 0.316528
2759.0, 0.318211
2760.46, 0.319465
2761.94, 0.320796
2763.41, 0.321579
2764.88, 0.322715
2766.36, 0.324046
2767.83, 0.324908
2769.31, 0.326122
2770.79, 0.327022
2772.27, 0.327610
2773.76, 0.328706
2775.24, 0.329842
2776.73, 0.330899
2778.22, 0.331800
2779.71, 0.332740
2781.2, 0.333562
2782.69, 0.334384
2784.18, 0.335637
2785.68, 0.337047
2787.18, 0.337791
2788.68, 0.338535
2790.18, 0.339553
2791.68, 0.340885
2793.19, 0.342138
2794.69, 0.343274
2796.2, 0.344253
2797.71, 0.345349
2799.22, 0.346446
2800.73, 0.347699
2802.24, 0.348756
2803.76, 0.349461
2805.28, 0.350361
2806.8, 0.351380
2808.32, 0.352359
2809.84, 0.353377
2811.36, 0.354356
2812.89, 0.355335
2814.42, 0.356235
2815.94, 0.357097
2817.48, 0.357998
2819.01, 0.358820
2820.54, 0.359447
2822.08, 0.360191
2823.61, 0.361013
2825.15, 0.361914
2826.69, 0.362540
2828.23, 0.363049
2829.78, 0.363754
2831.32, 0.364537
2832.87, 0.365007
2834.42, 0.365477
2835.97, 0.366221
2837.52, 0.366887
2839.08, 0.367200
2840.63, 0.367788
2842.19, 0.368453
2843.75, 0.369080
2845.31, 0.369315
2846.87, 0.369706
2848.44, 0.370255
2850.0, 0.370685
2851.57, 0.371194
2853.14, 0.371821
2854.71, 0.372213
2856.28, 0.372643
2857.86, 0.373152
2859.43, 0.373583
2861.01, 0.373975
2862.59, 0.374405
2864.17, 0.374758
2865.76, 0.375228
2867.34, 0.375698
2868.93, 0.376011
2870.52, 0.376364
2872.11, 0.376755
2873.7, 0.377108
2875.29, 0.377421
2876.89, 0.377852
2878.49, 0.378282
2880.08, 0.378478
2881.69, 0.378752
2883.29, 0.379066
2884.89, 0.379418
2886.5, 0.379731
2888.11, 0.380162
2889.72, 0.380475
2891.33, 0.380710
2892.94, 0.380828
2894.56, 0.381180
2896.17, 0.381533
2897.79, 0.381885
2899.42, 0.382120
2901.04, 0.382316
2902.66, 0.382472
2904.29, 0.382864
2905.92, 0.383216
2907.55, 0.383451
2909.18, 0.383765
2910.81, 0.384039
2912.45, 0.384195
2914.08, 0.384548
2915.72, 0.384783
2917.36, 0.384900
2919.01, 0.385096
2920.65, 0.385409
2922.3, 0.385605
2923.94, 0.385762
2925.59, 0.386036
2927.25, 0.386310
2928.9, 0.386584
2930.56, 0.386897
2932.21, 0.387093
2933.87, 0.387289
2935.53, 0.387367
2937.2, 0.387485
2938.86, 0.387720
2940.53, 0.388033
2942.2, 0.388268
2943.87, 0.388542
2945.54, 0.388777
2947.22, 0.388895
2948.89, 0.389012
2950.57, 0.389247
2952.25, 0.389560
2953.93, 0.389913
2955.62, 0.390148
2957.3, 0.390383
2958.99, 0.390578
2960.68, 0.390813
2962.37, 0.391009
2964.07, 0.391166
2965.76, 0.391322
2967.46, 0.391518
2969.16, 0.391636
2970.86, 0.391871
2972.56, 0.392106
2974.27, 0.392419
2975.98, 0.392693
2977.69, 0.392928
2979.4, 0.393163
2981.11, 0.393476
2982.83, 0.393672
2984.54, 0.393829
2986.26, 0.393985
2987.98, 0.394220
2989.71, 0.394573
2991.43, 0.395003
2993.16, 0.395278
2994.89, 0.395434
2996.62, 0.395826
2998.35, 0.396100
3000.09, 0.396257
3001.83, 0.396648
3003.57, 0.396961
3005.31, 0.397118
3007.05, 0.397471
3008.79, 0.397862
3010.54, 0.398215
3012.29, 0.398567
3014.04, 0.398802
3015.8, 0.398959
3017.55, 0.399389
3019.31, 0.399859
3021.07, 0.400212
3022.83, 0.400564
3024.59, 0.400838
3026.36, 0.401073
3028.13, 0.401386
3029.9, 0.401700
3031.67, 0.402052
3033.44, 0.402326
3035.22, 0.402600
3037.0, 0.403031
3038.78, 0.403462
3040.56, 0.403775
3042.34, 0.404049
3044.13, 0.404402
3045.92, 0.404754
3047.71, 0.405185
3049.5, 0.405498
3051.3, 0.405812
3053.09, 0.406164
3054.89, 0.406595
3056.69, 0.406869
3058.5, 0.407300
3060.3, 0.407770
3062.11, 0.407965
3063.92, 0.408239
3065.73, 0.408709
3067.55, 0.409023
3069.36, 0.409453
3071.18, 0.409845
3073.0, 0.410119
3074.82, 0.410354
3076.65, 0.410706
3078.48, 0.411176
3080.31, 0.411607
3082.14, 0.411881
3083.97, 0.412351
3085.8, 0.412782
3087.64, 0.413095
3089.48, 0.413526
3091.33, 0.413996
3093.17, 0.414270
3095.02, 0.414701
3096.87, 0.415132
3098.72, 0.415562
3100.57, 0.416032
3102.43, 0.416424
3104.28, 0.416815
3106.14, 0.417324
3108.01, 0.417677
3109.87, 0.418264
3111.74, 0.418773
3113.61, 0.419282
3115.48, 0.419752
3117.35, 0.420222
3119.23, 0.420614
3121.1, 0.421084
3122.98, 0.421593
3124.87, 0.422180
3126.75, 0.422768
3128.64, 0.423198
3130.53, 0.423473
3132.42, 0.423903
3134.31, 0.424412
3136.21, 0.425000
3138.11, 0.425509
3140.01, 0.425940
3141.91, 0.426331
3143.82, 0.426684
3145.73, 0.427114
3147.64, 0.427663
3149.55, 0.428054
3151.46, 0.428524
3153.38, 0.429033
3155.3, 0.429386
3157.22, 0.429856
3159.14, 0.430482
3161.07, 0.431030
3163.0, 0.431500
3164.93, 0.431892
3166.86, 0.432323
3168.8, 0.432910
3170.74, 0.433262
3172.68, 0.433576
3174.62, 0.434124
3176.56, 0.434594
3178.51, 0.435181
3180.46, 0.435690
3182.42, 0.436004
3184.37, 0.436395
3186.33, 0.436865
3188.29, 0.437335
3190.25, 0.437844
3192.21, 0.438275
3194.18, 0.438706
3196.15, 0.439176
3198.12, 0.439724
3200.09, 0.440076
3202.07, 0.440546
3204.05, 0.441016
3206.03, 0.441486
3208.02, 0.441956
3210.0, 0.442387
3211.99, 0.442817
3213.98, 0.443092
3215.98, 0.443248
3217.97, 0.443718
3219.97, 0.444110
3221.97, 0.444384
3223.98, 0.444697
3225.98, 0.444971
3227.99, 0.445363
3230.0, 0.445872
3232.02, 0.446185
3234.03, 0.446538
3236.05, 0.446773
3238.07, 0.446929
3240.1, 0.447282
3242.12, 0.447595
3244.15, 0.447947
3246.18, 0.448378
3248.22, 0.448613
3250.25, 0.448809
3252.29, 0.449161
3254.33, 0.449553
3256.38, 0.449749
3258.43, 0.450179
3260.47, 0.450454
3262.53, 0.450610
3264.58, 0.450845
3266.64, 0.451198
3268.7, 0.451433
3270.76, 0.451824
3272.82, 0.452177
3274.89, 0.452372
3276.96, 0.452451
3279.04, 0.452686
3281.11, 0.452960
3283.19, 0.453116
3285.27, 0.453273
3287.35, 0.453625
3289.44, 0.453821
3291.53, 0.454056
3293.62, 0.454213
3295.71, 0.454448
3297.81, 0.454565
3299.91, 0.454644
3302.01, 0.454722
3304.11, 0.454918
3306.22, 0.455231
3308.33, 0.455505
3310.44, 0.455740
3312.56, 0.456014
3314.68, 0.456132
3316.8, 0.456406
3318.92, 0.456915
3321.05, 0.457346
3323.18, 0.457855
3325.31, 0.458325
3327.44, 0.458599
3329.58, 0.459069
3331.72, 0.459499
3333.86, 0.459734
3336.01, 0.459774
3338.16, 0.459930
3340.31, 0.459774
3342.46, 0.459499
3344.61, 0.459264
3346.77, 0.458873
3348.94, 0.458207
3351.1, 0.457698
3353.27, 0.457111
3355.44, 0.456523
3357.61, 0.455858
3359.79, 0.455231
3361.97, 0.454722
3364.15, 0.454174
3366.33, 0.453665
3368.52, 0.453430
3370.71, 0.453273
3372.9, 0.453234
3375.1, 0.453351
3377.3, 0.453743
3379.5, 0.454174
3381.71, 0.454644
3383.91, 0.455153
3386.12, 0.455662
3388.34, 0.456210
3390.55, 0.456758
3392.77, 0.457150
3394.99, 0.457385
3397.22, 0.457385
3399.45, 0.457307
3401.68, 0.457072
3403.91, 0.456876
3406.15, 0.456719
3408.39, 0.456641
3410.63, 0.456876
3412.87, 0.457346
3415.12, 0.457776
3417.37, 0.458560
3419.63, 0.459539
3421.88, 0.460674
3424.14, 0.461810
3426.41, 0.463102
3428.67, 0.464512
3430.94, 0.465804
3433.21, 0.466861
3435.49, 0.467958
3437.77, 0.468819
3440.05, 0.469603
3442.33, 0.470386
3444.62, 0.471091
3446.91, 0.471717
3449.2, 0.472422
3451.5, 0.473049
3453.8, 0.473519
3456.1, 0.473832
3458.41, 0.474184
3460.72, 0.474537
3463.03, 0.474850
3465.34, 0.475085
3467.66, 0.475163
3469.98, 0.475046
3472.31, 0.474968
3474.63, 0.474850
3476.96, 0.474889
3479.3, 0.475242
3481.64, 0.475555
3483.97, 0.475947
3486.32, 0.476573
3488.66, 0.477160
3491.01, 0.477904
3493.36, 0.478453
3495.72, 0.479040
3498.08, 0.479706
3500.44, 0.480293
3502.81, 0.480881
3505.18, 0.481781
3507.55, 0.482799
3509.92, 0.483935
3512.3, 0.485188
3514.68, 0.486559
3517.06, 0.487694
3519.45, 0.488752
3521.84, 0.489652
3524.24, 0.490553
3526.64, 0.491140
3529.04, 0.491845
3531.44, 0.492511
3533.85, 0.493177
3536.26, 0.493725
3538.67, 0.494234
3541.09, 0.494665
3543.51, 0.495174
3545.93, 0.495526
3548.36, 0.495957
3550.79, 0.496349
3553.22, 0.496740
3555.66, 0.497132
3558.1, 0.497602
3560.54, 0.497954
3562.99, 0.498268
3565.44, 0.498659
3567.9, 0.498933
3570.35, 0.499090
3572.81, 0.499442
3575.28, 0.499795
3577.75, 0.500147
3580.22, 0.500460
3582.69, 0.500774
3585.17, 0.500930
3587.65, 0.501204
3590.14, 0.501439
3592.62, 0.501714
3595.11, 0.502144
3597.61, 0.502340
3600.11, 0.502614
3602.61, 0.502967
3605.11, 0.503280
3607.62, 0.503358
3610.14, 0.503554
3612.65, 0.503906
3615.17, 0.504181
3617.69, 0.504416
3620.22, 0.504690
3622.75, 0.505081
3625.28, 0.505434
3627.82, 0.505747
3630.36, 0.505904
3632.9, 0.506060
3635.45, 0.506491
3638.0, 0.506844
3640.56, 0.507039
3643.12, 0.507235
3645.68, 0.507588
3648.24, 0.507940
3650.81, 0.508136
3653.39, 0.508527
3655.96, 0.508841
3658.54, 0.509154
3661.13, 0.509624
3663.71, 0.510055
3666.3, 0.510407
3668.9, 0.510799
3671.5, 0.511151
3674.1, 0.511543
3676.7, 0.511817
3679.31, 0.512091
3681.93, 0.512443
3684.54, 0.512874
3687.17, 0.513187
3689.79, 0.513501
3692.42, 0.513892
3695.05, 0.514323
3697.69, 0.514597
3700.32, 0.514950
3702.97, 0.515341
3705.61, 0.515850
3708.27, 0.516046
3710.92, 0.516398
3713.58, 0.516751
3716.24, 0.517025
3718.91, 0.517260
3721.58, 0.517651
3724.25, 0.517926
3726.93, 0.518239
3729.61, 0.518435
3732.29, 0.518631
3734.98, 0.518905
3737.67, 0.519257
3740.37, 0.519531
3743.07, 0.519805
3745.78, 0.519962
3748.49, 0.520236
3751.2, 0.520314
3753.91, 0.520471
3756.63, 0.520784
3759.36, 0.521058
3762.09, 0.521254
3764.82, 0.521372
3767.55, 0.521528
3770.29, 0.521685
3773.04, 0.521724
3775.78, 0.521842
3778.54, 0.521998
3781.29, 0.522155
3784.05, 0.522194
3786.82, 0.522116
3789.59, 0.522116
3792.36, 0.522077
3795.13, 0.522116
3797.92, 0.522429
3800.7, 0.522547
3803.49, 0.522781
3806.28, 0.522703
3809.08, 0.522507
3811.88, 0.522546
3814.68, 0.522625
3817.49, 0.522625
3820.31, 0.522625
3823.12, 0.522625
3825.94, 0.522742
3828.77, 0.522781
3831.6, 0.522625
3834.43, 0.522625
3837.27, 0.522703
3840.11, 0.522546
3842.96, 0.522468
3845.81, 0.522429
3848.67, 0.522429
3851.53, 0.522390
3854.39, 0.522233
3857.26, 0.522116
3860.13, 0.522116
3863.01, 0.521959
3865.89, 0.521881
3868.77, 0.521763
3871.66, 0.521802
3874.55, 0.521763
3877.45, 0.521685
3880.35, 0.521607
3883.26, 0.521411
3886.17, 0.521411
3889.09, 0.521293
3892.01, 0.521137
3894.93, 0.521019
3897.86, 0.521058
3900.79, 0.521098
3903.73, 0.520941
3906.67, 0.520784
3909.62, 0.520667
3912.57, 0.520589
3915.52, 0.520510
3918.48, 0.520628
3921.45, 0.520784
3924.42, 0.520902
3927.39, 0.520902
3930.37, 0.520784
3933.35, 0.520784
3936.34, 0.520902
3939.33, 0.520863
3942.32, 0.520902
3945.32, 0.520980
3948.33, 0.521176
3951.34, 0.521215
3954.35, 0.521215
3957.37, 0.521372
3960.39, 0.521450
3963.42, 0.521450
3966.45, 0.531734
3969.49, 0.532014
3972.53, 0.532231
3975.58, 0.532480
3978.63, 0.532698
3981.68, 0.532853
3984.75, 0.533102
3987.81, 0.533382
3990.88, 0.533569
3993.95, 0.533693
3997.03, 0.533818
4000.12, 0.534005
4003.21, 0.534036
4006.3, 0.534129
4009.4, 0.534285
4012.5, 0.534285
4015.61, 0.534253
4018.72, 0.534284
4021.84, 0.534378
4024.96, 0.534316
4028.09, 0.534160
4031.22, 0.533973
4034.36, 0.533911
4037.5, 0.533942
4040.65, 0.533818
4043.8, 0.533631
4046.96, 0.533538
4050.12, 0.533382
4053.29, 0.533102
4056.46, 0.532978
4059.64, 0.532853
4062.82, 0.532698
4066.0, 0.532542
4069.19, 0.532387
4072.39, 0.532138
4075.59, 0.531920
4078.8, 0.531734
4082.01, 0.531547
4085.23, 0.531329
4088.45, 0.531329
4091.68, 0.531111
4094.91, 0.530925
4098.15, 0.530769
4101.39, 0.530583
4104.63, 0.530489
4107.89, 0.530303
4111.14, 0.530116
4114.41, 0.529992
4117.67, 0.529929
4120.95, 0.529867
4124.23, 0.529618
4127.51, 0.529432
4130.8, 0.529276
4134.09, 0.529183
4137.39, 0.529089
4140.7, 0.528965
4144.01, 0.528809
4147.32, 0.528529
4150.64, 0.528343
4153.97, 0.528187
4157.3, 0.528001
4160.64, 0.527907
4163.98, 0.527814
4167.33, 0.527596
4170.68, 0.527409
4174.04, 0.527285
4177.4, 0.527067
4180.77, 0.526912
4184.14, 0.526756
4187.52, 0.526601
4190.91, 0.526352
4194.3, 0.525885
4197.69, 0.525201
4201.1, 0.524205
4204.5, 0.522868
4207.92, 0.521188
4211.34, 0.519072
4214.76, 0.516864
4218.19, 0.514811
4221.62, 0.512882
4225.06, 0.511171
4228.51, 0.509927
4231.96, 0.509180
4235.42, 0.509025
4238.88, 0.509429
4242.35, 0.510393
4245.83, 0.511980
4249.31, 0.514344
4252.79, 0.517206
4256.28, 0.519072
4259.78, 0.517766
4263.29, 0.515028
4266.79, 0.513038
4270.31, 0.511824
4273.83, 0.511264
4277.35, 0.511047
4280.89, 0.511140
4284.42, 0.511327
4287.97, 0.511420
4291.52, 0.511793
4295.07, 0.512291
4298.63, 0.512944
4302.2, 0.513629
4305.78, 0.514344
4309.35, 0.515091
4312.94, 0.515806
4316.53, 0.516584
4320.13, 0.517237
4323.73, 0.517735
4327.34, 0.518233
4330.96, 0.518606
4334.58, 0.518979
4338.21, 0.519228
4341.84, 0.519477
4345.48, 0.519539
4349.12, 0.519570
4352.77, 0.519570
4356.43, 0.519632
4360.1, 0.519632
4363.76, 0.519632
4367.44, 0.519601
4371.12, 0.519570
4374.81, 0.519384
4378.51, 0.519352
4382.21, 0.519321
4385.92, 0.519197
4389.63, 0.519010
4393.35, 0.518824
4397.08, 0.518761
4400.81, 0.518637
4404.55, 0.518481
4408.29, 0.518419
4412.04, 0.518295
4415.8, 0.518233
4419.57, 0.518015
4423.34, 0.517953
4427.12, 0.517828
4430.9, 0.517766
4434.69, 0.517517
4438.49, 0.517393
4442.29, 0.517299
4446.1, 0.517175
4449.92, 0.516957
4453.74, 0.516739
4457.57, 0.516553
4461.41, 0.516397
4465.25, 0.516242
4469.1, 0.516024
4472.95, 0.515868
4476.82, 0.515775
4480.69, 0.515620
4484.56, 0.515433
4488.44, 0.515153
4492.33, 0.514966
4496.23, 0.514655
4500.13, 0.514313
4504.04, 0.514033
4507.96, 0.513660
4511.88, 0.513286
4515.81, 0.512975
4519.75, 0.512602
4523.69, 0.512167
4527.65, 0.511607
4531.6, 0.511015
4535.57, 0.510549
4539.54, 0.509927
4543.52, 0.509211
4547.5, 0.508496
4551.5, 0.507718
4555.5, 0.507002
4559.5, 0.506256
4563.52, 0.505603
4567.54, 0.504763
4571.56, 0.503954
4575.6, 0.503021
4579.64, 0.502119
4583.69, 0.501248
4587.75, 0.500345
4591.81, 0.499350
4595.88, 0.498261
4599.96, 0.497141
4604.04, 0.495990
4608.14, 0.494715
4612.24, 0.493470
4616.34, 0.492164
4620.46, 0.490795
4624.58, 0.489489
4628.71, 0.488275
4632.84, 0.486907
4636.99, 0.485569
4641.14, 0.484325
4645.3, 0.483080
4649.47, 0.481774
4653.64, 0.480560
4657.82, 0.479441
4662.01, 0.478227
4666.21, 0.477139
4670.41, 0.476174
4674.62, 0.475241
4678.84, 0.474401
4683.07, 0.473623
4687.3, 0.472877
4691.54, 0.472068
4695.79, 0.471259
4700.05, 0.470388
4704.31, 0.469579
4708.59, 0.468802
4712.87, 0.467931
4717.15, 0.467028
4721.45, 0.466282
4725.76, 0.465473
4730.07, 0.464540
4734.39, 0.463513
4738.72, 0.462393
4743.05, 0.461149
4747.39, 0.459905
4751.75, 0.458598
4756.1, 0.457260
4760.47, 0.455829
4764.85, 0.454274
4769.23, 0.452781
4773.62, 0.451319
4778.02, 0.449763
4782.43, 0.448083
4786.85, 0.446497
4791.27, 0.445004
4795.7, 0.443448
4800.14, 0.441893
4804.59, 0.440400
4809.05, 0.438906
4813.51, 0.437507
4817.99, 0.436200
4822.47, 0.434987
4826.96, 0.433805
4831.46, 0.432654
4835.96, 0.431689
4840.48, 0.430912
4845.0, 0.430383
4849.54, 0.429916
4854.08, 0.429481
4858.63, 0.429014
4863.18, 0.428641
4867.75, 0.428392
4872.33, 0.428236
4876.91, 0.428019
4881.5, 0.427801
4886.1, 0.427521
4890.71, 0.427272
4895.33, 0.426930
4899.96, 0.426619
4904.59, 0.426401
4909.24, 0.426059
4913.89, 0.425592
4918.55, 0.425219
4923.22, 0.424783
4927.9, 0.424317
4932.59, 0.423757
4937.29, 0.423259
4942.0, 0.422761
4946.71, 0.422295
4951.44, 0.421517
4956.17, 0.420708
4960.91, 0.420335
4965.67, 0.419930
4970.43, 0.419371
4975.2, 0.418748
4979.98, 0.417908
4984.76, 0.417069
4989.56, 0.416229
4994.37, 0.415264
4999.18, 0.414300
5004.01, 0.413211
5008.84, 0.411936
5013.69, 0.410443
5018.54, 0.408545
5023.4, 0.407394
5028.28, 0.406305
5033.16, 0.404843
5038.05, 0.403256
5042.95, 0.401514
5047.86, 0.399586
5052.78, 0.397564
5057.71, 0.395510
5062.65, 0.393457
5067.6, 0.391218
5072.56, 0.389040
5077.53, 0.386582
5082.5, 0.383876
5087.49, 0.381792
5092.49, 0.379801
5097.5, 0.377405
5102.51, 0.375135
5107.54, 0.372864
5112.58, 0.370562
5117.62, 0.368384
5122.68, 0.366393
5127.75, 0.364464
5132.82, 0.362629
5137.91, 0.360825
5143.01, 0.358927
5148.12, 0.357434
5153.23, 0.357838
5158.36, 0.358212
5163.5, 0.358554
5168.65, 0.359083
5173.81, 0.359860
5178.98, 0.360825
5184.15, 0.361851
5189.34, 0.362940
5194.54, 0.363625
5199.75, 0.363998
5204.98, 0.365335
5210.21, 0.365335
5215.45, 0.366020
5220.7, 0.368477
5225.96, 0.369597
5231.23, 0.370188
5236.52, 0.370686
5241.81, 0.371744
5247.12, 0.372864
5252.44, 0.373766
5257.76, 0.374575
5263.1, 0.375415
5268.45, 0.376130
5273.81, 0.376566
5279.18, 0.377499
5284.56, 0.378494
5289.95, 0.378277
5295.36, 0.379521
5300.77, 0.381418
5306.2, 0.382103
5311.63, 0.382632
5317.08, 0.382881
5322.54, 0.383005
5328.01, 0.382974
5333.49, 0.382818
5338.98, 0.382227
5344.49, 0.379894
5350.0, 0.377250
5355.53, 0.377965
5361.07, 0.379023
5366.62, 0.378712
5372.18, 0.377561
5377.75, 0.376348
5383.34, 0.375166
5388.93, 0.374046
5394.54, 0.372708
5400.16, 0.371464
5405.79, 0.369691
5411.44, 0.367669
5417.09, 0.363749
5422.76, 0.360451
5428.43, 0.362536
5434.12, 0.363220
5439.83, 0.361727
5445.54, 0.360514
5451.26, 0.359549
5457.0, 0.357496
5462.75, 0.354043
5468.52, 0.353888
5474.29, 0.353825
5480.08, 0.352799
5485.88, 0.354168
5491.69, 0.354665
5497.51, 0.354572
5503.35, 0.354416
5509.2, 0.354759
5515.06, 0.354136
5520.93, 0.353328
5526.82, 0.353452
5532.71, 0.353732
5538.63, 0.353172
5544.55, 0.351523
5550.49, 0.348879
5556.44, 0.347759
5562.4, 0.347510
5568.37, 0.346204
5574.36, 0.342129
5580.36, 0.339640
5586.37, 0.342066
5592.4, 0.343311
5598.44, 0.341787
5604.49, 0.340698
5610.56, 0.340231
5616.63, 0.339111
5622.73, 0.339173
5628.83, 0.337991
5634.95, 0.334321
5641.08, 0.329530
5647.23, 0.330525
5653.39, 0.331272
5659.56, 0.331521
5665.74, 0.331832
5671.94, 0.328441
5678.15, 0.327103
5684.38, 0.327726
5690.62, 0.325890
5696.87, 0.325859
5703.14, 0.324210
5709.42, 0.319731
5715.72, 0.319264
5722.03, 0.320166
5728.35, 0.320477
5734.69, 0.319295
5741.03, 0.317615
5747.4, 0.315282
5753.78, 0.316060
5760.17, 0.311705
5766.58, 0.305794
5773.0, 0.310305
5779.44, 0.313291
5785.88, 0.314007
5792.35, 0.314162
5798.83, 0.312980
5805.32, 0.311985
5811.83, 0.308967
5818.35, 0.301781
5824.89, 0.299324
5831.45, 0.301812
5838.01, 0.303461
5844.59, 0.303150
5851.19, 0.300661
5857.8, 0.296991
5864.43, 0.294035
5871.07, 0.292480
5877.73, 0.283770
5884.4, 0.282059
5891.09, 0.283676
5897.79, 0.281281
5904.5, 0.285169
5911.23, 0.284703
5917.98, 0.281219
5924.75, 0.277392
5931.53, 0.268744
5938.32, 0.261683
5945.13, 0.263767
5951.96, 0.262492
5958.8, 0.258447
5965.65, 0.250764
5972.53, 0.246471
5979.42, 0.243920
5986.32, 0.238227
5993.24, 0.235583
6000.18, 0.235956
6007.13, 0.233032
6014.1, 0.229268
6021.08, 0.228708
6028.09, 0.227930
6035.1, 0.225037
6042.14, 0.217105
6049.19, 0.210012
6056.25, 0.215331
6063.34, 0.216887
6070.44, 0.212625
6077.55, 0.212532
6084.69, 0.214740
6091.84, 0.214305
6099.0, 0.212563
6106.19, 0.208425
6113.39, 0.204350
6120.61, 0.206652
6127.84, 0.208581
6135.09, 0.206994
6142.36, 0.204972
6149.65, 0.203635
6156.95, 0.201208
6164.27, 0.200462
6171.61, 0.200773
6178.97, 0.197258
6186.34, 0.194427
6193.73, 0.196604
6201.14, 0.197351
6208.57, 0.196449
6216.01, 0.195827
6223.47, 0.195795
6230.95, 0.195858
6238.45, 0.195764
6245.97, 0.195795
6253.5, 0.195889
6261.06, 0.195764
6268.63, 0.195547
6276.21, 0.195578
6283.82, 0.195640
6291.45, 0.195609
6299.1, 0.195858
6306.76, 0.196106
6314.44, 0.196573
6322.14, 0.197195
6329.86, 0.198004
6337.6, 0.196355
6345.35, 0.195858
6353.13, 0.200804
6360.92, 0.203230
6368.74, 0.202764
6376.57, 0.205657
6384.43, 0.208830
6392.3, 0.210572
6400.19, 0.210883
6408.1, 0.205346
6416.03, 0.204070
6423.98, 0.211194
6431.95, 0.215020
6439.94, 0.217913
6447.95, 0.219469
6455.98, 0.220495
6464.03, 0.220962
6472.1, 0.219033
6480.19, 0.216980
6488.31, 0.213589
6496.44, 0.214305
6504.59, 0.220495
6512.76, 0.221709
6520.95, 0.219500
6529.16, 0.221149
6537.4, 0.221024
6545.65, 0.218660
6553.92, 0.216327
6562.22, 0.214056
6570.54, 0.209514
6578.88, 0.209296
6587.23, 0.209110
6595.61, 0.207554
6604.02, 0.206994
6612.44, 0.204786
6620.89, 0.202359
6629.35, 0.197849
6637.84, 0.195453
6646.35, 0.201239
6654.88, 0.205875
6663.44, 0.205968
6672.01, 0.204723
6680.61, 0.203946
6689.23, 0.205781
6697.88, 0.206746
6706.54, 0.204132
6715.23, 0.202950
6723.94, 0.203604
6732.67, 0.204288
6741.42, 0.203666
6750.2, 0.202048
6759.0, 0.200679
6767.82, 0.197849
6776.67, 0.194458
6785.54, 0.190569
6794.44, 0.189045
6803.35, 0.190196
6812.29, 0.188796
6821.26, 0.185250
6830.24, 0.183103
6839.25, 0.182699
6848.29, 0.179495
6857.35, 0.173771
6866.43, 0.171687
6875.54, 0.174704
6884.67, 0.174984
6893.82, 0.173864
6903.0, 0.171966
6912.2, 0.171438
6921.43, 0.171313
6930.69, 0.170660
6939.96, 0.169727
6949.27, 0.167705
6958.59, 0.164345
6967.95, 0.165029
6977.33, 0.165994
6986.73, 0.164905
6996.16, 0.164003
7005.61, 0.163909
7015.09, 0.162914
7024.6, 0.161887
7034.13, 0.160550
7043.69, 0.157719
7053.27, 0.157781
7062.88, 0.158963
7072.52, 0.158901
7082.18, 0.158403
7091.87, 0.157781
7101.58, 0.157252
7111.32, 0.156257
7121.09, 0.155635
7130.88, 0.155448
7140.71, 0.154079
7150.56, 0.152928
7160.43, 0.152182
7170.33, 0.151031
7180.27, 0.151373
7190.23, 0.151062
7200.21, 0.149475
7210.23, 0.148293
7220.27, 0.148386
7230.34, 0.147795
7240.44, 0.146955
7250.56, 0.145773
7260.72, 0.144498
7270.9, 0.142694
7281.12, 0.141543
7291.36, 0.140796
7301.63, 0.139552
7311.93, 0.138058
7322.25, 0.136503
7332.61, 0.134232
7343.0, 0.132739
7353.41, 0.131712
7363.86, 0.130313
7374.33, 0.128353
7384.83, 0.126673
7395.37, 0.125180
7405.93, 0.123935
7416.53, 0.122784
7427.15, 0.121758
7437.81, 0.120762
7448.5, 0.119767
7459.22, 0.118336
7469.96, 0.117154
7480.74, 0.116127
7491.55, 0.115007
7502.39, 0.113701
7513.27, 0.112394
7524.17, 0.110994
7535.11, 0.109657
7546.08, 0.108412
7557.08, 0.107075
7568.11, 0.105395
7579.17, 0.103808
7590.27, 0.102253
7601.4, 0.100791
7612.56, 0.0991730
7623.76, 0.0977730
7634.98, 0.0962800
7646.24, 0.0948490
7657.54, 0.0933250
7668.87, 0.0918000
7680.23, 0.0901210
7691.62, 0.0884100
7703.05, 0.0867920
7714.51, 0.0851740
7726.01, 0.0834630
7737.54, 0.0818150
7749.11, 0.0800730
7760.71, 0.0783930
7772.35, 0.0766820
7784.02, 0.0751260
7795.72, 0.0735710
7807.46, 0.0719530
7819.23, 0.0702420
7831.04, 0.0686870
7842.89, 0.0671320
7854.77, 0.0655450
7866.69, 0.0637410
7878.65, 0.0619680
7890.64, 0.0602880
7902.67, 0.0584840
7914.74, 0.0565240
7926.84, 0.0547510
7938.98, 0.0529460
7951.16, 0.0512040
7963.37, 0.0493690
7975.62, 0.0475650
7987.91, 0.0458220
8000.24, 0.0441740
8012.6, 0.0424010
8025.01, 0.0406900
8037.45, 0.0391650
8049.93, 0.0377030
8062.45, 0.0360230
8075.01, 0.0345920
8087.61, 0.0332240
8100.24, 0.0317620
8112.91, 0.0303620
8125.63, 0.0291480
8138.39, 0.0278110
8151.18, 0.0265980
8164.02, 0.0254150
8176.9, 0.0242960
8189.81, 0.0230510
8202.77, 0.0219620
8215.77, 0.0209360
8228.82, 0.0199720
8241.9, 0.0189450
8255.02, 0.0181980
8268.19, 0.0173270
8281.39, 0.0165500
8294.65, 0.0157720
8307.94, 0.0150880
8321.28, 0.0145590
8334.66, 0.0140300
8348.08, 0.0135010
8361.54, 0.0131900
8375.05, 0.0128480
8388.6, 0.0126300
8402.2, 0.0123190
8415.84, 0.0121630
8429.52, 0.0121320
8443.25, 0.0121630
8457.02, 0.0121940
8470.84, 0.0124740
8484.7, 0.0127540
8498.61, 0.0131280
8512.57, 0.0135940
8526.57, 0.0142790
8540.62, 0.0149320
8554.71, 0.0158650
8568.85, 0.0169850
8583.04, 0.0181360
8597.27, 0.0193490
8611.55, 0.0207490
8625.88, 0.0223360
8640.26, 0.0241090
8654.68, 0.0257580
8669.16, 0.0275620
8683.68, 0.0292730
8698.25, 0.0309220
8712.87, 0.0322280
8727.53, 0.0328810
8742.25, 0.0329440
8757.02, 0.0332860
8771.83, 0.0344680
8786.7, 0.0367080
8801.62, 0.0392590
8816.59, 0.0415610
8831.61, 0.0431470
8846.68, 0.0439250
8861.8, 0.0438000
8876.97, 0.0433030
8892.2, 0.0429920
8907.48, 0.0436760
8922.81, 0.0451690
8938.2, 0.0469110
8953.63, 0.0484360
8969.13, 0.0495870
8984.67, 0.0502710
9000.27, 0.0508620
9015.92, 0.0508310
9031.63, 0.0505200
9047.39, 0.0501780
9063.21, 0.0498350
9079.08, 0.0494620
9095.01, 0.0492440
9111.0, 0.0489640
9127.04, 0.0487470
9143.13, 0.0485290
9159.28, 0.0487470
9175.49, 0.0489640
9191.76, 0.0491820
9208.09, 0.0493380
9224.47, 0.0497730
9240.92, 0.0502400
9257.42, 0.0506750
9273.98, 0.0509550
9290.6, 0.0513910
9307.28, 0.0517020
9324.02, 0.0519820
9340.82, 0.0521370
9357.68, 0.0521690
9374.6, 0.0521060
9391.58, 0.0518890
9408.62, 0.0514220
9425.73, 0.0508310
9442.9, 0.0500530
9460.13, 0.0490890
9477.42, 0.0478450
9494.78, 0.0466000
9512.2, 0.0452630
9529.69, 0.0438940
9547.24, 0.0426180
9564.86, 0.0416850
9582.54, 0.0406270
9600.28, 0.0393520
9618.1, 0.0379830
9635.97, 0.0366140
9653.92, 0.0352770
9671.93, 0.0338770
9690.01, 0.0325080
9708.16, 0.0317300
9726.37, 0.0311080
9744.65, 0.0307040
9763.0, 0.0305790
9781.43, 0.0306110
9799.92, 0.0307660
9818.48, 0.0312330
9837.1, 0.0318240
9855.8, 0.0324460
9874.58, 0.0329130
9893.42, 0.0333170
9912.34, 0.0335970
9931.33, 0.0338150
9950.39, 0.0339700
9969.52, 0.0339390
9988.74, 0.0337210
10008.0, 0.0337520
10027.4, 0.0341260
10046.8, 0.0348100
10066.3, 0.0357120
10085.9, 0.0368010
10105.6, 0.0378900
10125.3, 0.0393520
10145.1, 0.0406900
10165.0, 0.0419650
10185.0, 0.0432720
10205.0, 0.0444540
10225.2, 0.0451380
10245.4, 0.0453870
10265.7, 0.0451070
10286.0, 0.0444540
10306.5, 0.0435520
10327.0, 0.0432400
10347.6, 0.0438000
10368.3, 0.0448890
10389.1, 0.0460400
10409.9, 0.0473160
10430.9, 0.0484670
10451.9, 0.0493380
10473.0, 0.0498350
10494.2, 0.0502710
10515.5, 0.0504890
10536.9, 0.0505820
10558.4, 0.0504260
10579.9, 0.0499290
10601.5, 0.0496180
10623.3, 0.0496800
10645.1, 0.0494620
10667.0, 0.0492750
10689.0, 0.0491510
10711.1, 0.0490580
10733.2, 0.0488400
10755.5, 0.0486840
10777.9, 0.0486220
10800.3, 0.0483730
10822.9, 0.0477820
10845.5, 0.0470980
10868.2, 0.0461960
10891.1, 0.0453250
10914.0, 0.0442670
10937.0, 0.0431780
10960.2, 0.0420270
10983.4, 0.0408760
11006.7, 0.0398500
11030.1, 0.0391650
11053.6, 0.0387300
11077.3, 0.0385430
11101.0, 0.0383880
11124.8, 0.0382940
11148.7, 0.0386360
11172.7, 0.0393210
11196.9, 0.0404720
11221.1, 0.0423070
11245.4, 0.0443290
11269.9, 0.0461960
11294.4, 0.0478450
11319.1, 0.0493070
11343.9, 0.0507380
11368.8, 0.0517330
11393.7, 0.0525420
11418.8, 0.0532880
11444.0, 0.0537240
11469.4, 0.0542530
11494.8, 0.0547190
11520.3, 0.0551240
11546.0, 0.0554660
11571.8, 0.0559020
11597.7, 0.0563680
11623.7, 0.0569280
11649.8, 0.0576130
11676.0, 0.0586390
11702.4, 0.0601010
11728.9, 0.0623720
11755.5, 0.0653270
11782.2, 0.0687800
11809.0, 0.0727930
11836.0, 0.0770550
11863.0, 0.0815970
11890.3, 0.0863570
11917.6, 0.0905560
11945.0, 0.0942890
11972.6, 0.0977420
12000.4, 0.100884
12028.2, 0.103528
12056.2, 0.106173
12084.3, 0.109097
12112.5, 0.112176
12140.9, 0.114852
12169.4, 0.116905
12198.0, 0.118491
12226.8, 0.119487
12255.7, 0.120078
12284.7, 0.120296
12313.9, 0.120202
12343.2, 0.119705
12372.7, 0.118709
12402.3, 0.117963
12432.0, 0.117060
12461.9, 0.115723
12491.9, 0.114136
12522.1, 0.112145
12552.4, 0.110061
12582.9, 0.107728
12613.5, 0.105364
12644.3, 0.102782
12675.2, 0.100231
12706.3, 0.0978350
12737.5, 0.0952540
12768.9, 0.0926400
12800.4, 0.0902450
12832.1, 0.0886590
12863.9, 0.0877560
12895.9, 0.0868850
12928.1, 0.0852990
12960.4, 0.0832770
12992.9, 0.0810060
13025.5, 0.0783000
13058.3, 0.0751580
13091.3, 0.0720160
13124.4, 0.0688430
13157.8, 0.0656380
13191.2, 0.0624340
13224.9, 0.0593860
13258.7, 0.0561190
13292.7, 0.0526970
13326.9, 0.0486840
13361.2, 0.0445160
13395.7, 0.0404410
13430.4, 0.0376100
13465.3, 0.0362410
13500.4, 0.0355880
13535.7, 0.0344370
13571.1, 0.0323530
13606.7, 0.0297400
13642.5, 0.0275310
13678.5, 0.0259750
13714.7, 0.0251040
13751.1, 0.0251980
13787.6, 0.0265350
13824.4, 0.0282150
13861.4, 0.0300510
13898.5, 0.0317300
13935.9, 0.0330370
13973.5, 0.0333170
14011.2, 0.0326950
14049.2, 0.0317930
14087.4, 0.0308280
14125.8, 0.0293350
14164.3, 0.0277800
14203.2, 0.0265350
14242.2, 0.0252290
14281.4, 0.0239840
14320.9, 0.0229890
14360.5, 0.0220560
14400.4, 0.0213710
14440.5, 0.0210290
14480.9, 0.0213400
14521.4, 0.0216510
14562.2, 0.0214960
14603.3, 0.0211230
14644.5, 0.0206250
14686.0, 0.0196600
14727.7, 0.0190380
14769.7, 0.0184780
14811.9, 0.0178870
14854.3, 0.0170780
14897.0, 0.0163320
14939.9, 0.0155850
14983.1, 0.0149320
15026.5, 0.0143100
15070.2, 0.0137810
15114.2, 0.0131590
15158.3, 0.0125680
15202.8, 0.0121320
15247.5, 0.0121320
15292.5, 0.0122260
15337.7, 0.0127230
15383.2, 0.0135320
15429.0, 0.0143100
15475.1, 0.0148700
15521.4, 0.0155850
15568.0, 0.0165500
15614.9, 0.0175450
15662.1, 0.0183230
15709.6, 0.0192870
15757.3, 0.0198160
15805.4, 0.0199720
15853.7, 0.0198470
15902.3, 0.0201890
15951.2, 0.0205310
16000.5, 0.0208110
16050.0, 0.0209980
16099.8, 0.0215890
16150.0, 0.0220560
16200.5, 0.0226160
16251.3, 0.0231130
16302.4, 0.0235180
16353.8, 0.0239840
16405.5, 0.0245760
16457.6, 0.0252910
16510.0, 0.0261000
16562.8, 0.0264730
16615.9, 0.0272510
16669.3, 0.0279350
16723.1, 0.0290240
16777.2, 0.0298640
16831.7, 0.0307040
16886.5, 0.0316060
16941.7, 0.0323210
16997.2, 0.0329750
17053.1, 0.0336900
17109.4, 0.0344370
17166.1, 0.0349970
17223.1, 0.0353700
17280.5, 0.0359610
17338.3, 0.0364900
17396.5, 0.0366140
17455.1, 0.0361790
17514.0, 0.0354950
17573.4, 0.0344060
17633.2, 0.0334720
17693.4, 0.0321350
17754.0, 0.0310770
17815.0, 0.0307040
17876.4, 0.0312330
17938.3, 0.0327570
18000.5, 0.0349970
18063.3, 0.0371120
18126.4, 0.0392280
18190.0, 0.0407210
18254.1, 0.0419030
18318.6, 0.0424630
18383.5, 0.0426180
18449.0, 0.0424010
18514.9, 0.0419030
18581.2, 0.0410010
18648.0, 0.0400990
18715.4, 0.0382320
18783.2, 0.0362100
18851.5, 0.0348720
18920.3, 0.0349030
18989.6, 0.0363660
19059.4, 0.0393830
19129.7, 0.0427430
19200.6, 0.0461020
19272.0, 0.0484670
19343.9, 0.0504270
19416.3, 0.0527290
19489.3, 0.0543770
19562.8, 0.0548750
19637.0, 0.0551860
19711.6, 0.0559020
19786.8, 0.0567410
19862.6, 0.0565240
19939.0, 0.0561500
20016.0, 0.0554660
20093.6, 0.0549680
20171.8, 0.0540040
20250.6, 0.0531020
20330.0, 0.0518570
20410.0, 0.0507060
20490.7, 0.0494620
20572.0, 0.0479380
20654.0, 0.0461650
20736.6, 0.0450450
20819.9, 0.0432720
20903.8, 0.0415920
20988.5, 0.0400990
21073.8, 0.0384810
21159.8, 0.0367080
21246.5, 0.0365830
21334.0, 0.0379830
21422.1, 0.0391030
21511.0, 0.0396320
21600.7, 0.0401300
21691.0, 0.0408760
21782.1, 0.0420890
21874.0, 0.0432400
21966.7, 0.0452310
22060.2, 0.0455110
22154.5, 0.0450760
22249.6, 0.0458850
22345.5, 0.0474400
22442.2, 0.0479380
22539.8, 0.0478130
22638.2, 0.0470980
22737.5, 0.0479380
22837.7, 0.0483420
22938.7, 0.0482180
23040.7, 0.0470980
23143.5, 0.0451690
23247.3, 0.0435200
23352.1, 0.0431470
23457.7, 0.0416850
23564.4, 0.0397560
23672.0, 0.0385430
23780.5, 0.0368010
23890.1, 0.0348100
24000.7, 0.0338460
24112.3, 0.0333790
24225.0, 0.0334100
24338.7, 0.0329440
24453.5, 0.0332240
24569.4, 0.0361790
24686.4, 0.0376720
24804.5, 0.0396630
24923.8, 0.0383990
25044.2, 0.0489920
25165.8, 0.0521520
25288.6, 0.0447490
25412.5, 0.0457420
25537.7, 0.0540180
25664.1, 0.0600360
25791.8, 0.0649110
25920.8, 0.0564850
26051.1, 0.0519110
26182.6, 0.0582310
26315.5, 0.0632560
26449.8, 0.0594650
26585.4, 0.0564250
26722.5, 0.0549810
26860.9, 0.0498050
27000.8, 0.0462540
27142.1, 0.0527840
27285.0, 0.0527840
27429.4, 0.0498950
27575.3, 0.0524830
27722.7, 0.0523930
27871.8, 0.0538370
28022.4, 0.0551010
28174.7, 0.0583510
28328.7, 0.0582310
28484.4, 0.0555520
28641.7, 0.0539880
28800.9, 0.0594950
28961.8, 0.0625040
29124.5, 0.0588330
29289.0, 0.0646410
29455.4, 0.0706590
29623.8, 0.0699070
29794.0, 0.0670480
29966.3, 0.0729460
30140.5, 0.0833890
30316.7, 0.0794770
30495.1, 0.0788450
30675.5, 0.0825160
30858.1, 0.0819440
31042.8, 0.0772800
31229.8, 0.0788150
31419.1, 0.0846830
31610.7, 0.0885350
31804.6, 0.0908520
32000.9, 0.0935000
32199.7, 0.100903
32400.9, 0.107163
32604.8, 0.106952
32811.1, 0.105267
33020.1, 0.0983450
33231.8, 0.0918150
33446.2, 0.0963290
33663.4, 0.0985560
33883.4, 0.100903
34106.3, 0.101264
34332.1, 0.0925970
34561.0, 0.0839300
34792.9, 0.0821850
35028.0, 0.0846530
35266.3, 0.0828170
35507.8, 0.0790850
35752.7, 0.0743610
36001.0, 0.0684320
36252.8, 0.0661150
36508.1, 0.0602170
36767.0, 0.0557030
37029.7, 0.0619620
37296.1, 0.0648510
37566.3, 0.0670780
37840.5, 0.0717130
38118.8, 0.0756850
38401.2, 0.0788750
38687.8, 0.0844420
38978.6, 0.0857360
39273.9, 0.0854350
39573.7, 0.0853750
39878.1, 0.0851640
40187.3, 0.0888960
40501.2, 0.0870300
40820.0, 0.0787850
41144.0, 0.0731870
41473.2, 0.0631360
41807.6, 0.0485110
42147.5, 0.0407160
42493.0, 0.0399340
42844.2, 0.0376770
43201.2, 0.0352390
43564.3, 0.0445080
43933.5, 0.0478480
44309.0, 0.0476380
44691.0, 0.0582910
45079.6, 0.0721640
45475.0, 0.0673790
45877.5, 0.0642790
46287.1, 0.0653330
46704.2, 0.0660850
47128.7, 0.0744810
47561.1, 0.105989
48001.5, 0.127385
48450.1, 0.0951550
48907.2, 0.0842310
49373.0, 0.0882340
49847.7, 0.0824560
50331.5, 0.0689740
50825.0, 0.0595550
51328.2, 0.0619620
51841.5, 0.0746620
52365.1, 0.0835090
52899.4, 0.0865790
53444.8, 0.0802290
54001.5, 0.0601270
54570.1, 0.0579300
55150.6, 0.0683120
55743.6, 0.0658740
56349.5, 0.0779420
56968.7, 0.0810720
57601.7, 0.0745710
58248.9, 0.0734580
58910.9, 0.0707800
59588.1, 0.0708100
60281.0, 0.0725850
60990.2, 0.0787540
61716.3, 0.0851940
62459.8, 0.0863080
63221.6, 0.0790250
64002.1, 0.0746920
64802.1, 0.0810720
65622.1, 0.0842010
66463.4, 0.0796570
67326.6, 0.0692150
68212.4, 0.0740300
69121.9, 0.0786940
70056.0, 0.0756550
71015.7, 0.0654530
72002.0, 0.0380980
73016.3, 0.0338550
74059.4, 0.0520310
75132.7, 0.0604880
76237.6, 0.0644900
77375.5, 0.0714120
78547.9, 0.0905210
79756.3, 0.0996090
81002.5, 0.0944630
82288.5, 0.0965700
83615.7, 0.102378
84986.5, 0.102378
86402.9, 0.0981650
87867.4, 0.0884140
89382.4, 0.0866690
90950.5, 0.0693950
92574.6, 0.0746620
94257.2, 0.109299
96002.7, 0.113873
97814.1, 0.110593
99695.1, 0.123413
101650.0, 0.104213
103683.0, 0.0833290
105799.0, 0.106561
108003.0, 0.111015
110301.0, 0.0989170
112699.0, 0.101204
115204.0, 0.0916340
117822.0, 0.0805900
120562.0, 0.0800790
123433.0, 0.0911830
126443.0, 0.115408
129604.0, 0.0936810
132926.0, 0.0585320
136424.0, 0.0251880
140111.0, 0.0777610
144003.0, 0.113031
148118.0, 0.131297
152474.0, 0.133284
157095.0, 0.100602
162004.0, 0.157419
167231.0, 0.192598
172805.0, 0.152483
178764.0, 0.0601870
185148.0, 0.0193200
199390.0, 0.245502
207366.0,0.0121117
216006.0, 0.533736
