Database of Origin, USGS Spectral Database
Sample Description, See USGS database for additional info
Date Added,2016-08-10 05:33:09.218420

Data ID,USGS_rho06          
Sample ID, rhodonite_hs325.19344
Mineral Name, rhodonite
Material Class,Inosilicate

Wavelength
1607.49, 0.598814
1607.99, 0.600081
1608.49, 0.599764
1608.99, 0.600397
1609.49, 0.600555
1609.99, 0.600714
1610.49, 0.600239
1610.99, 0.600635
1611.49, 0.601030
1611.99, 0.601347
1612.49, 0.600318
1612.99, 0.600793
1613.49, 0.601268
1614.0, 0.602296
1614.5, 0.602376
1615.0, 0.602296
1615.51, 0.602138
1616.01, 0.602534
1616.51, 0.602771
1617.02, 0.602613
1617.52, 0.602138
1618.03, 0.602692
1618.53, 0.602613
1619.04, 0.603483
1619.54, 0.603721
1620.05, 0.603563
1620.55, 0.604196
1621.06, 0.605145
1621.57, 0.604750
1622.08, 0.604829
1622.58, 0.605066
1623.09, 0.604908
1623.6, 0.604275
1624.11, 0.605145
1624.62, 0.605304
1625.13, 0.605383
1625.64, 0.605857
1626.15, 0.606016
1626.66, 0.606174
1627.17, 0.606411
1627.68, 0.605857
1628.19, 0.606174
1628.7, 0.606886
1629.21, 0.607282
1629.72, 0.607203
1630.24, 0.607282
1630.75, 0.607361
1631.26, 0.607757
1631.78, 0.607678
1632.29, 0.608390
1632.8, 0.608390
1633.32, 0.607915
1633.83, 0.607598
1634.35, 0.607836
1634.86, 0.607678
1635.38, 0.607203
1635.9, 0.607440
1636.41, 0.608311
1636.93, 0.608390
1637.45, 0.608865
1637.96, 0.608786
1638.48, 0.609419
1639.0, 0.609260
1639.52, 0.609260
1640.04, 0.609102
1640.56, 0.609260
1641.08, 0.609735
1641.59, 0.610685
1642.11, 0.610131
1642.63, 0.610289
1643.16, 0.610289
1643.68, 0.610447
1644.2, 0.610289
1644.72, 0.610368
1645.24, 0.610764
1645.76, 0.611160
1646.29, 0.611239
1646.81, 0.611397
1647.33, 0.611555
1647.86, 0.611793
1648.38, 0.610843
1648.9, 0.610447
1649.43, 0.611080
1649.95, 0.612188
1650.48, 0.611397
1651.0, 0.611713
1651.53, 0.611951
1652.06, 0.612188
1652.58, 0.611713
1653.11, 0.612505
1653.64, 0.612584
1654.17, 0.613534
1654.69, 0.613534
1655.22, 0.613059
1655.75, 0.612663
1656.28, 0.613375
1656.81, 0.613375
1657.34, 0.613138
1657.87, 0.612742
1658.4, 0.613771
1658.93, 0.613929
1659.46, 0.613929
1659.99, 0.614167
1660.52, 0.614721
1661.05, 0.614246
1661.59, 0.614246
1662.12, 0.614167
1662.65, 0.614088
1663.19, 0.613771
1663.72, 0.614246
1664.26, 0.614008
1664.79, 0.614325
1665.32, 0.614483
1665.86, 0.615195
1666.39, 0.615433
1666.93, 0.615670
1667.47, 0.615591
1668.0, 0.615908
1668.54, 0.615749
1669.08, 0.615908
1669.61, 0.615908
1670.15, 0.616066
1670.69, 0.616145
1671.23, 0.617174
1671.77, 0.616857
1672.31, 0.616620
1672.85, 0.616936
1673.39, 0.617253
1673.93, 0.617174
1674.47, 0.617649
1675.01, 0.617728
1675.55, 0.618203
1676.09, 0.618203
1676.64, 0.618361
1677.18, 0.618677
1677.72, 0.618994
1678.26, 0.618440
1678.81, 0.618440
1679.35, 0.618677
1679.89, 0.618915
1680.44, 0.618757
1680.98, 0.619231
1681.53, 0.618994
1682.07, 0.619310
1682.62, 0.618915
1683.17, 0.619469
1683.71, 0.619943
1684.26, 0.619943
1684.81, 0.619390
1685.36, 0.619785
1685.9, 0.620181
1686.45, 0.620577
1687.0, 0.620418
1687.55, 0.620735
1688.1, 0.620577
1688.65, 0.620814
1689.2, 0.620814
1689.75, 0.620972
1690.3, 0.621289
1690.85, 0.620893
1691.41, 0.620656
1691.96, 0.621605
1692.51, 0.621605
1693.06, 0.621526
1693.61, 0.621605
1694.17, 0.621605
1694.72, 0.620972
1695.28, 0.621131
1695.83, 0.621526
1696.39, 0.621922
1696.94, 0.622080
1697.5, 0.622397
1698.05, 0.622080
1698.61, 0.622238
1699.17, 0.621843
1699.72, 0.621843
1700.28, 0.622159
1700.84, 0.622318
1701.4, 0.621684
1701.95, 0.621922
1702.51, 0.622080
1703.07, 0.622080
1703.63, 0.621605
1704.19, 0.622001
1704.75, 0.621922
1705.31, 0.622318
1705.88, 0.622476
1706.44, 0.622555
1707.0, 0.622397
1707.56, 0.622634
1708.12, 0.622080
1708.69, 0.622159
1709.25, 0.622159
1709.81, 0.622397
1710.38, 0.622476
1710.94, 0.622792
1711.51, 0.622634
1712.07, 0.622792
1712.64, 0.622555
1713.2, 0.622713
1713.77, 0.622792
1714.34, 0.623109
1714.9, 0.623030
1715.47, 0.623346
1716.04, 0.623109
1716.61, 0.623267
1717.18, 0.623346
1717.74, 0.623505
1718.31, 0.623505
1718.88, 0.623425
1719.45, 0.623109
1720.02, 0.623109
1720.59, 0.623030
1721.17, 0.623346
1721.74, 0.623188
1722.31, 0.623900
1722.88, 0.623584
1723.45, 0.623267
1724.03, 0.623030
1724.6, 0.623821
1725.18, 0.623979
1725.75, 0.623821
1726.33, 0.623188
1726.9, 0.623346
1727.48, 0.623425
1728.05, 0.623979
1728.63, 0.623425
1729.2, 0.623346
1729.78, 0.623979
1730.36, 0.624850
1730.94, 0.624454
1731.51, 0.623979
1732.09, 0.623821
1732.67, 0.623821
1733.25, 0.623742
1733.83, 0.624059
1734.41, 0.624217
1734.99, 0.624059
1735.57, 0.623900
1736.15, 0.624217
1736.73, 0.624613
1737.32, 0.624613
1737.9, 0.624059
1738.48, 0.624375
1739.07, 0.624454
1739.65, 0.624533
1740.23, 0.624296
1740.82, 0.624850
1741.4, 0.624929
1741.99, 0.624850
1742.57, 0.624533
1743.16, 0.624850
1743.74, 0.624850
1744.33, 0.625087
1744.92, 0.625008
1745.51, 0.625246
1746.09, 0.625166
1746.68, 0.625483
1747.27, 0.625641
1747.86, 0.625562
1748.45, 0.625483
1749.04, 0.625641
1749.63, 0.625562
1750.22, 0.625404
1750.81, 0.625246
1751.4, 0.625641
1751.99, 0.626037
1752.59, 0.625879
1753.18, 0.625800
1753.77, 0.626116
1754.37, 0.625879
1754.96, 0.625958
1755.56, 0.625641
1756.15, 0.626037
1756.74, 0.626116
1757.34, 0.626195
1757.94, 0.626195
1758.53, 0.626591
1759.13, 0.626670
1759.73, 0.626591
1760.32, 0.626037
1760.92, 0.626116
1761.52, 0.626116
1762.12, 0.626591
1762.72, 0.626512
1763.32, 0.626433
1763.92, 0.626116
1764.52, 0.626433
1765.12, 0.626195
1765.72, 0.626195
1766.32, 0.626512
1766.92, 0.626749
1767.53, 0.626987
1768.13, 0.626828
1768.73, 0.626670
1769.34, 0.626907
1769.94, 0.626749
1770.55, 0.626591
1771.15, 0.626512
1771.76, 0.626433
1772.36, 0.626353
1772.97, 0.626591
1773.57, 0.626433
1774.18, 0.626907
1774.79, 0.626828
1775.4, 0.626749
1776.0, 0.626749
1776.61, 0.626907
1777.22, 0.626987
1777.83, 0.627145
1778.44, 0.626828
1779.05, 0.626512
1779.66, 0.626512
1780.27, 0.626907
1780.88, 0.626353
1781.5, 0.626195
1782.11, 0.626195
1782.72, 0.626512
1783.33, 0.626512
1783.95, 0.626828
1784.56, 0.626670
1785.18, 0.626274
1785.79, 0.626433
1786.41, 0.626670
1787.02, 0.626512
1787.64, 0.626433
1788.26, 0.626274
1788.87, 0.626195
1789.49, 0.625879
1790.11, 0.626116
1790.73, 0.626037
1791.35, 0.625958
1791.96, 0.625879
1792.58, 0.626037
1793.21, 0.626195
1793.83, 0.626274
1794.45, 0.626116
1795.07, 0.626274
1795.69, 0.625958
1796.31, 0.625800
1796.93, 0.625800
1797.56, 0.625958
1798.18, 0.625641
1798.8, 0.625641
1799.43, 0.625483
1800.05, 0.625800
1800.68, 0.625958
1801.3, 0.626116
1801.93, 0.626037
1802.56, 0.626037
1803.18, 0.625562
1803.81, 0.625800
1804.44, 0.625958
1805.07, 0.626037
1805.7, 0.625879
1806.33, 0.626116
1806.95, 0.626116
1807.58, 0.626195
1808.22, 0.625720
1808.85, 0.625404
1809.48, 0.625325
1810.11, 0.625562
1810.74, 0.625404
1811.38, 0.625483
1812.01, 0.625325
1812.64, 0.625404
1813.28, 0.625325
1813.91, 0.625800
1814.55, 0.625562
1815.18, 0.625404
1815.82, 0.625404
1816.45, 0.625800
1817.09, 0.626116
1817.73, 0.626433
1818.36, 0.626116
1819.0, 0.625800
1819.64, 0.625246
1820.28, 0.625325
1820.92, 0.625720
1821.56, 0.626116
1822.2, 0.626037
1822.84, 0.626274
1823.48, 0.626195
1824.12, 0.626195
1824.76, 0.625800
1825.41, 0.625720
1826.05, 0.625166
1826.69, 0.625483
1827.34, 0.625641
1827.98, 0.625879
1828.63, 0.625720
1829.27, 0.625800
1829.92, 0.625800
1830.56, 0.626116
1831.21, 0.626195
1831.86, 0.626353
1832.5, 0.625958
1833.15, 0.626274
1833.8, 0.626512
1834.45, 0.626274
1835.1, 0.625800
1835.75, 0.625325
1836.4, 0.625008
1837.05, 0.625404
1837.7, 0.625325
1838.35, 0.626037
1839.01, 0.626274
1839.66, 0.625562
1840.31, 0.625641
1840.96, 0.626037
1841.62, 0.625720
1842.27, 0.625879
1842.93, 0.626195
1843.58, 0.626512
1844.24, 0.626353
1844.9, 0.626433
1845.55, 0.626274
1846.21, 0.626195
1846.87, 0.625641
1847.53, 0.625641
1848.18, 0.625483
1848.84, 0.625562
1849.5, 0.625720
1850.16, 0.625879
1850.82, 0.625800
1851.48, 0.626037
1852.14, 0.626116
1852.81, 0.625562
1853.47, 0.624692
1854.13, 0.625008
1854.8, 0.625404
1855.46, 0.625562
1856.12, 0.625325
1856.79, 0.625166
1857.45, 0.624929
1858.12, 0.624771
1858.79, 0.624375
1859.45, 0.624217
1860.12, 0.623979
1860.79, 0.624296
1861.46, 0.624217
1862.12, 0.624375
1862.79, 0.624296
1863.46, 0.624138
1864.13, 0.623505
1864.8, 0.623188
1865.48, 0.623267
1866.15, 0.623742
1866.82, 0.623425
1867.49, 0.622792
1868.16, 0.622476
1868.84, 0.622634
1869.51, 0.622159
1870.19, 0.621764
1870.86, 0.620814
1871.54, 0.620735
1872.21, 0.620735
1872.89, 0.620418
1873.56, 0.620181
1874.24, 0.620656
1874.92, 0.620339
1875.6, 0.619785
1876.28, 0.619310
1876.96, 0.618836
1877.64, 0.618757
1878.32, 0.618519
1879.0, 0.618123
1879.68, 0.617965
1880.36, 0.617174
1881.04, 0.616699
1881.73, 0.616066
1882.41, 0.615512
1883.09, 0.614879
1883.78, 0.614167
1884.46, 0.613454
1885.15, 0.613217
1885.83, 0.612742
1886.52, 0.612188
1887.21, 0.611634
1887.89, 0.611160
1888.58, 0.610368
1889.27, 0.609498
1889.96, 0.608469
1890.65, 0.607915
1891.34, 0.607124
1892.03, 0.606253
1892.72, 0.605541
1893.41, 0.604829
1894.1, 0.603800
1894.79, 0.603325
1895.49, 0.603088
1896.18, 0.602455
1896.87, 0.601505
1897.57, 0.600635
1898.26, 0.599606
1898.96, 0.598894
1899.65, 0.597865
1900.35, 0.597153
1901.05, 0.596678
1901.74, 0.596361
1902.44, 0.595491
1903.14, 0.595016
1903.84, 0.594620
1904.54, 0.593829
1905.24, 0.592879
1905.94, 0.592642
1906.64, 0.592246
1907.34, 0.592167
1908.04, 0.591692
1908.75, 0.591297
1909.45, 0.590743
1910.15, 0.590426
1910.86, 0.589635
1911.56, 0.589556
1912.27, 0.589477
1912.97, 0.588923
1913.68, 0.587973
1914.39, 0.587894
1915.09, 0.588052
1915.8, 0.588131
1916.51, 0.587736
1917.22, 0.587498
1917.93, 0.587102
1918.64, 0.587102
1919.35, 0.586865
1920.06, 0.586232
1920.77, 0.585599
1921.48, 0.586074
1922.19, 0.586311
1922.91, 0.586232
1923.62, 0.585520
1924.33, 0.585282
1925.05, 0.585203
1925.76, 0.585441
1926.48, 0.585362
1927.19, 0.585282
1927.91, 0.584966
1928.63, 0.584887
1929.35, 0.584887
1930.07, 0.585124
1930.78, 0.584808
1931.5, 0.584729
1932.22, 0.584570
1932.94, 0.584887
1933.66, 0.584966
1934.39, 0.584966
1935.11, 0.584649
1935.83, 0.584808
1936.55, 0.584649
1937.28, 0.584570
1938.0, 0.584333
1938.73, 0.584412
1939.45, 0.584649
1940.18, 0.584887
1940.9, 0.584966
1941.63, 0.585045
1942.36, 0.584649
1943.09, 0.584649
1943.81, 0.584570
1944.54, 0.584729
1945.27, 0.584729
1946.0, 0.584570
1946.73, 0.584491
1947.47, 0.584966
1948.2, 0.585045
1948.93, 0.585203
1949.66, 0.585124
1950.4, 0.585282
1951.13, 0.585282
1951.86, 0.585441
1952.6, 0.585362
1953.34, 0.585520
1954.07, 0.585836
1954.81, 0.586390
1955.55, 0.586390
1956.29, 0.586549
1957.02, 0.586786
1957.76, 0.587102
1958.5, 0.587102
1959.24, 0.587419
1959.98, 0.587894
1960.72, 0.588210
1961.47, 0.588290
1962.21, 0.588685
1962.95, 0.588923
1963.7, 0.589081
1964.44, 0.589160
1965.18, 0.589714
1965.93, 0.589714
1966.67, 0.589714
1967.42, 0.590268
1968.17, 0.590584
1968.92, 0.590743
1969.66, 0.590980
1970.41, 0.591059
1971.16, 0.591297
1971.91, 0.591455
1972.66, 0.591692
1973.41, 0.592009
1974.16, 0.592325
1974.92, 0.592167
1975.67, 0.592167
1976.42, 0.592088
1977.18, 0.592484
1977.93, 0.592721
1978.69, 0.593354
1979.44, 0.593592
1980.2, 0.593750
1980.95, 0.593750
1981.71, 0.594066
1982.47, 0.593987
1983.23, 0.593987
1983.99, 0.594146
1984.74, 0.594541
1985.51, 0.594541
1986.27, 0.594699
1987.03, 0.594858
1987.79, 0.594858
1988.55, 0.594937
1989.32, 0.595333
1990.08, 0.595333
1990.84, 0.595412
1991.61, 0.595333
1992.37, 0.595491
1993.14, 0.595491
1993.9, 0.595966
1994.67, 0.596045
1995.44, 0.595966
1996.21, 0.595966
1996.98, 0.596361
1997.75, 0.596440
1998.52, 0.596678
1999.29, 0.596836
2000.06, 0.596915
2000.83, 0.596915
2001.6, 0.597469
2002.38, 0.597548
2003.15, 0.597627
2003.93, 0.597627
2004.7, 0.597786
2005.48, 0.597865
2006.25, 0.597944
2007.03, 0.598023
2007.81, 0.598498
2008.58, 0.598656
2009.36, 0.598577
2010.14, 0.598577
2010.92, 0.598894
2011.7, 0.598814
2012.48, 0.598973
2013.26, 0.598894
2014.05, 0.599527
2014.83, 0.600002
2015.61, 0.600081
2016.4, 0.600081
2017.18, 0.600318
2017.97, 0.600397
2018.75, 0.600476
2019.54, 0.600714
2020.32, 0.600951
2021.11, 0.601030
2021.9, 0.601189
2022.69, 0.601189
2023.48, 0.601505
2024.27, 0.601743
2025.06, 0.601980
2025.85, 0.602138
2026.64, 0.602376
2027.44, 0.602692
2028.23, 0.603088
2029.02, 0.603167
2029.82, 0.603325
2030.61, 0.603404
2031.41, 0.603800
2032.2, 0.603721
2033.0, 0.604037
2033.8, 0.604196
2034.6, 0.604117
2035.4, 0.604354
2036.2, 0.604670
2037.0, 0.604670
2037.8, 0.604987
2038.6, 0.605145
2039.4, 0.605304
2040.2, 0.605145
2041.01, 0.605541
2041.81, 0.605699
2042.61, 0.605541
2043.42, 0.605541
2044.22, 0.605778
2045.03, 0.606095
2045.84, 0.606886
2046.65, 0.606728
2047.46, 0.606649
2048.26, 0.606728
2049.07, 0.606807
2049.88, 0.606807
2050.69, 0.607124
2051.51, 0.607203
2052.32, 0.607361
2053.13, 0.607440
2053.94, 0.607836
2054.76, 0.607757
2055.57, 0.607678
2056.39, 0.608152
2057.2, 0.608390
2058.02, 0.608311
2058.84, 0.608390
2059.66, 0.608073
2060.48, 0.608469
2061.29, 0.608627
2062.11, 0.608706
2062.94, 0.608548
2063.76, 0.608627
2064.58, 0.608311
2065.4, 0.608390
2066.22, 0.608627
2067.05, 0.608706
2067.87, 0.608706
2068.7, 0.608865
2069.52, 0.608865
2070.35, 0.609102
2071.18, 0.609260
2072.0, 0.609339
2072.83, 0.609102
2073.66, 0.609023
2074.49, 0.608944
2075.32, 0.609260
2076.15, 0.609102
2076.98, 0.609181
2077.82, 0.609181
2078.65, 0.609181
2079.48, 0.609102
2080.32, 0.609181
2081.15, 0.609023
2081.99, 0.609260
2082.83, 0.608944
2083.66, 0.609260
2084.5, 0.609339
2085.34, 0.609260
2086.18, 0.609102
2087.02, 0.609656
2087.86, 0.609973
2088.7, 0.609973
2089.54, 0.609498
2090.39, 0.609498
2091.23, 0.609260
2092.07, 0.609419
2092.92, 0.609419
2093.76, 0.609656
2094.61, 0.609339
2095.45, 0.609577
2096.3, 0.609498
2097.15, 0.609260
2098.0, 0.609023
2098.85, 0.609260
2099.7, 0.609339
2100.55, 0.609577
2101.4, 0.609498
2102.25, 0.609419
2103.1, 0.609260
2103.96, 0.609181
2104.81, 0.609102
2105.67, 0.609102
2106.52, 0.608944
2107.38, 0.608865
2108.24, 0.608786
2109.09, 0.608944
2109.95, 0.608706
2110.81, 0.608786
2111.67, 0.608786
2112.53, 0.608944
2113.39, 0.608706
2114.25, 0.608548
2115.12, 0.608469
2115.98, 0.608786
2116.84, 0.608706
2117.71, 0.608786
2118.58, 0.608786
2119.44, 0.608944
2120.31, 0.608706
2121.18, 0.608865
2122.04, 0.608865
2122.91, 0.608786
2123.78, 0.608944
2124.65, 0.609181
2125.52, 0.609260
2126.4, 0.609498
2127.27, 0.609656
2128.14, 0.609656
2129.02, 0.609577
2129.89, 0.609814
2130.77, 0.609656
2131.64, 0.609735
2132.52, 0.609814
2133.4, 0.609973
2134.27, 0.609814
2135.15, 0.609973
2136.03, 0.610289
2136.91, 0.610526
2137.79, 0.610289
2138.68, 0.610131
2139.56, 0.610210
2140.44, 0.610447
2141.33, 0.610447
2142.21, 0.610526
2143.1, 0.610447
2143.99, 0.610843
2144.87, 0.610526
2145.76, 0.610289
2146.65, 0.610368
2147.54, 0.610685
2148.43, 0.610685
2149.32, 0.610843
2150.21, 0.610764
2151.1, 0.610843
2151.99, 0.610764
2152.89, 0.610764
2153.78, 0.610685
2154.68, 0.611080
2155.57, 0.611001
2156.47, 0.611001
2157.37, 0.610843
2158.27, 0.610843
2159.16, 0.610606
2160.06, 0.610922
2160.96, 0.610922
2161.86, 0.610922
2162.77, 0.610922
2163.67, 0.610922
2164.57, 0.610843
2165.48, 0.611239
2166.38, 0.611080
2167.29, 0.611001
2168.2, 0.610922
2169.1, 0.611239
2170.01, 0.611001
2170.92, 0.610685
2171.83, 0.610606
2172.74, 0.611001
2173.65, 0.610922
2174.56, 0.610843
2175.47, 0.610447
2176.39, 0.610210
2177.3, 0.610131
2178.22, 0.610447
2179.13, 0.610210
2180.05, 0.610447
2180.96, 0.610447
2181.88, 0.610289
2182.8, 0.610131
2183.72, 0.610210
2184.64, 0.609973
2185.56, 0.610210
2186.48, 0.610368
2187.41, 0.610368
2188.33, 0.610052
2189.25, 0.609814
2190.18, 0.609735
2191.1, 0.609814
2192.03, 0.609735
2192.96, 0.609893
2193.89, 0.609577
2194.82, 0.609656
2195.74, 0.609419
2196.68, 0.609023
2197.61, 0.608944
2198.54, 0.608944
2199.47, 0.608706
2200.4, 0.608706
2201.34, 0.608548
2202.28, 0.608627
2203.21, 0.608548
2204.15, 0.608311
2205.08, 0.608073
2206.02, 0.608232
2206.96, 0.608073
2207.9, 0.607915
2208.84, 0.607757
2209.78, 0.607757
2210.73, 0.607519
2211.67, 0.607519
2212.61, 0.607282
2213.56, 0.607519
2214.5, 0.607361
2215.45, 0.607282
2216.4, 0.606965
2217.35, 0.607045
2218.3, 0.606965
2219.24, 0.606886
2220.2, 0.606807
2221.15, 0.606886
2222.1, 0.606728
2223.05, 0.606649
2224.0, 0.606491
2224.96, 0.606491
2225.91, 0.606332
2226.87, 0.606253
2227.83, 0.606095
2228.79, 0.606016
2229.74, 0.605857
2230.7, 0.605937
2231.66, 0.605937
2232.63, 0.605857
2233.59, 0.605699
2234.55, 0.605462
2235.51, 0.605462
2236.48, 0.605462
2237.44, 0.605145
2238.41, 0.605145
2239.38, 0.604908
2240.34, 0.604750
2241.31, 0.604512
2242.28, 0.604433
2243.25, 0.604196
2244.22, 0.604117
2245.19, 0.603958
2246.17, 0.603958
2247.14, 0.603563
2248.12, 0.603325
2249.09, 0.603088
2250.07, 0.602850
2251.04, 0.602929
2252.02, 0.603167
2253.0, 0.602929
2253.98, 0.602455
2254.96, 0.601822
2255.94, 0.601980
2256.92, 0.601822
2257.91, 0.601347
2258.89, 0.600872
2259.88, 0.601030
2260.86, 0.600951
2261.85, 0.600714
2262.83, 0.600081
2263.82, 0.599843
2264.81, 0.599685
2265.8, 0.599764
2266.79, 0.599527
2267.78, 0.599527
2268.78, 0.599289
2269.77, 0.599289
2270.76, 0.599368
2271.76, 0.599527
2272.75, 0.599368
2273.75, 0.599448
2274.75, 0.599448
2275.75, 0.599448
2276.75, 0.599382
2277.75, 0.599710
2278.75, 0.599513
2279.75, 0.599513
2280.75, 0.599710
2281.76, 0.599710
2282.76, 0.599185
2283.77, 0.598792
2284.77, 0.599054
2285.78, 0.599513
2286.79, 0.599447
2287.8, 0.599054
2288.81, 0.598333
2289.82, 0.598464
2290.83, 0.598267
2291.84, 0.598071
2292.86, 0.597808
2293.87, 0.597415
2294.89, 0.596497
2295.91, 0.596300
2296.92, 0.596235
2297.94, 0.595710
2298.96, 0.594792
2299.98, 0.594333
2301.0, 0.593546
2302.02, 0.592890
2303.04, 0.592563
2304.07, 0.592038
2305.09, 0.591513
2306.12, 0.591251
2307.15, 0.590923
2308.17, 0.590530
2309.2, 0.589940
2310.23, 0.589415
2311.26, 0.589087
2312.29, 0.588694
2313.32, 0.588038
2314.35, 0.587973
2315.39, 0.587710
2316.42, 0.587382
2317.46, 0.586858
2318.5, 0.586268
2319.53, 0.585678
2320.57, 0.585415
2321.61, 0.585153
2322.65, 0.584694
2323.69, 0.584366
2324.73, 0.584038
2325.78, 0.583579
2326.82, 0.583186
2327.86, 0.582596
2328.91, 0.582071
2329.96, 0.581088
2331.01, 0.580498
2332.05, 0.580170
2333.1, 0.579973
2334.15, 0.579580
2335.21, 0.578989
2336.26, 0.578334
2337.31, 0.577940
2338.36, 0.577481
2339.42, 0.577219
2340.48, 0.576694
2341.53, 0.575645
2342.59, 0.574268
2343.65, 0.573613
2344.71, 0.572760
2345.77, 0.572498
2346.83, 0.572432
2347.9, 0.572432
2348.96, 0.572301
2350.02, 0.572498
2351.09, 0.572891
2352.16, 0.573154
2353.23, 0.573613
2354.29, 0.573875
2355.36, 0.574334
2356.43, 0.575514
2357.51, 0.575842
2358.58, 0.575908
2359.65, 0.576301
2360.73, 0.577088
2361.8, 0.577612
2362.88, 0.577809
2363.96, 0.577612
2365.03, 0.577678
2366.11, 0.578071
2367.19, 0.578465
2368.27, 0.578530
2369.36, 0.578793
2370.44, 0.578858
2371.53, 0.578662
2372.61, 0.578530
2373.7, 0.578989
2374.78, 0.578727
2375.87, 0.578399
2376.96, 0.578399
2378.05, 0.578530
2379.14, 0.578334
2380.24, 0.578006
2381.33, 0.577678
2382.42, 0.577875
2383.52, 0.577875
2384.61, 0.577875
2385.71, 0.578137
2386.81, 0.578399
2387.91, 0.578137
2389.01, 0.578268
2390.11, 0.578530
2391.22, 0.578465
2392.32, 0.578465
2393.42, 0.578727
2394.53, 0.578858
2395.64, 0.579186
2396.74, 0.579121
2397.85, 0.579448
2398.96, 0.579186
2400.07, 0.579121
2401.18, 0.579580
2402.3, 0.579842
2403.41, 0.579776
2404.52, 0.579711
2405.64, 0.579645
2406.76, 0.579842
2407.88, 0.579842
2408.99, 0.579842
2410.11, 0.579580
2411.23, 0.579580
2412.36, 0.579252
2413.48, 0.578989
2414.6, 0.578662
2415.73, 0.578465
2416.85, 0.578399
2417.98, 0.578334
2419.11, 0.577481
2420.24, 0.577022
2421.37, 0.577285
2422.5, 0.577153
2423.64, 0.576367
2424.77, 0.575973
2425.9, 0.575842
2427.04, 0.575514
2428.18, 0.574858
2429.31, 0.574858
2430.45, 0.574137
2431.59, 0.573744
2432.73, 0.573350
2433.88, 0.573022
2435.02, 0.572236
2436.16, 0.571645
2437.31, 0.571121
2438.45, 0.571055
2439.6, 0.570924
2440.75, 0.570859
2441.9, 0.570400
2443.05, 0.570072
2444.2, 0.569482
2445.35, 0.569154
2446.51, 0.568695
2447.67, 0.568367
2448.82, 0.567973
2449.98, 0.567842
2451.14, 0.567515
2452.3, 0.567580
2453.46, 0.567056
2454.62, 0.566990
2455.78, 0.567056
2456.94, 0.567252
2458.11, 0.566793
2459.28, 0.566400
2460.44, 0.566072
2461.61, 0.565875
2462.78, 0.565547
2463.95, 0.565220
2465.12, 0.565023
2466.3, 0.564957
2467.47, 0.564564
2468.65, 0.564367
2469.82, 0.564302
2471.0, 0.564039
2472.18, 0.563777
2473.36, 0.563384
2474.54, 0.562793
2475.72, 0.562138
2476.9, 0.561679
2478.08, 0.561285
2479.27, 0.560498
2480.46, 0.560105
2481.64, 0.559581
2482.83, 0.558859
2484.02, 0.558138
2485.21, 0.557876
2486.4, 0.557351
2487.6, 0.556695
2488.79, 0.555712
2489.99, 0.554991
2491.18, 0.554400
2492.38, 0.554073
2493.58, 0.553417
2494.78, 0.552564
2495.98, 0.551974
2497.18, 0.551515
2498.39, 0.551253
2499.59, 0.550991
2500.8, 0.550466
2502.01, 0.550007
2503.21, 0.549483
2504.42, 0.549155
2505.63, 0.548696
2506.84, 0.548433
2508.06, 0.548106
2509.27, 0.547778
2510.49, 0.547384
2511.7, 0.547188
2512.92, 0.546860
2514.14, 0.546401
2515.36, 0.545614
2516.58, 0.545286
2517.8, 0.545024
2519.03, 0.545024
2520.25, 0.544893
2521.48, 0.544565
2522.7, 0.543844
2523.93, 0.543778
2525.16, 0.543844
2526.39, 0.543778
2527.62, 0.543253
2528.86, 0.543122
2530.09, 0.542991
2531.33, 0.542794
2532.56, 0.542532
2533.8, 0.542663
2535.04, 0.541942
2536.28, 0.541680
2537.52, 0.542532
2538.76, 0.542663
2540.01, 0.542335
2541.25, 0.541876
2542.5, 0.541090
2543.75, 0.541221
2544.99, 0.542073
2546.24, 0.542467
2547.49, 0.542073
2548.75, 0.542532
2550.0, 0.542335
2551.26, 0.541680
2552.51, 0.541352
2553.77, 0.543057
2555.03, 0.544368
2556.29, 0.544630
2557.55, 0.544630
2558.81, 0.543844
2560.08, 0.541286
2561.34, 0.538598
2562.61, 0.538270
2563.88, 0.539254
2565.14, 0.542139
2566.41, 0.544958
2567.68, 0.544696
2568.96, 0.541942
2570.23, 0.541745
2571.51, 0.543778
2572.78, 0.540762
2574.06, 0.541483
2575.34, 0.543188
2576.62, 0.541942
2577.9, 0.543647
2579.18, 0.545024
2580.47, 0.543188
2581.75, 0.542860
2583.04, 0.539385
2584.32, 0.538467
2585.61, 0.541549
2586.9, 0.540368
2588.2, 0.540827
2589.49, 0.542532
2590.78, 0.543712
2592.08, 0.542532
2593.37, 0.533811
2594.67, 0.524894
2595.97, 0.531123
2597.27, 0.539647
2598.57, 0.542926
2599.88, 0.542270
2601.18, 0.540237
2602.49, 0.538991
2603.79, 0.536500
2605.1, 0.532500
2606.41, 0.533811
2607.72, 0.536631
2609.03, 0.536696
2610.35, 0.537286
2611.66, 0.537745
2612.98, 0.536631
2614.3, 0.536631
2615.62, 0.532500
2616.94, 0.528697
2618.26, 0.531451
2619.58, 0.529025
2620.91, 0.528893
2622.23, 0.533746
2623.56, 0.535123
2624.89, 0.532893
2626.22, 0.528238
2627.55, 0.529090
2628.88, 0.527844
2630.21, 0.523058
2631.55, 0.526074
2632.89, 0.528238
2634.22, 0.527975
2635.56, 0.529418
2636.9, 0.529549
2638.25, 0.528828
2639.59, 0.527844
2640.93, 0.526598
2642.28, 0.525746
2643.63, 0.525287
2644.98, 0.522992
2646.33, 0.522402
2647.68, 0.523385
2649.03, 0.523320
2650.39, 0.521746
2651.74, 0.518468
2653.1, 0.517419
2654.46, 0.517681
2655.82, 0.517156
2657.18, 0.517615
2658.54, 0.515124
2659.9, 0.512894
2661.27, 0.512435
2662.64, 0.511452
2664.01, 0.505288
2665.38, 0.499124
2666.74, 0.498337
2668.12, 0.501157
2669.49, 0.495583
2670.87, 0.493092
2672.24, 0.500501
2673.62, 0.501485
2675.0, 0.497026
2676.38, 0.491780
2677.76, 0.490993
2679.15, 0.490600
2680.54, 0.492567
2681.92, 0.491715
2683.31, 0.488174
2684.7, 0.485551
2686.09, 0.483191
2687.48, 0.481158
2688.88, 0.479191
2690.27, 0.476699
2691.67, 0.472371
2693.07, 0.464896
2694.47, 0.460634
2695.87, 0.459520
2697.27, 0.458470
2698.67, 0.455585
2700.08, 0.450471
2701.49, 0.445291
2702.9, 0.442406
2704.31, 0.438209
2705.72, 0.433488
2707.13, 0.427390
2708.54, 0.419259
2709.96, 0.410473
2711.38, 0.405227
2712.8, 0.403457
2714.22, 0.398998
2715.64, 0.392637
2717.06, 0.385556
2718.49, 0.377163
2719.91, 0.365950
2721.34, 0.359983
2722.77, 0.354869
2724.2, 0.345558
2725.63, 0.340443
2727.07, 0.335984
2728.5, 0.328837
2729.94, 0.319788
2731.38, 0.310281
2732.82, 0.299855
2734.26, 0.289101
2735.7, 0.280971
2737.15, 0.272577
2738.59, 0.259332
2740.04, 0.246218
2741.49, 0.235661
2742.94, 0.226416
2744.39, 0.216056
2745.84, 0.204581
2747.3, 0.191073
2748.76, 0.175926
2750.21, 0.160452
2751.67, 0.146747
2753.14, 0.134354
2754.6, 0.122289
2756.06, 0.114224
2757.53, 0.112782
2759.0, 0.115536
2760.46, 0.119929
2761.94, 0.122945
2763.41, 0.125502
2764.88, 0.127207
2766.36, 0.127666
2767.83, 0.128453
2769.31, 0.130486
2770.79, 0.133305
2772.27, 0.137699
2773.76, 0.141698
2775.24, 0.144583
2776.73, 0.146682
2778.22, 0.148714
2779.71, 0.149960
2781.2, 0.150223
2782.69, 0.150288
2784.18, 0.150747
2785.68, 0.150550
2787.18, 0.150682
2788.68, 0.151468
2790.18, 0.152255
2791.68, 0.152517
2793.19, 0.152845
2794.69, 0.153042
2796.2, 0.153173
2797.71, 0.153108
2799.22, 0.152911
2800.73, 0.152124
2802.24, 0.150878
2803.76, 0.150091
2805.28, 0.149960
2806.8, 0.149632
2808.32, 0.149436
2809.84, 0.149239
2811.36, 0.149305
2812.89, 0.149173
2814.42, 0.148911
2815.94, 0.148780
2817.48, 0.148977
2819.01, 0.148714
2820.54, 0.148387
2822.08, 0.148059
2823.61, 0.147600
2825.15, 0.146878
2826.69, 0.146026
2828.23, 0.145239
2829.78, 0.144583
2831.32, 0.143797
2832.87, 0.142813
2834.42, 0.141829
2835.97, 0.140911
2837.52, 0.140125
2839.08, 0.139403
2840.63, 0.138682
2842.19, 0.138026
2843.75, 0.137043
2845.31, 0.136256
2846.87, 0.135469
2848.44, 0.134617
2850.0, 0.133764
2851.57, 0.132977
2853.14, 0.132125
2854.71, 0.131404
2856.28, 0.130682
2857.86, 0.129961
2859.43, 0.129109
2861.01, 0.128256
2862.59, 0.127273
2864.17, 0.126486
2865.76, 0.125633
2867.34, 0.124978
2868.93, 0.124322
2870.52, 0.123470
2872.11, 0.122421
2873.7, 0.121699
2875.29, 0.120978
2876.89, 0.120519
2878.49, 0.119863
2880.08, 0.119404
2881.69, 0.118880
2883.29, 0.118421
2884.89, 0.117765
2886.5, 0.117240
2888.11, 0.116781
2889.72, 0.116519
2891.33, 0.116126
2892.94, 0.115601
2894.56, 0.115208
2896.17, 0.114945
2897.79, 0.114618
2899.42, 0.114486
2901.04, 0.114093
2902.66, 0.113765
2904.29, 0.113241
2905.92, 0.113044
2907.55, 0.112716
2909.18, 0.112519
2910.81, 0.112257
2912.45, 0.111995
2914.08, 0.111667
2915.72, 0.111405
2917.36, 0.111142
2919.01, 0.111142
2920.65, 0.111011
2922.3, 0.110749
2923.94, 0.110421
2925.59, 0.110421
2927.25, 0.110290
2928.9, 0.110224
2930.56, 0.109962
2932.21, 0.109765
2933.87, 0.109765
2935.53, 0.110028
2937.2, 0.110028
2938.86, 0.110159
2940.53, 0.110224
2942.2, 0.110159
2943.87, 0.110224
2945.54, 0.110421
2947.22, 0.110487
2948.89, 0.110618
2950.57, 0.110683
2952.25, 0.110618
2953.93, 0.110880
2955.62, 0.111142
2957.3, 0.111405
2958.99, 0.111798
2960.68, 0.111798
2962.37, 0.111929
2964.07, 0.112126
2965.76, 0.112388
2967.46, 0.112716
2969.16, 0.113044
2970.86, 0.113109
2972.56, 0.113306
2974.27, 0.113700
2975.98, 0.114027
2977.69, 0.114093
2979.4, 0.114421
2981.11, 0.114814
2982.83, 0.115142
2984.54, 0.115470
2986.26, 0.115667
2987.98, 0.115995
2989.71, 0.116454
2991.43, 0.116847
2993.16, 0.117306
2994.89, 0.117699
2996.62, 0.118093
2998.35, 0.118158
3000.09, 0.118552
3001.83, 0.119142
3003.57, 0.119470
3005.31, 0.119667
3007.05, 0.120191
3008.79, 0.120650
3010.54, 0.121044
3012.29, 0.121240
3014.04, 0.121699
3015.8, 0.122027
3017.55, 0.122421
3019.31, 0.122880
3021.07, 0.123273
3022.83, 0.123601
3024.59, 0.123929
3026.36, 0.124322
3028.13, 0.124781
3029.9, 0.125043
3031.67, 0.125437
3033.44, 0.125830
3035.22, 0.126224
3037.0, 0.126617
3038.78, 0.127010
3040.56, 0.127404
3042.34, 0.127863
3044.13, 0.128322
3045.92, 0.128650
3047.71, 0.128912
3049.5, 0.129437
3051.3, 0.129896
3053.09, 0.130355
3054.89, 0.130551
3056.69, 0.130945
3058.5, 0.131404
3060.3, 0.131863
3062.11, 0.132387
3063.92, 0.133043
3065.73, 0.133305
3067.55, 0.133699
3069.36, 0.134223
3071.18, 0.134879
3073.0, 0.135404
3074.82, 0.135994
3076.65, 0.136322
3078.48, 0.136846
3080.31, 0.137240
3082.14, 0.137764
3083.97, 0.138289
3085.8, 0.138813
3087.64, 0.139534
3089.48, 0.140190
3091.33, 0.140715
3093.17, 0.141370
3095.02, 0.142026
3096.87, 0.142616
3098.72, 0.143010
3100.57, 0.143797
3102.43, 0.144583
3104.28, 0.145305
3106.14, 0.145764
3108.01, 0.146551
3109.87, 0.147469
3111.74, 0.148255
3113.61, 0.148911
3115.48, 0.149698
3117.35, 0.150485
3119.23, 0.151272
3121.1, 0.151993
3122.98, 0.152780
3124.87, 0.153435
3126.75, 0.154419
3128.64, 0.155403
3130.53, 0.156255
3132.42, 0.157173
3134.31, 0.158353
3136.21, 0.159206
3138.11, 0.159993
3140.01, 0.160845
3141.91, 0.161763
3143.82, 0.162550
3145.73, 0.163533
3147.64, 0.164517
3149.55, 0.165435
3151.46, 0.166287
3153.38, 0.167336
3155.3, 0.168189
3157.22, 0.169107
3159.14, 0.170156
3161.07, 0.171336
3163.0, 0.172320
3164.93, 0.173303
3166.86, 0.174287
3168.8, 0.175205
3170.74, 0.176057
3172.68, 0.177106
3174.62, 0.178024
3176.56, 0.179008
3178.51, 0.180057
3180.46, 0.181041
3182.42, 0.182024
3184.37, 0.183008
3186.33, 0.183795
3188.29, 0.184713
3190.25, 0.185762
3192.21, 0.186877
3194.18, 0.187860
3196.15, 0.188844
3198.12, 0.189827
3200.09, 0.190811
3202.07, 0.191598
3204.05, 0.192581
3206.03, 0.193630
3208.02, 0.194483
3210.0, 0.195204
3211.99, 0.196188
3213.98, 0.197171
3215.98, 0.198220
3217.97, 0.199138
3219.97, 0.199991
3221.97, 0.200778
3223.98, 0.201827
3225.98, 0.202810
3227.99, 0.203663
3230.0, 0.204384
3232.02, 0.205236
3234.03, 0.206089
3236.05, 0.207072
3238.07, 0.207990
3240.1, 0.208908
3242.12, 0.209564
3244.15, 0.210285
3246.18, 0.211138
3248.22, 0.211859
3250.25, 0.212515
3252.29, 0.213433
3254.33, 0.214285
3256.38, 0.214941
3258.43, 0.215465
3260.47, 0.216383
3262.53, 0.217105
3264.58, 0.217891
3266.64, 0.218613
3268.7, 0.219268
3270.76, 0.219924
3272.82, 0.220580
3274.89, 0.221170
3276.96, 0.221760
3279.04, 0.222350
3281.11, 0.222940
3283.19, 0.223531
3285.27, 0.223990
3287.35, 0.224580
3289.44, 0.225104
3291.53, 0.225694
3293.62, 0.226416
3295.71, 0.227006
3297.81, 0.227268
3299.91, 0.227596
3302.01, 0.228252
3304.11, 0.228711
3306.22, 0.229038
3308.33, 0.229366
3310.44, 0.229760
3312.56, 0.230219
3314.68, 0.230678
3316.8, 0.230940
3318.92, 0.231268
3321.05, 0.231661
3323.18, 0.231989
3325.31, 0.232120
3327.44, 0.232317
3329.58, 0.232448
3331.72, 0.232645
3333.86, 0.232710
3336.01, 0.232710
3338.16, 0.232645
3340.31, 0.232710
3342.46, 0.232514
3344.61, 0.232448
3346.77, 0.232120
3348.94, 0.231989
3351.1, 0.231858
3353.27, 0.231596
3355.44, 0.231399
3357.61, 0.231465
3359.79, 0.231727
3361.97, 0.231727
3364.15, 0.231661
3366.33, 0.231661
3368.52, 0.231661
3370.71, 0.231727
3372.9, 0.231661
3375.1, 0.231858
3377.3, 0.232055
3379.5, 0.232251
3381.71, 0.232317
3383.91, 0.232448
3386.12, 0.232645
3388.34, 0.233038
3390.55, 0.233301
3392.77, 0.233235
3394.99, 0.233104
3397.22, 0.233301
3399.45, 0.233497
3401.68, 0.233760
3403.91, 0.233825
3406.15, 0.233891
3408.39, 0.234087
3410.63, 0.234219
3412.87, 0.234350
3415.12, 0.234612
3417.37, 0.235005
3419.63, 0.235399
3421.88, 0.235858
3424.14, 0.236579
3426.41, 0.237235
3428.67, 0.237694
3430.94, 0.238022
3433.21, 0.238481
3435.49, 0.238809
3437.77, 0.239333
3440.05, 0.239792
3442.33, 0.240317
3444.62, 0.240710
3446.91, 0.241104
3449.2, 0.241431
3451.5, 0.241694
3453.8, 0.241956
3456.1, 0.242415
3458.41, 0.242939
3460.72, 0.243267
3463.03, 0.243530
3465.34, 0.243792
3467.66, 0.244120
3469.98, 0.244448
3472.31, 0.244841
3474.63, 0.245366
3476.96, 0.245825
3479.3, 0.246349
3481.64, 0.246743
3483.97, 0.247267
3486.32, 0.247595
3488.66, 0.248120
3491.01, 0.248579
3493.36, 0.248906
3495.72, 0.249234
3498.08, 0.249628
3500.44, 0.249956
3502.81, 0.250480
3505.18, 0.251070
3507.55, 0.251792
3509.92, 0.252513
3512.3, 0.253169
3514.68, 0.253824
3517.06, 0.254808
3519.45, 0.255857
3521.84, 0.256840
3524.24, 0.257693
3526.64, 0.258611
3529.04, 0.259398
3531.44, 0.260250
3533.85, 0.261168
3536.26, 0.262152
3538.67, 0.263135
3541.09, 0.264053
3543.51, 0.265102
3545.93, 0.266283
3548.36, 0.267135
3550.79, 0.268053
3553.22, 0.269102
3555.66, 0.270151
3558.1, 0.271004
3560.54, 0.272184
3562.99, 0.273364
3565.44, 0.274741
3567.9, 0.275922
3570.35, 0.277167
3572.81, 0.278544
3575.28, 0.279987
3577.75, 0.281167
3580.22, 0.282282
3582.69, 0.283528
3585.17, 0.284708
3587.65, 0.285692
3590.14, 0.286806
3592.62, 0.287659
3595.11, 0.288577
3597.61, 0.289495
3600.11, 0.290347
3602.61, 0.291200
3605.11, 0.291986
3607.62, 0.292773
3610.14, 0.293691
3612.65, 0.294478
3615.17, 0.295331
3617.69, 0.296248
3620.22, 0.297363
3622.75, 0.298281
3625.28, 0.299199
3627.82, 0.300052
3630.36, 0.300838
3632.9, 0.301691
3635.45, 0.302478
3638.0, 0.303330
3640.56, 0.304248
3643.12, 0.305035
3645.68, 0.305756
3648.24, 0.306543
3650.81, 0.307461
3653.39, 0.308182
3655.96, 0.308904
3658.54, 0.309691
3661.13, 0.310543
3663.71, 0.311264
3666.3, 0.311985
3668.9, 0.312707
3671.5, 0.313559
3674.1, 0.314346
3676.7, 0.315133
3679.31, 0.315789
3681.93, 0.316575
3684.54, 0.317362
3687.17, 0.318084
3689.79, 0.318674
3692.42, 0.319395
3695.05, 0.320116
3697.69, 0.320838
3700.32, 0.321559
3702.97, 0.322280
3705.61, 0.323067
3708.27, 0.323854
3710.92, 0.324378
3713.58, 0.325034
3716.24, 0.325624
3718.91, 0.326411
3721.58, 0.327067
3724.25, 0.327657
3726.93, 0.328181
3729.61, 0.328837
3732.29, 0.329493
3734.98, 0.330345
3737.67, 0.331067
3740.37, 0.331657
3743.07, 0.332116
3745.78, 0.332640
3748.49, 0.333230
3751.2, 0.333755
3753.91, 0.334214
3756.63, 0.334804
3759.36, 0.335460
3762.09, 0.336115
3764.82, 0.336574
3767.55, 0.337165
3770.29, 0.337689
3773.04, 0.338083
3775.78, 0.338279
3778.54, 0.338869
3781.29, 0.339328
3784.05, 0.339591
3786.82, 0.339722
3789.59, 0.339787
3792.36, 0.339787
3795.13, 0.339787
3797.92, 0.339722
3800.7, 0.339722
3803.49, 0.339656
3806.28, 0.339525
3809.08, 0.339328
3811.88, 0.339394
3814.68, 0.339263
3817.49, 0.339066
3820.31, 0.339066
3823.12, 0.338935
3825.94, 0.338542
3828.77, 0.338345
3831.6, 0.338148
3834.43, 0.337886
3837.27, 0.337492
3840.11, 0.337099
3842.96, 0.336706
3845.81, 0.336443
3848.67, 0.335984
3851.53, 0.335591
3854.39, 0.335329
3857.26, 0.334935
3860.13, 0.334476
3863.01, 0.334148
3865.89, 0.333755
3868.77, 0.333493
3871.66, 0.333165
3874.55, 0.332771
3877.45, 0.332050
3880.35, 0.331591
3883.26, 0.331132
3886.17, 0.330673
3889.09, 0.330149
3892.01, 0.329690
3894.93, 0.328903
3897.86, 0.328247
3900.79, 0.327591
3903.73, 0.326936
3906.67, 0.326083
3909.62, 0.325165
3912.57, 0.324444
3915.52, 0.323854
3918.48, 0.322870
3921.45, 0.321887
3924.42, 0.320903
3927.39, 0.319985
3930.37, 0.318936
3933.35, 0.317821
3936.34, 0.316772
3939.33, 0.315657
3942.32, 0.314477
3945.32, 0.313231
3948.33, 0.311985
3951.34, 0.310740
3954.35, 0.309428
3957.37, 0.308117
3960.39, 0.306543
3963.42, 0.304969
3966.45, 0.303330
3969.49, 0.301691
3972.53, 0.299855
3975.58, 0.298150
3978.63, 0.296314
3981.68, 0.294609
3984.75, 0.292904
3987.81, 0.291265
3990.88, 0.289560
3993.95, 0.287921
3997.03, 0.286085
4000.12, 0.284315
4003.21, 0.282807
4006.3, 0.281233
4009.4, 0.279397
4012.5, 0.277758
4015.61, 0.276184
4018.72, 0.274807
4021.84, 0.273561
4024.96, 0.272512
4028.09, 0.271791
4031.22, 0.271332
4034.36, 0.271200
4037.5, 0.271266
4040.65, 0.271200
4043.8, 0.271200
4046.96, 0.271266
4050.12, 0.271463
4053.29, 0.271397
4056.46, 0.271594
4059.64, 0.271856
4062.82, 0.272250
4066.0, 0.272643
4069.19, 0.273299
4072.39, 0.274020
4075.59, 0.274872
4078.8, 0.275659
4082.01, 0.276446
4085.23, 0.277233
4088.45, 0.278020
4091.68, 0.278807
4094.91, 0.279790
4098.15, 0.280774
4101.39, 0.281561
4104.63, 0.282347
4107.89, 0.283331
4111.14, 0.284380
4114.41, 0.285364
4117.67, 0.286282
4120.95, 0.287200
4124.23, 0.288052
4127.51, 0.289101
4130.8, 0.289954
4134.09, 0.290937
4137.39, 0.291855
4140.7, 0.292773
4144.01, 0.293691
4147.32, 0.294609
4150.64, 0.295462
4153.97, 0.296248
4157.3, 0.296970
4160.64, 0.297757
4163.98, 0.298543
4167.33, 0.299396
4170.68, 0.300117
4174.04, 0.300773
4177.4, 0.301429
4180.77, 0.302084
4184.14, 0.302674
4187.52, 0.303265
4190.91, 0.303724
4194.3, 0.304379
4197.69, 0.304904
4201.1, 0.305363
4204.5, 0.305560
4207.92, 0.305887
4211.34, 0.306084
4214.76, 0.306346
4218.19, 0.306478
4221.62, 0.306543
4225.06, 0.306740
4228.51, 0.307133
4231.96, 0.307527
4235.42, 0.307920
4238.88, 0.308248
4242.35, 0.308707
4245.83, 0.309166
4249.31, 0.309822
4252.79, 0.310477
4256.28, 0.311067
4259.78, 0.311199
4263.29, 0.311067
4266.79, 0.311133
4270.31, 0.311264
4273.83, 0.311526
4277.35, 0.311854
4280.89, 0.312117
4284.42, 0.312379
4287.97, 0.312707
4291.52, 0.313166
4295.07, 0.313494
4298.63, 0.313887
4302.2, 0.314280
4305.78, 0.314805
4309.35, 0.315461
4312.94, 0.315985
4316.53, 0.316379
4320.13, 0.316838
4323.73, 0.317362
4327.34, 0.317821
4330.96, 0.318149
4334.58, 0.318739
4338.21, 0.319264
4341.84, 0.319592
4345.48, 0.319920
4349.12, 0.320313
4352.77, 0.320641
4356.43, 0.321034
4360.1, 0.321297
4363.76, 0.321690
4367.44, 0.322018
4371.12, 0.322346
4374.81, 0.322608
4378.51, 0.322936
4382.21, 0.323264
4385.92, 0.323460
4389.63, 0.323854
4393.35, 0.324247
4397.08, 0.324378
4400.81, 0.324509
4404.55, 0.324706
4408.29, 0.324968
4412.04, 0.325100
4415.8, 0.325427
4419.57, 0.325690
4423.34, 0.325952
4427.12, 0.326149
4430.9, 0.326280
4434.69, 0.326149
4438.49, 0.326149
4442.29, 0.326149
4446.1, 0.326280
4449.92, 0.326214
4453.74, 0.326214
4457.57, 0.326083
4461.41, 0.326018
4465.25, 0.325952
4469.1, 0.325886
4472.95, 0.325821
4476.82, 0.325755
4480.69, 0.325559
4484.56, 0.325493
4488.44, 0.325427
4492.33, 0.325231
4496.23, 0.324968
4500.13, 0.324837
4504.04, 0.324575
4507.96, 0.324378
4511.88, 0.324182
4515.81, 0.323854
4519.75, 0.323526
4523.69, 0.323198
4527.65, 0.322739
4531.6, 0.322280
4535.57, 0.321755
4539.54, 0.321100
4543.52, 0.320313
4547.5, 0.319657
4551.5, 0.318870
4555.5, 0.318149
4559.5, 0.317166
4563.52, 0.316182
4567.54, 0.315133
4571.56, 0.314084
4575.6, 0.312903
4579.64, 0.311658
4583.69, 0.310477
4587.75, 0.309297
4591.81, 0.307986
4595.88, 0.306609
4599.96, 0.305166
4604.04, 0.303986
4608.14, 0.302609
4612.24, 0.301363
4616.34, 0.300117
4620.46, 0.298740
4624.58, 0.297166
4628.71, 0.295593
4632.84, 0.293954
4636.99, 0.292249
4641.14, 0.290413
4645.3, 0.288249
4649.47, 0.285692
4653.64, 0.283003
4657.82, 0.280118
4662.01, 0.277167
4666.21, 0.274086
4670.41, 0.271004
4674.62, 0.267856
4678.84, 0.264840
4683.07, 0.261889
4687.3, 0.259135
4691.54, 0.256447
4695.79, 0.253824
4700.05, 0.251136
4704.31, 0.248513
4708.59, 0.246021
4712.87, 0.243530
4717.15, 0.240841
4721.45, 0.238153
4725.76, 0.235333
4730.07, 0.232579
4734.39, 0.229694
4738.72, 0.227071
4743.05, 0.224514
4747.39, 0.222219
4751.75, 0.220121
4756.1, 0.218023
4760.47, 0.215924
4764.85, 0.213957
4769.23, 0.211990
4773.62, 0.210023
4778.02, 0.207794
4782.43, 0.205367
4786.85, 0.203204
4791.27, 0.201105
4795.7, 0.198876
4800.14, 0.196974
4804.59, 0.195073
4809.05, 0.193368
4813.51, 0.191598
4817.99, 0.190090
4822.47, 0.188713
4826.96, 0.187532
4831.46, 0.186418
4835.96, 0.185434
4840.48, 0.184319
4845.0, 0.183270
4849.54, 0.182024
4854.08, 0.180647
4858.63, 0.179139
4863.18, 0.177566
4867.75, 0.175861
4872.33, 0.174221
4876.91, 0.172517
4881.5, 0.171140
4886.1, 0.169697
4890.71, 0.168320
4895.33, 0.167009
4899.96, 0.165566
4904.59, 0.163992
4909.24, 0.162419
4913.89, 0.160583
4918.55, 0.158747
4923.22, 0.156714
4927.9, 0.154681
4932.59, 0.152583
4937.29, 0.150288
4942.0, 0.147796
4946.71, 0.145305
4951.44, 0.142616
4956.17, 0.139993
4960.91, 0.137436
4965.67, 0.134945
4970.43, 0.132584
4975.2, 0.130486
4979.98, 0.128453
4984.76, 0.126551
4989.56, 0.124847
4994.37, 0.123404
4999.18, 0.122027
5004.01, 0.120650
5008.84, 0.119404
5013.69, 0.118355
5018.54, 0.117240
5023.4, 0.116454
5028.28, 0.115667
5033.16, 0.114880
5038.05, 0.114093
5042.95, 0.113241
5047.86, 0.112323
5052.78, 0.111601
5057.71, 0.110946
5062.65, 0.110290
5067.6, 0.109700
5072.56, 0.109306
5077.53, 0.108782
5082.5, 0.107995
5087.49, 0.107077
5092.49, 0.106159
5097.5, 0.105044
5102.51, 0.103995
5107.54, 0.103012
5112.58, 0.102225
5117.62, 0.101700
5122.68, 0.101503
5127.75, 0.101569
5132.82, 0.101700
5137.91, 0.101962
5143.01, 0.102290
5148.12, 0.102618
5153.23, 0.103274
5158.36, 0.103602
5163.5, 0.103930
5168.65, 0.104192
5173.81, 0.104192
5178.98, 0.103995
5184.15, 0.103667
5189.34, 0.103143
5194.54, 0.102553
5199.75, 0.101700
5204.98, 0.100979
5210.21, 0.0998640
5215.45, 0.0988810
5220.7, 0.0981590
5225.96, 0.0972410
5231.23, 0.0962580
5236.52, 0.0951430
5241.81, 0.0941600
5247.12, 0.0931760
5252.44, 0.0920610
5257.76, 0.0911430
5263.1, 0.0903560
5268.45, 0.0897660
5273.81, 0.0892420
5279.18, 0.0890450
5284.56, 0.0889790
5289.95, 0.0891110
5295.36, 0.0895700
5300.77, 0.0902250
5306.2, 0.0906190
5311.63, 0.0911430
5317.08, 0.0917990
5322.54, 0.0925860
5328.01, 0.0933730
5333.49, 0.0942910
5338.98, 0.0952090
5344.49, 0.0960610
5350.0, 0.0968480
5355.53, 0.0984220
5361.07, 0.100061
5366.62, 0.101635
5372.18, 0.103012
5377.75, 0.104454
5383.34, 0.105962
5388.93, 0.107602
5394.54, 0.109175
5400.16, 0.110880
5405.79, 0.112454
5411.44, 0.113962
5417.09, 0.114880
5422.76, 0.115929
5428.43, 0.118158
5434.12, 0.119994
5439.83, 0.121044
5445.54, 0.121896
5451.26, 0.122289
5457.0, 0.122158
5462.75, 0.121503
5468.52, 0.121109
5474.29, 0.120388
5480.08, 0.119339
5485.88, 0.118552
5491.69, 0.117372
5497.51, 0.115863
5503.35, 0.114093
5509.2, 0.112454
5515.06, 0.110552
5520.93, 0.108323
5526.82, 0.106159
5532.71, 0.103995
5538.63, 0.101766
5544.55, 0.0994050
5550.49, 0.0969790
5556.44, 0.0949460
5562.4, 0.0931100
5568.37, 0.0910120
5574.36, 0.0885200
5580.36, 0.0864880
5586.37, 0.0855040
5592.4, 0.0841930
5598.44, 0.0824880
5604.49, 0.0811110
5610.56, 0.0799960
5616.63, 0.0789470
5622.73, 0.0782260
5628.83, 0.0774390
5634.95, 0.0763240
5641.08, 0.0752750
5647.23, 0.0752750
5653.39, 0.0752750
5659.56, 0.0753410
5665.74, 0.0754060
5671.94, 0.0749470
5678.15, 0.0748160
5684.38, 0.0750780
5690.62, 0.0749470
5696.87, 0.0750130
5703.14, 0.0747510
5709.42, 0.0741600
5715.72, 0.0740950
5722.03, 0.0741600
5728.35, 0.0740950
5734.69, 0.0738980
5741.03, 0.0737010
5747.4, 0.0736360
5753.78, 0.0741600
5760.17, 0.0739640
5766.58, 0.0737010
5773.0, 0.0750780
5779.44, 0.0763240
5785.88, 0.0770460
5792.35, 0.0773730
5798.83, 0.0773080
5805.32, 0.0771770
5811.83, 0.0764550
5818.35, 0.0749470
5824.89, 0.0742260
5831.45, 0.0742920
5838.01, 0.0740290
5844.59, 0.0734390
5851.19, 0.0725210
5857.8, 0.0714070
5864.43, 0.0704890
5871.07, 0.0697020
5877.73, 0.0676690
5884.4, 0.0668820
5891.09, 0.0666200
5897.79, 0.0657670
5904.5, 0.0660950
5911.23, 0.0660300
5917.98, 0.0655050
5924.75, 0.0651120
5931.53, 0.0639310
5938.32, 0.0633410
5945.13, 0.0642590
5951.96, 0.0645220
5958.8, 0.0644560
5965.65, 0.0638660
5972.53, 0.0638660
5979.42, 0.0641280
5986.32, 0.0636690
5993.24, 0.0636040
6000.18, 0.0639310
6007.13, 0.0637350
6014.1, 0.0632760
6021.08, 0.0631450
6028.09, 0.0629480
6035.1, 0.0623580
6042.14, 0.0607840
6049.19, 0.0594730
6056.25, 0.0607840
6063.34, 0.0613740
6070.44, 0.0609150
6077.55, 0.0612430
6084.69, 0.0619640
6091.84, 0.0621610
6099.0, 0.0621610
6106.19, 0.0615710
6113.39, 0.0609810
6120.61, 0.0617020
6127.84, 0.0623580
6135.09, 0.0622920
6142.36, 0.0622270
6149.65, 0.0622920
6156.95, 0.0620950
6164.27, 0.0622920
6171.61, 0.0626200
6178.97, 0.0619640
6186.34, 0.0613090
6193.73, 0.0616360
6201.14, 0.0615050
6208.57, 0.0609810
6216.01, 0.0603910
6223.47, 0.0598660
6230.95, 0.0594730
6238.45, 0.0592100
6245.97, 0.0591450
6253.5, 0.0591450
6261.06, 0.0592100
6268.63, 0.0594070
6276.21, 0.0597350
6283.82, 0.0601280
6291.45, 0.0605870
6299.1, 0.0611120
6306.76, 0.0617020
6314.44, 0.0622920
6322.14, 0.0628170
6329.86, 0.0633410
6337.6, 0.0632100
6345.35, 0.0635380
6353.13, 0.0652430
6360.92, 0.0662920
6368.74, 0.0668820
6376.57, 0.0681940
6384.43, 0.0695710
6392.3, 0.0706200
6400.19, 0.0711440
6408.1, 0.0703570
6416.03, 0.0708820
6423.98, 0.0733080
6431.95, 0.0747510
6439.94, 0.0760620
6447.95, 0.0773730
6455.98, 0.0784880
6464.03, 0.0794720
6472.1, 0.0798650
6480.19, 0.0802590
6488.31, 0.0802590
6496.44, 0.0813730
6504.59, 0.0839960
6512.76, 0.0852420
6520.95, 0.0856350
6529.16, 0.0868810
6537.4, 0.0876680
6545.65, 0.0878650
6553.92, 0.0878650
6562.22, 0.0877990
6570.54, 0.0872090
6578.88, 0.0879960
6587.23, 0.0887830
6595.61, 0.0889140
6604.02, 0.0893070
6612.44, 0.0891760
6620.89, 0.0888480
6629.35, 0.0876020
6637.84, 0.0864880
6646.35, 0.0876020
6654.88, 0.0883890
6663.44, 0.0877340
6672.01, 0.0866840
6680.61, 0.0856350
6689.23, 0.0855040
6697.88, 0.0853080
6706.54, 0.0841930
6715.23, 0.0834060
6723.94, 0.0829470
6732.67, 0.0824880
6741.42, 0.0818320
6750.2, 0.0808490
6759.0, 0.0799960
6767.82, 0.0788160
6776.67, 0.0775700
6785.54, 0.0761280
6794.44, 0.0753410
6803.35, 0.0754720
6812.29, 0.0749470
6821.26, 0.0737670
6830.24, 0.0729800
6839.25, 0.0727830
6848.29, 0.0718000
6857.35, 0.0702260
6866.43, 0.0695710
6875.54, 0.0703570
6884.67, 0.0701610
6893.82, 0.0695710
6903.0, 0.0688490
6912.2, 0.0685870
6921.43, 0.0683900
6930.69, 0.0680620
6939.96, 0.0677350
6949.27, 0.0672100
6958.59, 0.0665540
6967.95, 0.0668820
6977.33, 0.0672760
6986.73, 0.0672760
6996.16, 0.0671440
7005.61, 0.0673410
7015.09, 0.0673410
7024.6, 0.0671440
7034.13, 0.0668820
7043.69, 0.0662260
7053.27, 0.0662260
7062.88, 0.0665540
7072.52, 0.0664230
7082.18, 0.0662260
7091.87, 0.0659640
7101.58, 0.0657670
7111.32, 0.0654400
7121.09, 0.0651770
7130.88, 0.0649810
7140.71, 0.0645220
7150.56, 0.0641280
7160.43, 0.0636690
7170.33, 0.0630130
7180.27, 0.0626860
7190.23, 0.0621610
7200.21, 0.0614400
7210.23, 0.0607180
7220.27, 0.0605220
7230.34, 0.0601280
7240.44, 0.0597350
7250.56, 0.0592100
7260.72, 0.0586200
7270.9, 0.0579650
7281.12, 0.0575710
7291.36, 0.0573090
7301.63, 0.0569150
7311.93, 0.0565220
7322.25, 0.0559970
7332.61, 0.0552110
7343.0, 0.0546860
7353.41, 0.0542270
7363.86, 0.0536370
7374.33, 0.0529810
7384.83, 0.0524570
7395.37, 0.0518010
7405.93, 0.0510800
7416.53, 0.0503580
7427.15, 0.0495710
7437.81, 0.0486530
7448.5, 0.0476700
7459.22, 0.0466210
7469.96, 0.0457030
7480.74, 0.0449160
7491.55, 0.0441950
7502.39, 0.0433420
7513.27, 0.0422930
7524.17, 0.0414410
7535.11, 0.0408510
7546.08, 0.0400640
7557.08, 0.0391460
7568.11, 0.0382280
7579.17, 0.0375060
7590.27, 0.0367200
7601.4, 0.0359980
7612.56, 0.0352110
7623.76, 0.0344250
7634.98, 0.0335070
7646.24, 0.0327200
7657.54, 0.0321300
7668.87, 0.0315400
7680.23, 0.0308180
7691.62, 0.0303590
7703.05, 0.0297690
7714.51, 0.0290480
7726.01, 0.0284580
7737.54, 0.0278680
7749.11, 0.0272120
7760.71, 0.0266220
7772.35, 0.0261630
7784.02, 0.0257040
7795.72, 0.0252450
7807.46, 0.0247860
7819.23, 0.0243270
7831.04, 0.0239990
7842.89, 0.0237370
7854.77, 0.0235400
7866.69, 0.0231460
7878.65, 0.0226870
7890.64, 0.0223600
7902.67, 0.0221630
7914.74, 0.0220320
7926.84, 0.0218350
7938.98, 0.0216380
7951.16, 0.0214420
7963.37, 0.0213100
7975.62, 0.0211790
7987.91, 0.0209830
8000.24, 0.0208510
8012.6, 0.0205890
8025.01, 0.0203270
8037.45, 0.0199330
8049.93, 0.0197370
8062.45, 0.0196060
8075.01, 0.0194090
8087.61, 0.0189500
8100.24, 0.0186220
8112.91, 0.0184910
8125.63, 0.0182940
8138.39, 0.0179660
8151.18, 0.0178350
8164.02, 0.0174420
8176.9, 0.0169830
8189.81, 0.0167860
8202.77, 0.0166550
8215.77, 0.0162620
8228.82, 0.0158030
8241.9, 0.0154090
8255.02, 0.0148850
8268.19, 0.0144260
8281.39, 0.0141630
8294.65, 0.0137700
8307.94, 0.0134420
8321.28, 0.0131800
8334.66, 0.0127210
8348.08, 0.0121960
8361.54, 0.0118680
8375.05, 0.0114750
8388.6, 0.0112130
8402.2, 0.0109500
8415.84, 0.0106220
8429.52, 0.0103600
8443.25, 0.0102290
8457.02, 0.0100320
8470.84, 0.00990100
8484.7, 0.00977000
8498.61, 0.00950800
8512.57, 0.00937700
8526.57, 0.00931100
8540.62, 0.00911400
8554.71, 0.00904900
8568.85, 0.00904900
8583.04, 0.00885200
8597.27, 0.00852400
8611.55, 0.00865500
8625.88, 0.00898300
8640.26, 0.00937700
8654.68, 0.00970400
8669.16, 0.0104910
8683.68, 0.0114750
8698.25, 0.0126550
8712.87, 0.0140320
8727.53, 0.0156710
8742.25, 0.0176390
8757.02, 0.0201960
8771.83, 0.0232120
8786.7, 0.0266220
8801.62, 0.0307530
8816.59, 0.0354740
8831.61, 0.0407190
8846.68, 0.0465550
8861.8, 0.0528500
8876.97, 0.0595380
8892.2, 0.0666200
8907.48, 0.0739640
8922.81, 0.0813730
8938.2, 0.0885860
8953.63, 0.0948150
8969.13, 0.100192
8984.67, 0.104979
9000.27, 0.109372
9015.92, 0.113437
9031.63, 0.117109
9047.39, 0.119994
9063.21, 0.121699
9079.08, 0.122552
9095.01, 0.122486
9111.0, 0.121371
9127.04, 0.119339
9143.13, 0.116847
9159.28, 0.113962
9175.49, 0.111077
9191.76, 0.108585
9208.09, 0.106552
9224.47, 0.104782
9240.92, 0.103077
9257.42, 0.101635
9273.98, 0.100258
9290.6, 0.0983560
9307.28, 0.0965200
9324.02, 0.0948150
9340.82, 0.0927170
9357.68, 0.0902910
9374.6, 0.0883240
9391.58, 0.0875370
9408.62, 0.0879960
9425.73, 0.0892420
9442.9, 0.0904880
9460.13, 0.0914710
9477.42, 0.0922580
9494.78, 0.0927830
9512.2, 0.0929140
9529.69, 0.0931760
9547.24, 0.0933070
9564.86, 0.0929140
9582.54, 0.0919960
9600.28, 0.0910780
9618.1, 0.0904220
9635.97, 0.0912090
9653.92, 0.0932420
9671.93, 0.0954710
9690.01, 0.0986840
9708.16, 0.104782
9726.37, 0.112847
9744.65, 0.119273
9763.0, 0.122093
9781.43, 0.121044
9799.92, 0.117044
9818.48, 0.111864
9837.1, 0.107995
9855.8, 0.107077
9874.58, 0.108716
9893.42, 0.111208
9912.34, 0.113241
9931.33, 0.114355
9950.39, 0.115863
9969.52, 0.118158
9988.74, 0.120322
10008.0, 0.121962
10027.4, 0.122683
10046.8, 0.123011
10066.3, 0.123142
10085.9, 0.122683
10105.6, 0.121371
10125.3, 0.119339
10145.1, 0.116191
10165.0, 0.111929
10185.0, 0.106815
10205.0, 0.101962
10225.2, 0.0985530
10245.4, 0.0963890
10265.7, 0.0944220
10286.0, 0.0917990
10306.5, 0.0889140
10327.0, 0.0869470
10347.6, 0.0875370
10368.3, 0.0912740
10389.1, 0.0967170
10409.9, 0.101438
10430.9, 0.104192
10451.9, 0.105110
10473.0, 0.103798
10494.2, 0.100389
10515.5, 0.0956680
10536.9, 0.0900290
10558.4, 0.0838650
10579.9, 0.0776360
10601.5, 0.0719970
10623.3, 0.0666200
10645.1, 0.0613090
10667.0, 0.0563910
10689.0, 0.0518660
10711.1, 0.0481940
10733.2, 0.0453750
10755.5, 0.0437360
10777.9, 0.0445230
10800.3, 0.0482600
10822.9, 0.0548170
10845.5, 0.0622920
10868.2, 0.0684560
10891.1, 0.0725870
10914.0, 0.0748160
10937.0, 0.0758650
10960.2, 0.0765870
10983.4, 0.0775050
11006.7, 0.0788820
11030.1, 0.0810450
11053.6, 0.0841930
11077.3, 0.0876020
11101.0, 0.0906840
11124.8, 0.0931760
11148.7, 0.0955370
11172.7, 0.0981590
11196.9, 0.100782
11221.1, 0.102618
11245.4, 0.103274
11269.9, 0.102421
11294.4, 0.100389
11319.1, 0.0973730
11343.9, 0.0938970
11368.8, 0.0897660
11393.7, 0.0852420
11418.8, 0.0808490
11444.0, 0.0771110
11469.4, 0.0743570
11494.8, 0.0725870
11520.3, 0.0719970
11546.0, 0.0715380
11571.8, 0.0700950
11597.7, 0.0685210
11623.7, 0.0668170
11649.8, 0.0651120
11676.0, 0.0636690
11702.4, 0.0620300
11728.9, 0.0605220
11755.5, 0.0594070
11782.2, 0.0584890
11809.0, 0.0575060
11836.0, 0.0565880
11863.0, 0.0557350
11890.3, 0.0546860
11917.6, 0.0539650
11945.0, 0.0534400
11972.6, 0.0529160
12000.4, 0.0524570
12028.2, 0.0517350
12056.2, 0.0511450
12084.3, 0.0508170
12112.5, 0.0502930
12140.9, 0.0496370
12169.4, 0.0491120
12198.0, 0.0487190
12226.8, 0.0482600
12255.7, 0.0478010
12284.7, 0.0474730
12313.9, 0.0470800
12343.2, 0.0465550
12372.7, 0.0460310
12402.3, 0.0456370
12432.0, 0.0453750
12461.9, 0.0449820
12491.9, 0.0445230
12522.1, 0.0441290
12552.4, 0.0437360
12582.9, 0.0434080
12613.5, 0.0429490
12644.3, 0.0426870
12675.2, 0.0425550
12706.3, 0.0420960
12737.5, 0.0415720
12768.9, 0.0411780
12800.4, 0.0408510
12832.1, 0.0403920
12863.9, 0.0399980
12895.9, 0.0396050
12928.1, 0.0391460
12960.4, 0.0390150
12992.9, 0.0386210
13025.5, 0.0383590
13058.3, 0.0380310
13091.3, 0.0377030
13124.4, 0.0373100
13157.8, 0.0365880
13191.2, 0.0359330
13224.9, 0.0354740
13258.7, 0.0348180
13292.7, 0.0341620
13326.9, 0.0333750
13361.2, 0.0323920
13395.7, 0.0315400
13430.4, 0.0304900
13465.3, 0.0291130
13500.4, 0.0279330
13535.7, 0.0268180
13571.1, 0.0258350
13606.7, 0.0249170
13642.5, 0.0244580
13678.5, 0.0251790
13714.7, 0.0268180
13751.1, 0.0288510
13787.6, 0.0308180
13824.4, 0.0314740
13861.4, 0.0313430
13898.5, 0.0314080
13935.9, 0.0311460
13973.5, 0.0306870
14011.2, 0.0300310
14049.2, 0.0292450
14087.4, 0.0285890
14125.8, 0.0279330
14164.3, 0.0277360
14203.2, 0.0277360
14242.2, 0.0274090
14281.4, 0.0268840
14320.9, 0.0264250
14360.5, 0.0260970
14400.4, 0.0256380
14440.5, 0.0249820
14480.9, 0.0243920
14521.4, 0.0234740
14562.2, 0.0223600
14603.3, 0.0215070
14644.5, 0.0207860
14686.0, 0.0203920
14727.7, 0.0206550
14769.7, 0.0215730
14811.9, 0.0222940
14854.3, 0.0224250
14897.0, 0.0223600
14939.9, 0.0217690
14983.1, 0.0212450
15026.5, 0.0217690
15070.2, 0.0223600
15114.2, 0.0236050
15158.3, 0.0255730
15202.8, 0.0266870
15247.5, 0.0264250
15292.5, 0.0257040
15337.7, 0.0246550
15383.2, 0.0239990
15429.0, 0.0234740
15475.1, 0.0224910
15521.4, 0.0211790
15568.0, 0.0203920
15614.9, 0.0200650
15662.1, 0.0203270
15709.6, 0.0209830
15757.3, 0.0217690
15805.4, 0.0221630
15853.7, 0.0219010
15902.3, 0.0213100
15951.2, 0.0205890
16000.5, 0.0201960
16050.0, 0.0199990
16099.8, 0.0195400
16150.0, 0.0190810
16200.5, 0.0194750
16251.3, 0.0195400
16302.4, 0.0190810
16353.8, 0.0190810
16405.5, 0.0194750
16457.6, 0.0192780
16510.0, 0.0192780
16562.8, 0.0201300
16615.9, 0.0214420
16669.3, 0.0228840
16723.1, 0.0249820
16777.2, 0.0279330
16831.7, 0.0316710
16886.5, 0.0361950
16941.7, 0.0424240
16997.2, 0.0488500
17053.1, 0.0543580
17109.4, 0.0592760
17166.1, 0.0633410
17223.1, 0.0663580
17280.5, 0.0689800
17338.3, 0.0712750
17396.5, 0.0737670
17455.1, 0.0763240
17514.0, 0.0782910
17573.4, 0.0798000
17633.2, 0.0795370
17693.4, 0.0777010
17754.0, 0.0742260
17815.0, 0.0691120
17876.4, 0.0623580
17938.3, 0.0538340
18000.5, 0.0456370
18063.3, 0.0389490
18126.4, 0.0344250
18190.0, 0.0334410
18254.1, 0.0367200
18318.6, 0.0450470
18383.5, 0.0572430
18449.0, 0.0695710
18514.9, 0.0805210
18581.2, 0.0896350
18648.0, 0.0958640
18715.4, 0.100717
18783.2, 0.104585
18851.5, 0.105044
18920.3, 0.103339
18989.6, 0.101110
19059.4, 0.0990120
19129.7, 0.0993400
19200.6, 0.102356
19272.0, 0.108388
19343.9, 0.113765
19416.3, 0.116060
19489.3, 0.117765
19562.8, 0.120847
19637.0, 0.124781
19711.6, 0.127994
19786.8, 0.129633
19862.6, 0.129240
19939.0, 0.128060
20016.0, 0.128519
20093.6, 0.129371
20171.8, 0.129961
20250.6, 0.128125
20330.0, 0.125240
20410.0, 0.121306
20490.7, 0.116191
20572.0, 0.112060
20654.0, 0.109831
20736.6, 0.106684
20819.9, 0.103143
20903.8, 0.101372
20988.5, 0.101110
21073.8, 0.102290
21159.8, 0.103667
21246.5, 0.103471
21334.0, 0.103471
21422.1, 0.103930
21511.0, 0.103930
21600.7, 0.103864
21691.0, 0.103077
21782.1, 0.101700
21874.0, 0.100848
21966.7, 0.101962
22060.2, 0.101831
22154.5, 0.100913
22249.6, 0.0983560
22345.5, 0.0943560
22442.2, 0.0898320
22539.8, 0.0865530
22638.2, 0.0831440
22737.5, 0.0790780
22837.7, 0.0767180
22938.7, 0.0765210
23040.7, 0.0785540
23143.5, 0.0794060
23247.3, 0.0788160
23352.1, 0.0778320
23457.7, 0.0746850
23564.4, 0.0697020
23672.0, 0.0641940
23780.5, 0.0622920
23890.1, 0.0613740
24000.7, 0.0603250
24112.3, 0.0611120
24225.0, 0.0610460
24338.7, 0.0608500
24453.5, 0.0626200
