Database of Origin, USGS Spectral Database
Sample Description, See USGS database for additional info
Date Added,2016-08-10 05:17:24.564561

Data ID,USGS_non05          
Sample ID, nontronite_swa1.16109
Mineral Name, nontronite
Material Class,Phyllosilicate

Wavelength
258.6, 0.0358530
263.6, 0.0406060
268.6, 0.0351310
273.1, 0.0349790
277.1, 0.0345850
281.1, 0.0364740
285.1, 0.0344120
289.1, 0.0348090
293.1, 0.0358550
297.1, 0.0337000
301.1, 0.0372420
305.1, 0.0411250
309.1, 0.0406570
313.1, 0.0356800
317.1, 0.0387240
321.1, 0.0389740
325.1, 0.0352750
329.1, 0.0379010
333.1, 0.0354130
337.1, 0.0358000
341.1, 0.0380190
345.1, 0.0355630
349.1, 0.0397370
353.1, 0.0407310
357.1, 0.0454270
360.6, 0.0445860
363.6, 0.0452240
366.6, 0.0456700
369.6, 0.0470300
372.6, 0.0487790
375.6, 0.0490030
378.6, 0.0503760
381.1, 0.0536260
383.1, 0.0529500
385.1, 0.0543400
387.1, 0.0564610
389.1, 0.0575630
391.1, 0.0606440
393.1, 0.0617450
395.1, 0.0668550
397.1, 0.0662850
399.1, 0.0673520
401.1, 0.0691020
403.1, 0.0728020
405.1, 0.0727390
407.1, 0.0761680
409.1, 0.0758390
411.1, 0.0768370
412.8, 0.0788950
415.8, 0.0802860
418.8, 0.0833220
421.8, 0.0839460
424.8, 0.0860110
427.8, 0.0873590
430.8, 0.0883650
433.8, 0.0903510
436.8, 0.0905690
439.8, 0.0928970
442.8, 0.0944140
445.8, 0.0976280
448.8, 0.0988150
451.3, 0.103204
453.3, 0.103884
455.3, 0.107724
457.3, 0.108391
459.3, 0.113903
461.3, 0.113640
463.3, 0.117459
465.3, 0.121125
467.3, 0.125792
469.3, 0.127952
471.3, 0.133104
473.3, 0.138013
475.3, 0.141919
477.3, 0.145500
479.3, 0.148447
481.3, 0.151376
483.3, 0.153209
485.3, 0.156474
487.3, 0.159481
489.3, 0.158194
491.3, 0.165005
493.3, 0.163539
495.3, 0.165592
497.3, 0.167369
499.3, 0.167735
501.3, 0.170316
503.3, 0.171470
505.3, 0.171982
507.3, 0.177390
509.3, 0.179326
511.3, 0.182861
513.3, 0.186145
515.3, 0.186693
517.3, 0.187120
519.3, 0.190259
521.3, 0.192200
523.3, 0.195947
525.3, 0.200225
527.3, 0.205193
529.3, 0.208471
531.3, 0.212944
533.3, 0.216689
535.3, 0.217335
537.3, 0.224115
539.3, 0.229840
541.3, 0.232857
543.3, 0.235057
545.3, 0.236330
547.3, 0.239362
549.3, 0.244124
551.3, 0.246937
553.3, 0.248952
555.3, 0.253901
557.3, 0.257376
559.3, 0.258803
561.3, 0.266471
563.3, 0.264654
565.3, 0.266267
567.3, 0.268481
569.3, 0.271001
571.3, 0.273004
573.3, 0.274399
575.3, 0.278881
577.3, 0.280109
579.3, 0.278466
581.3, 0.280264
583.3, 0.281647
585.3, 0.281562
587.3, 0.282713
589.3, 0.284770
591.3, 0.284378
593.3, 0.284206
595.3, 0.284956
597.3, 0.284991
599.3, 0.282799
601.1, 0.284344
602.7, 0.284748
604.3, 0.283550
605.9, 0.282916
607.5, 0.286911
609.1, 0.283795
610.7, 0.283550
612.3, 0.288366
613.9, 0.285741
615.5, 0.285030
617.1, 0.284538
618.7, 0.282262
620.3, 0.284918
621.9, 0.283979
623.5, 0.288032
625.1, 0.284394
626.7, 0.284161
628.3, 0.285964
629.9, 0.286210
631.7, 0.285687
633.7, 0.286458
635.7, 0.288343
637.7, 0.287933
639.7, 0.291171
641.7, 0.286845
643.7, 0.290254
645.7, 0.289110
647.7, 0.293641
649.7, 0.292218
651.7, 0.293394
653.7, 0.295265
655.7, 0.296114
657.7, 0.301351
659.7, 0.298881
661.7, 0.299818
663.7, 0.304502
665.7, 0.303444
667.7, 0.307676
670.2, 0.309688
673.2, 0.314610
676.2, 0.317161
679.2, 0.321118
682.2, 0.325486
685.2, 0.328951
688.2, 0.332241
691.2, 0.340117
694.2, 0.341565
697.2, 0.348455
700.2, 0.351671
702.0, 0.355526
704.0, 0.359419
706.0, 0.364753
708.0, 0.367101
710.0, 0.369066
712.0, 0.368526
714.0, 0.375206
716.0, 0.377204
718.0, 0.378470
720.0, 0.384042
722.0, 0.387323
724.0, 0.391101
726.0, 0.394306
728.0, 0.392143
730.0, 0.399164
732.0, 0.400724
734.0, 0.404464
736.0, 0.406550
738.0, 0.407605
740.0, 0.414967
742.0, 0.413710
744.0, 0.416197
746.0, 0.419243
748.0, 0.420844
750.5, 0.421761
753.5, 0.426476
756.5, 0.430513
759.5, 0.429313
762.5, 0.430763
765.5, 0.431333
768.5, 0.441807
771.5, 0.441228
774.5, 0.439160
777.5, 0.445390
781.0, 0.447278
785.0, 0.443327
789.0, 0.444492
793.0, 0.447501
797.0, 0.445283
801.5, 0.448220
806.5, 0.450446
811.5, 0.448357
816.5, 0.450258
822.0, 0.448113
828.0, 0.447527
835.0, 0.447871
843.0, 0.441393
851.0, 0.447529
859.0, 0.444087
871.0, 0.440714
883.0, 0.436869
894.0, 0.433795
904.0, 0.436886
914.0, 0.432763
924.0, 0.433233
933.0, 0.432076
941.0, 0.433622
949.0, 0.434257
957.0, 0.434066
964.0, 0.435656
970.0, 0.439810
976.0, 0.440970
982.0, 0.440812
988.0, 0.446437
994.0, 0.451398
1000.0, 0.454969
1006.0, 0.456316
1012.0, 0.461515
1018.0, 0.461784
1023.5, 0.467251
1028.5, 0.467827
1033.5, 0.475694
1038.5, 0.478064
1043.5, 0.482349
1048.5, 0.488623
1053.5, 0.490384
1058.5, 0.492882
1063.5, 0.499754
1068.5, 0.503736
1073.5, 0.508473
1078.5, 0.513566
1083.5, 0.516484
1088.5, 0.522345
1093.5, 0.526588
1098.5, 0.531459
1103.5, 0.537111
1108.5, 0.539349
1113.5, 0.545738
1118.5, 0.548897
1123.5, 0.549312
1128.5, 0.555378
1133.5, 0.558204
1138.5, 0.560952
1143.5, 0.562942
1148.5, 0.561963
1153.5, 0.563946
1158.5, 0.566806
1163.5, 0.571339
1168.5, 0.577160
1173.5, 0.580296
1178.5, 0.585538
1183.5, 0.584496
1188.5, 0.588026
1193.5, 0.594225
1198.5, 0.595176
1203.5, 0.595511
1208.5, 0.603741
1213.5, 0.603010
1218.5, 0.605918
1223.5, 0.611720
1228.5, 0.612041
1233.5, 0.612559
1238.5, 0.612921
1243.5, 0.617790
1248.5, 0.620483
1253.5, 0.622015
1258.5, 0.622699
1263.5, 0.625718
1268.5, 0.625182
1273.5, 0.627487
1278.5, 0.630166
1283.5, 0.630650
1288.5, 0.630810
1293.5, 0.632665
1298.5, 0.630663
1303.5, 0.629404
1308.5, 0.630356
1313.5, 0.626414
1318.5, 0.625723
1323.5, 0.621375
1328.5, 0.623276
1333.5, 0.616378
1338.5, 0.617873
1343.5, 0.613587
1348.5, 0.613017
1353.5, 0.610058
1358.5, 0.608229
1363.5, 0.606222
1368.5, 0.597492
1373.5, 0.588257
1378.5, 0.575034
1383.5, 0.555451
1388.5, 0.532248
1393.5, 0.500802
1398.5, 0.461943
1403.5, 0.430519
1408.5, 0.405512
1413.5, 0.396230
1418.5, 0.392549
1423.5, 0.398230
1428.5, 0.405724
1433.5, 0.413931
1438.5, 0.424220
1443.5, 0.444515
1448.5, 0.460261
1453.5, 0.469459
1458.5, 0.471838
1463.5, 0.473644
1468.5, 0.479488
1473.5, 0.489086
1478.5, 0.500225
1483.5, 0.509210
1488.5, 0.518324
1493.5, 0.522259
1498.5, 0.530075
1503.5, 0.533866
1508.5, 0.540464
1513.5, 0.546445
1518.5, 0.550106
1523.5, 0.557797
1528.5, 0.558870
1534.0, 0.568011
1540.0, 0.568834
1546.0, 0.573483
1552.0, 0.578107
1558.0, 0.583251
1564.0, 0.584721
1570.5, 0.586561
1577.5, 0.592325
1584.5, 0.594243
1591.5, 0.599734
1598.5, 0.598501
1605.5, 0.600549
1612.5, 0.603045
1619.5, 0.604263
1626.5, 0.606719
1633.5, 0.608454
1640.5, 0.610010
1647.5, 0.612008
1654.5, 0.613701
1661.5, 0.612606
1668.5, 0.613574
1676.0, 0.609390
1684.0, 0.614084
1692.0, 0.613102
1700.0, 0.612448
1708.0, 0.611071
1716.0, 0.607627
1724.0, 0.605712
1732.0, 0.605626
1740.0, 0.602827
1748.0, 0.595263
1756.0, 0.592415
1764.0, 0.584335
1772.0, 0.581471
1780.0, 0.578900
1788.0, 0.576477
1796.0, 0.573648
1805.0, 0.570860
1815.0, 0.568298
1825.0, 0.569994
1835.0, 0.564866
1845.0, 0.554119
1855.0, 0.540240
1865.0, 0.513210
1875.0, 0.452990
1885.0, 0.376059
1895.0, 0.276805
1905.0, 0.216297
1915.0, 0.224707
1925.0, 0.253573
1935.0, 0.272464
1945.0, 0.285275
1955.0, 0.296982
1965.0, 0.304831
1975.0, 0.317610
1985.0, 0.328824
1995.0, 0.346025
2005.0, 0.364109
2015.0, 0.377502
2025.0, 0.397649
2035.0, 0.407214
2045.0, 0.419519
2055.0, 0.434144
2065.0, 0.436871
2075.0, 0.446590
2085.0, 0.451467
2095.0, 0.458120
2105.0, 0.461325
2115.0, 0.467965
2125.0, 0.475609
2135.0, 0.476697
2145.0, 0.483153
2155.0, 0.479679
2165.0, 0.474926
2175.0, 0.469384
2185.0, 0.457591
2195.0, 0.445868
2205.0, 0.436135
2215.0, 0.428197
2225.0, 0.407592
2235.0, 0.390885
2245.0, 0.383406
2255.0, 0.394900
2265.0, 0.388835
2275.0, 0.357820
2285.0, 0.330934
2295.0, 0.327747
2305.0, 0.357376
2315.0, 0.368847
2325.0, 0.377551
2335.0, 0.366582
2345.0, 0.355581
2355.0, 0.341184
2365.0, 0.322846
2375.0, 0.306473
2386.0, 0.291244
2400.0, 0.278661
2418.0, 0.268866
2440.0, 0.257895
2466.0, 0.238110
2496.0, 0.216170
2528.0, 0.203898
2560.0, 0.198985
2592.0, 0.191229
2624.0, 0.175058
2656.0, 0.148560
2688.0, 0.0942880
2720.0, 0.0590680
2784.0, 0.0209960
2816.0, 0.0117900
2848.0, 0.0275110
2880.0, 0.0117940
2912.0, 0.0160870
2944.0, 0.00746300
2976.0, 0.0102140
