Database of Origin, USGS Spectral Database
Sample Description, See USGS database for additional info
Date Added,2016-08-10 05:01:26.822189

Data ID,USGS_kie01          
Sample ID, kieserite_kiede1.12283
Mineral Name, kieserite
Material Class,Sulfate

Wavelength
350.0, 0.384098
351.0, 0.369592
352.0, 0.364198
353.0, 0.375301
354.0, 0.377454
355.0, 0.379225
356.0, 0.382926
357.0, 0.376860
358.0, 0.377615
359.0, 0.381556
360.0, 0.380244
361.0, 0.380289
362.0, 0.383899
363.0, 0.388661
364.0, 0.389169
365.0, 0.392480
366.0, 0.396686
367.0, 0.395724
368.0, 0.396140
369.0, 0.399384
370.0, 0.403110
371.0, 0.404913
372.0, 0.406190
373.0, 0.408466
374.0, 0.411312
375.0, 0.414467
376.0, 0.417270
377.0, 0.419637
378.0, 0.422141
379.0, 0.424953
380.0, 0.427651
381.0, 0.428593
382.0, 0.431255
383.0, 0.435075
384.0, 0.437182
385.0, 0.439270
386.0, 0.441576
387.0, 0.443731
388.0, 0.446577
389.0, 0.449670
390.0, 0.452239
391.0, 0.453342
392.0, 0.455630
393.0, 0.458847
394.0, 0.461362
395.0, 0.463776
396.0, 0.465643
397.0, 0.467108
398.0, 0.469282
399.0, 0.471618
400.0, 0.473552
401.0, 0.474918
402.0, 0.477210
403.0, 0.479685
404.0, 0.481364
405.0, 0.482489
406.0, 0.483966
407.0, 0.485899
408.0, 0.487638
409.0, 0.489161
410.0, 0.490508
411.0, 0.491662
412.0, 0.493131
413.0, 0.494660
414.0, 0.495940
415.0, 0.497109
416.0, 0.498283
417.0, 0.499481
418.0, 0.500601
419.0, 0.501843
420.0, 0.503002
421.0, 0.503919
422.0, 0.504897
423.0, 0.506012
424.0, 0.507102
425.0, 0.507955
426.0, 0.508819
427.0, 0.509833
428.0, 0.510975
429.0, 0.511844
430.0, 0.512581
431.0, 0.513433
432.0, 0.514239
433.0, 0.515191
434.0, 0.516191
435.0, 0.516987
436.0, 0.517754
437.0, 0.518557
438.0, 0.519344
439.0, 0.520115
440.0, 0.520850
441.0, 0.521574
442.0, 0.522405
443.0, 0.523185
444.0, 0.523844
445.0, 0.524374
446.0, 0.525171
447.0, 0.526047
448.0, 0.526739
449.0, 0.527292
450.0, 0.527902
451.0, 0.528626
452.0, 0.529403
453.0, 0.530045
454.0, 0.530633
455.0, 0.531313
456.0, 0.532040
457.0, 0.532822
458.0, 0.533602
459.0, 0.534219
460.0, 0.534771
461.0, 0.535378
462.0, 0.536009
463.0, 0.536767
464.0, 0.537497
465.0, 0.538096
466.0, 0.538748
467.0, 0.539415
468.0, 0.540053
469.0, 0.540693
470.0, 0.541368
471.0, 0.542046
472.0, 0.542680
473.0, 0.543356
474.0, 0.544007
475.0, 0.544585
476.0, 0.545092
477.0, 0.545668
478.0, 0.546317
479.0, 0.546964
480.0, 0.547555
481.0, 0.548128
482.0, 0.548725
483.0, 0.549315
484.0, 0.549871
485.0, 0.550417
486.0, 0.550953
487.0, 0.551633
488.0, 0.552313
489.0, 0.552809
490.0, 0.553314
491.0, 0.553876
492.0, 0.554437
493.0, 0.554987
494.0, 0.555505
495.0, 0.556009
496.0, 0.556495
497.0, 0.557055
498.0, 0.557595
499.0, 0.558024
500.0, 0.558594
501.0, 0.559192
502.0, 0.559693
503.0, 0.560119
504.0, 0.560571
505.0, 0.561089
506.0, 0.561633
507.0, 0.562181
508.0, 0.562662
509.0, 0.563081
510.0, 0.563468
511.0, 0.563903
512.0, 0.564363
513.0, 0.564780
514.0, 0.565177
515.0, 0.565587
516.0, 0.566011
517.0, 0.566472
518.0, 0.566904
519.0, 0.567291
520.0, 0.567683
521.0, 0.568095
522.0, 0.568502
523.0, 0.568863
524.0, 0.569288
525.0, 0.569728
526.0, 0.570119
527.0, 0.570573
528.0, 0.571056
529.0, 0.571516
530.0, 0.571933
531.0, 0.572404
532.0, 0.572916
533.0, 0.573404
534.0, 0.573898
535.0, 0.574424
536.0, 0.574976
537.0, 0.575558
538.0, 0.576142
539.0, 0.576733
540.0, 0.577333
541.0, 0.578030
542.0, 0.578748
543.0, 0.579416
544.0, 0.580150
545.0, 0.580917
546.0, 0.581681
547.0, 0.582503
548.0, 0.583308
549.0, 0.584112
550.0, 0.584958
551.0, 0.585878
552.0, 0.586817
553.0, 0.587738
554.0, 0.588683
555.0, 0.589676
556.0, 0.590691
557.0, 0.591679
558.0, 0.592746
559.0, 0.593854
560.0, 0.594930
561.0, 0.596064
562.0, 0.597214
563.0, 0.598345
564.0, 0.599472
565.0, 0.600655
566.0, 0.601860
567.0, 0.603028
568.0, 0.604193
569.0, 0.605347
570.0, 0.606484
571.0, 0.607647
572.0, 0.608790
573.0, 0.609903
574.0, 0.611020
575.0, 0.612135
576.0, 0.613236
577.0, 0.614317
578.0, 0.615395
579.0, 0.616437
580.0, 0.617446
581.0, 0.618470
582.0, 0.619457
583.0, 0.620430
584.0, 0.621419
585.0, 0.622497
586.0, 0.623452
587.0, 0.624186
588.0, 0.624788
589.0, 0.625315
590.0, 0.625862
591.0, 0.626569
592.0, 0.627164
593.0, 0.627629
594.0, 0.628097
595.0, 0.628770
596.0, 0.629565
597.0, 0.630315
598.0, 0.631047
599.0, 0.631707
600.0, 0.632265
601.0, 0.632732
602.0, 0.633051
603.0, 0.633525
604.0, 0.634241
605.0, 0.635085
606.0, 0.635528
607.0, 0.635598
608.0, 0.635621
609.0, 0.635763
610.0, 0.636007
611.0, 0.636256
612.0, 0.636501
613.0, 0.636659
614.0, 0.636767
615.0, 0.636960
616.0, 0.637322
617.0, 0.637770
618.0, 0.638202
619.0, 0.638737
620.0, 0.639417
621.0, 0.640170
622.0, 0.640798
623.0, 0.641205
624.0, 0.641512
625.0, 0.641805
626.0, 0.642133
627.0, 0.642463
628.0, 0.642746
629.0, 0.643060
630.0, 0.643391
631.0, 0.643702
632.0, 0.643996
633.0, 0.644257
634.0, 0.644516
635.0, 0.644821
636.0, 0.645108
637.0, 0.645364
638.0, 0.645618
639.0, 0.645885
640.0, 0.646183
641.0, 0.646497
642.0, 0.646794
643.0, 0.647117
644.0, 0.647469
645.0, 0.647828
646.0, 0.648139
647.0, 0.648436
648.0, 0.648761
649.0, 0.649120
650.0, 0.649451
651.0, 0.649755
652.0, 0.650087
653.0, 0.650438
654.0, 0.650781
655.0, 0.651104
656.0, 0.651419
657.0, 0.651734
658.0, 0.652055
659.0, 0.652379
660.0, 0.652717
661.0, 0.653039
662.0, 0.653300
663.0, 0.653609
664.0, 0.653963
665.0, 0.654309
666.0, 0.654597
667.0, 0.654904
668.0, 0.655255
669.0, 0.655595
670.0, 0.655912
671.0, 0.656217
672.0, 0.656520
673.0, 0.656842
674.0, 0.657184
675.0, 0.657526
676.0, 0.657828
677.0, 0.658124
678.0, 0.658434
679.0, 0.658748
680.0, 0.659028
681.0, 0.659301
682.0, 0.659597
683.0, 0.659903
684.0, 0.660205
685.0, 0.660504
686.0, 0.660828
687.0, 0.661128
688.0, 0.661420
689.0, 0.661745
690.0, 0.662059
691.0, 0.662348
692.0, 0.662633
693.0, 0.662962
694.0, 0.663293
695.0, 0.663594
696.0, 0.663872
697.0, 0.664165
698.0, 0.664477
699.0, 0.664786
700.0, 0.665060
701.0, 0.665306
702.0, 0.665556
703.0, 0.665832
704.0, 0.666106
705.0, 0.666375
706.0, 0.666658
707.0, 0.666941
708.0, 0.667207
709.0, 0.667455
710.0, 0.667691
711.0, 0.667935
712.0, 0.668197
713.0, 0.668491
714.0, 0.668749
715.0, 0.668978
716.0, 0.669216
717.0, 0.669441
718.0, 0.669660
719.0, 0.669882
720.0, 0.670129
721.0, 0.670350
722.0, 0.670555
723.0, 0.670784
724.0, 0.671006
725.0, 0.671222
726.0, 0.671440
727.0, 0.671631
728.0, 0.671827
729.0, 0.672030
730.0, 0.672205
731.0, 0.672374
732.0, 0.672557
733.0, 0.672748
734.0, 0.672958
735.0, 0.673162
736.0, 0.673349
737.0, 0.673536
738.0, 0.673691
739.0, 0.673834
740.0, 0.673999
741.0, 0.674157
742.0, 0.674317
743.0, 0.674492
744.0, 0.674638
745.0, 0.674804
746.0, 0.674985
747.0, 0.675128
748.0, 0.675211
749.0, 0.675290
750.0, 0.675407
751.0, 0.675532
752.0, 0.675684
753.0, 0.675858
754.0, 0.675975
755.0, 0.676096
756.0, 0.676233
757.0, 0.676332
758.0, 0.676441
759.0, 0.676578
760.0, 0.676728
761.0, 0.676857
762.0, 0.676982
763.0, 0.677113
764.0, 0.677228
765.0, 0.677307
766.0, 0.677388
767.0, 0.677503
768.0, 0.677586
769.0, 0.677653
770.0, 0.677739
771.0, 0.677858
772.0, 0.677970
773.0, 0.678057
774.0, 0.678133
775.0, 0.678219
776.0, 0.678305
777.0, 0.678375
778.0, 0.678455
779.0, 0.678542
780.0, 0.678632
781.0, 0.678743
782.0, 0.678850
783.0, 0.678943
784.0, 0.679026
785.0, 0.679122
786.0, 0.679221
787.0, 0.679310
788.0, 0.679366
789.0, 0.679429
790.0, 0.679517
791.0, 0.679606
792.0, 0.679699
793.0, 0.679799
794.0, 0.679905
795.0, 0.680010
796.0, 0.680090
797.0, 0.680158
798.0, 0.680268
799.0, 0.680381
800.0, 0.680480
801.0, 0.680590
802.0, 0.680706
803.0, 0.680816
804.0, 0.680919
805.0, 0.681031
806.0, 0.681163
807.0, 0.681307
808.0, 0.681456
809.0, 0.681595
810.0, 0.681722
811.0, 0.681843
812.0, 0.681937
813.0, 0.682008
814.0, 0.682086
815.0, 0.682220
816.0, 0.682354
817.0, 0.682469
818.0, 0.682599
819.0, 0.682752
820.0, 0.682895
821.0, 0.683010
822.0, 0.683057
823.0, 0.683112
824.0, 0.683219
825.0, 0.683361
826.0, 0.683505
827.0, 0.683647
828.0, 0.683813
829.0, 0.683964
830.0, 0.684091
831.0, 0.684212
832.0, 0.684346
833.0, 0.684470
834.0, 0.684583
835.0, 0.684708
836.0, 0.684830
837.0, 0.684947
838.0, 0.685063
839.0, 0.685204
840.0, 0.685355
841.0, 0.685487
842.0, 0.685578
843.0, 0.685652
844.0, 0.685731
845.0, 0.685803
846.0, 0.685954
847.0, 0.686129
848.0, 0.686272
849.0, 0.686416
850.0, 0.686594
851.0, 0.686765
852.0, 0.686871
853.0, 0.686925
854.0, 0.686991
855.0, 0.687091
856.0, 0.687174
857.0, 0.687223
858.0, 0.687273
859.0, 0.687380
860.0, 0.687501
861.0, 0.687591
862.0, 0.687659
863.0, 0.687702
864.0, 0.687764
865.0, 0.687857
866.0, 0.687930
867.0, 0.688027
868.0, 0.688152
869.0, 0.688266
870.0, 0.688345
871.0, 0.688406
872.0, 0.688470
873.0, 0.688555
874.0, 0.688641
875.0, 0.688712
876.0, 0.688771
877.0, 0.688845
878.0, 0.688911
879.0, 0.688924
880.0, 0.688971
881.0, 0.689029
882.0, 0.689056
883.0, 0.689138
884.0, 0.689205
885.0, 0.689226
886.0, 0.689241
887.0, 0.689273
888.0, 0.689312
889.0, 0.689340
890.0, 0.689418
891.0, 0.689523
892.0, 0.689616
893.0, 0.689695
894.0, 0.689776
895.0, 0.689854
896.0, 0.689916
897.0, 0.689936
898.0, 0.689945
899.0, 0.689969
900.0, 0.690032
901.0, 0.690072
902.0, 0.690077
903.0, 0.690089
904.0, 0.690154
905.0, 0.690249
906.0, 0.690342
907.0, 0.690401
908.0, 0.690452
909.0, 0.690521
910.0, 0.690623
911.0, 0.690685
912.0, 0.690708
913.0, 0.690722
914.0, 0.690801
915.0, 0.690926
916.0, 0.691050
917.0, 0.691094
918.0, 0.691154
919.0, 0.691271
920.0, 0.691336
921.0, 0.691440
922.0, 0.691560
923.0, 0.691622
924.0, 0.691669
925.0, 0.691712
926.0, 0.691752
927.0, 0.691809
928.0, 0.691874
929.0, 0.691926
930.0, 0.691977
931.0, 0.691963
932.0, 0.691948
933.0, 0.691991
934.0, 0.692039
935.0, 0.692094
936.0, 0.692148
937.0, 0.692130
938.0, 0.692134
939.0, 0.692167
940.0, 0.692179
941.0, 0.692121
942.0, 0.692051
943.0, 0.692025
944.0, 0.692034
945.0, 0.692045
946.0, 0.692024
947.0, 0.691911
948.0, 0.691893
949.0, 0.691940
950.0, 0.691936
951.0, 0.691883
952.0, 0.691808
953.0, 0.691745
954.0, 0.691718
955.0, 0.691687
956.0, 0.691629
957.0, 0.691554
958.0, 0.691492
959.0, 0.691451
960.0, 0.691415
961.0, 0.691259
962.0, 0.691155
963.0, 0.691133
964.0, 0.690993
965.0, 0.690885
966.0, 0.690808
967.0, 0.690675
968.0, 0.690555
969.0, 0.690461
970.0, 0.690370
971.0, 0.690258
972.0, 0.690141
973.0, 0.690026
974.0, 0.689879
975.0, 0.689781
976.0, 0.689644
977.0, 0.689409
978.0, 0.689185
979.0, 0.689023
980.0, 0.688879
981.0, 0.688694
982.0, 0.688504
983.0, 0.688323
984.0, 0.688141
985.0, 0.687904
986.0, 0.687677
987.0, 0.687495
988.0, 0.687232
989.0, 0.687005
990.0, 0.686816
991.0, 0.686512
992.0, 0.686295
993.0, 0.686136
994.0, 0.685919
995.0, 0.685677
996.0, 0.685407
997.0, 0.685128
998.0, 0.684874
999.0, 0.684602
1000.0, 0.684280
1001.0, 0.683901
1002.0, 0.683600
1003.0, 0.683359
1004.0, 0.683101
1005.0, 0.682793
1006.0, 0.682514
1007.0, 0.682295
1008.0, 0.682025
1009.0, 0.681958
1010.0, 0.682094
1011.0, 0.681905
1012.0, 0.681735
1013.0, 0.681544
1014.0, 0.681196
1015.0, 0.680604
1016.0, 0.680120
1017.0, 0.679980
1018.0, 0.679912
1019.0, 0.679853
1020.0, 0.679767
1021.0, 0.679546
1022.0, 0.679274
1023.0, 0.679072
1024.0, 0.678841
1025.0, 0.678690
1026.0, 0.678596
1027.0, 0.678536
1028.0, 0.678618
1029.0, 0.678637
1030.0, 0.678463
1031.0, 0.678161
1032.0, 0.677938
1033.0, 0.677870
1034.0, 0.677927
1035.0, 0.678024
1036.0, 0.678193
1037.0, 0.678330
1038.0, 0.678306
1039.0, 0.678260
1040.0, 0.678374
1041.0, 0.678403
1042.0, 0.678510
1043.0, 0.678846
1044.0, 0.679127
1045.0, 0.679314
1046.0, 0.679374
1047.0, 0.679482
1048.0, 0.679759
1049.0, 0.680139
1050.0, 0.680533
1051.0, 0.680894
1052.0, 0.681242
1053.0, 0.681724
1054.0, 0.682227
1055.0, 0.682420
1056.0, 0.682571
1057.0, 0.682885
1058.0, 0.683106
1059.0, 0.683498
1060.0, 0.684069
1061.0, 0.684554
1062.0, 0.685008
1063.0, 0.685434
1064.0, 0.685782
1065.0, 0.686161
1066.0, 0.686637
1067.0, 0.687052
1068.0, 0.687338
1069.0, 0.687714
1070.0, 0.688248
1071.0, 0.688755
1072.0, 0.689177
1073.0, 0.689490
1074.0, 0.689750
1075.0, 0.690036
1076.0, 0.690437
1077.0, 0.690958
1078.0, 0.691473
1079.0, 0.691867
1080.0, 0.692185
1081.0, 0.692540
1082.0, 0.692940
1083.0, 0.693313
1084.0, 0.693633
1085.0, 0.693956
1086.0, 0.694311
1087.0, 0.694683
1088.0, 0.695054
1089.0, 0.695392
1090.0, 0.695707
1091.0, 0.695943
1092.0, 0.696124
1093.0, 0.696465
1094.0, 0.696860
1095.0, 0.697235
1096.0, 0.697602
1097.0, 0.697875
1098.0, 0.698069
1099.0, 0.698246
1100.0, 0.698496
1101.0, 0.698824
1102.0, 0.699107
1103.0, 0.699405
1104.0, 0.699830
1105.0, 0.700232
1106.0, 0.700430
1107.0, 0.700611
1108.0, 0.700929
1109.0, 0.701217
1110.0, 0.701463
1111.0, 0.701736
1112.0, 0.702045
1113.0, 0.702343
1114.0, 0.702599
1115.0, 0.702828
1116.0, 0.703048
1117.0, 0.703272
1118.0, 0.703436
1119.0, 0.703586
1120.0, 0.703969
1121.0, 0.704394
1122.0, 0.704603
1123.0, 0.704715
1124.0, 0.704760
1125.0, 0.704851
1126.0, 0.704892
1127.0, 0.704823
1128.0, 0.704880
1129.0, 0.705185
1130.0, 0.705425
1131.0, 0.705533
1132.0, 0.705640
1133.0, 0.705705
1134.0, 0.705750
1135.0, 0.705760
1136.0, 0.705757
1137.0, 0.705750
1138.0, 0.705760
1139.0, 0.705787
1140.0, 0.705818
1141.0, 0.705743
1142.0, 0.705589
1143.0, 0.705484
1144.0, 0.705437
1145.0, 0.705438
1146.0, 0.705534
1147.0, 0.705566
1148.0, 0.705413
1149.0, 0.705268
1150.0, 0.705034
1151.0, 0.704776
1152.0, 0.704552
1153.0, 0.704357
1154.0, 0.704135
1155.0, 0.703893
1156.0, 0.703642
1157.0, 0.703415
1158.0, 0.703147
1159.0, 0.702841
1160.0, 0.702541
1161.0, 0.702277
1162.0, 0.702037
1163.0, 0.701738
1164.0, 0.701388
1165.0, 0.701002
1166.0, 0.700614
1167.0, 0.700227
1168.0, 0.699822
1169.0, 0.699351
1170.0, 0.698892
1171.0, 0.698462
1172.0, 0.698028
1173.0, 0.697589
1174.0, 0.697153
1175.0, 0.696630
1176.0, 0.696087
1177.0, 0.695495
1178.0, 0.694885
1179.0, 0.694281
1180.0, 0.693694
1181.0, 0.693076
1182.0, 0.692391
1183.0, 0.691653
1184.0, 0.690858
1185.0, 0.690114
1186.0, 0.689445
1187.0, 0.688749
1188.0, 0.687973
1189.0, 0.687211
1190.0, 0.686530
1191.0, 0.685845
1192.0, 0.685085
1193.0, 0.684326
1194.0, 0.683485
1195.0, 0.682621
1196.0, 0.681835
1197.0, 0.681090
1198.0, 0.680282
1199.0, 0.679431
1200.0, 0.678564
1201.0, 0.677665
1202.0, 0.676798
1203.0, 0.676005
1204.0, 0.675165
1205.0, 0.674231
1206.0, 0.673320
1207.0, 0.672407
1208.0, 0.671461
1209.0, 0.670289
1210.0, 0.669122
1211.0, 0.668128
1212.0, 0.667142
1213.0, 0.665961
1214.0, 0.664752
1215.0, 0.663636
1216.0, 0.662540
1217.0, 0.661324
1218.0, 0.660061
1219.0, 0.658892
1220.0, 0.657793
1221.0, 0.656612
1222.0, 0.655341
1223.0, 0.654118
1224.0, 0.652957
1225.0, 0.651746
1226.0, 0.650421
1227.0, 0.649116
1228.0, 0.647918
1229.0, 0.646720
1230.0, 0.645440
1231.0, 0.644165
1232.0, 0.642999
1233.0, 0.641837
1234.0, 0.640569
1235.0, 0.639293
1236.0, 0.638244
1237.0, 0.637257
1238.0, 0.636106
1239.0, 0.634885
1240.0, 0.633739
1241.0, 0.632644
1242.0, 0.631458
1243.0, 0.630186
1244.0, 0.628991
1245.0, 0.627903
1246.0, 0.626729
1247.0, 0.625370
1248.0, 0.624077
1249.0, 0.622988
1250.0, 0.621873
1251.0, 0.620545
1252.0, 0.619237
1253.0, 0.618197
1254.0, 0.617164
1255.0, 0.616114
1256.0, 0.615071
1257.0, 0.614127
1258.0, 0.613206
1259.0, 0.612255
1260.0, 0.611301
1261.0, 0.610514
1262.0, 0.609810
1263.0, 0.609114
1264.0, 0.608425
1265.0, 0.607765
1266.0, 0.607138
1267.0, 0.606519
1268.0, 0.605903
1269.0, 0.605293
1270.0, 0.604688
1271.0, 0.604090
1272.0, 0.603513
1273.0, 0.602949
1274.0, 0.602431
1275.0, 0.601913
1276.0, 0.601329
1277.0, 0.600750
1278.0, 0.600228
1279.0, 0.599709
1280.0, 0.599124
1281.0, 0.598537
1282.0, 0.598030
1283.0, 0.597546
1284.0, 0.597053
1285.0, 0.596556
1286.0, 0.596069
1287.0, 0.595587
1288.0, 0.595127
1289.0, 0.594706
1290.0, 0.594303
1291.0, 0.593914
1292.0, 0.593508
1293.0, 0.593056
1294.0, 0.592660
1295.0, 0.592398
1296.0, 0.592107
1297.0, 0.591721
1298.0, 0.591353
1299.0, 0.591084
1300.0, 0.590816
1301.0, 0.590537
1302.0, 0.590261
1303.0, 0.590063
1304.0, 0.589867
1305.0, 0.589660
1306.0, 0.589466
1307.0, 0.589273
1308.0, 0.589074
1309.0, 0.588895
1310.0, 0.588720
1311.0, 0.588567
1312.0, 0.588425
1313.0, 0.588327
1314.0, 0.588266
1315.0, 0.588190
1316.0, 0.588099
1317.0, 0.587953
1318.0, 0.587733
1319.0, 0.587533
1320.0, 0.587346
1321.0, 0.587152
1322.0, 0.586969
1323.0, 0.586778
1324.0, 0.586548
1325.0, 0.586313
1326.0, 0.585955
1327.0, 0.585599
1328.0, 0.585236
1329.0, 0.584870
1330.0, 0.584483
1331.0, 0.584102
1332.0, 0.583706
1333.0, 0.583304
1334.0, 0.582744
1335.0, 0.582147
1336.0, 0.581670
1337.0, 0.581220
1338.0, 0.580590
1339.0, 0.579891
1340.0, 0.579207
1341.0, 0.578534
1342.0, 0.577827
1343.0, 0.577073
1344.0, 0.576323
1345.0, 0.575594
1346.0, 0.574872
1347.0, 0.574154
1348.0, 0.573441
1349.0, 0.572764
1350.0, 0.572093
1351.0, 0.571427
1352.0, 0.570791
1353.0, 0.570294
1354.0, 0.569802
1355.0, 0.569425
1356.0, 0.569059
1357.0, 0.568723
1358.0, 0.568385
1359.0, 0.568035
1360.0, 0.567687
1361.0, 0.567407
1362.0, 0.567130
1363.0, 0.566783
1364.0, 0.566416
1365.0, 0.566034
1366.0, 0.565660
1367.0, 0.565175
1368.0, 0.564625
1369.0, 0.564080
1370.0, 0.563543
1371.0, 0.562984
1372.0, 0.562427
1373.0, 0.561902
1374.0, 0.561401
1375.0, 0.560832
1376.0, 0.560178
1377.0, 0.559543
1378.0, 0.558935
1379.0, 0.558296
1380.0, 0.557607
1381.0, 0.556920
1382.0, 0.556247
1383.0, 0.555570
1384.0, 0.554861
1385.0, 0.554159
1386.0, 0.553467
1387.0, 0.552771
1388.0, 0.552035
1389.0, 0.551308
1390.0, 0.550634
1391.0, 0.549958
1392.0, 0.549143
1393.0, 0.548327
1394.0, 0.547612
1395.0, 0.546899
1396.0, 0.546083
1397.0, 0.545254
1398.0, 0.544392
1399.0, 0.543542
1400.0, 0.542565
1401.0, 0.541538
1402.0, 0.540542
1403.0, 0.539560
1404.0, 0.538464
1405.0, 0.537298
1406.0, 0.536138
1407.0, 0.535001
1408.0, 0.533733
1409.0, 0.532322
1410.0, 0.530992
1411.0, 0.529757
1412.0, 0.528393
1413.0, 0.526842
1414.0, 0.525349
1415.0, 0.523975
1416.0, 0.522509
1417.0, 0.520761
1418.0, 0.519067
1419.0, 0.517539
1420.0, 0.515970
1421.0, 0.514181
1422.0, 0.512403
1423.0, 0.510641
1424.0, 0.508855
1425.0, 0.506831
1426.0, 0.504826
1427.0, 0.502976
1428.0, 0.501121
1429.0, 0.498969
1430.0, 0.496804
1431.0, 0.494769
1432.0, 0.492760
1433.0, 0.490438
1434.0, 0.488069
1435.0, 0.485936
1436.0, 0.483852
1437.0, 0.481472
1438.0, 0.479034
1439.0, 0.476743
1440.0, 0.474513
1441.0, 0.471983
1442.0, 0.469330
1443.0, 0.466829
1444.0, 0.464406
1445.0, 0.461741
1446.0, 0.458942
1447.0, 0.456299
1448.0, 0.453778
1449.0, 0.451034
1450.0, 0.448077
1451.0, 0.445260
1452.0, 0.442588
1453.0, 0.439771
1454.0, 0.436773
1455.0, 0.433865
1456.0, 0.431113
1457.0, 0.428232
1458.0, 0.425086
1459.0, 0.422062
1460.0, 0.419270
1461.0, 0.416361
1462.0, 0.413166
1463.0, 0.410048
1464.0, 0.407177
1465.0, 0.404251
1466.0, 0.401016
1467.0, 0.397852
1468.0, 0.395005
1469.0, 0.392117
1470.0, 0.388945
1471.0, 0.385814
1472.0, 0.383005
1473.0, 0.380181
1474.0, 0.376998
1475.0, 0.373830
1476.0, 0.371010
1477.0, 0.368199
1478.0, 0.365073
1479.0, 0.361941
1480.0, 0.359069
1481.0, 0.356229
1482.0, 0.353090
1483.0, 0.349912
1484.0, 0.347080
1485.0, 0.344305
1486.0, 0.341232
1487.0, 0.338116
1488.0, 0.335273
1489.0, 0.332517
1490.0, 0.329461
1491.0, 0.326306
1492.0, 0.323475
1493.0, 0.320756
1494.0, 0.317774
1495.0, 0.314701
1496.0, 0.311945
1497.0, 0.309352
1498.0, 0.306541
1499.0, 0.303603
1500.0, 0.300910
1501.0, 0.298367
1502.0, 0.295695
1503.0, 0.292949
1504.0, 0.290384
1505.0, 0.287977
1506.0, 0.285443
1507.0, 0.282766
1508.0, 0.280273
1509.0, 0.277967
1510.0, 0.275545
1511.0, 0.273000
1512.0, 0.270594
1513.0, 0.268376
1514.0, 0.266043
1515.0, 0.263522
1516.0, 0.261143
1517.0, 0.258982
1518.0, 0.256724
1519.0, 0.254303
1520.0, 0.251990
1521.0, 0.249889
1522.0, 0.247703
1523.0, 0.245326
1524.0, 0.243055
1525.0, 0.241020
1526.0, 0.238928
1527.0, 0.236690
1528.0, 0.234528
1529.0, 0.232586
1530.0, 0.230586
1531.0, 0.228387
1532.0, 0.226259
1533.0, 0.224362
1534.0, 0.222420
1535.0, 0.220319
1536.0, 0.218254
1537.0, 0.216379
1538.0, 0.214494
1539.0, 0.212526
1540.0, 0.210603
1541.0, 0.208978
1542.0, 0.207347
1543.0, 0.205784
1544.0, 0.204267
1545.0, 0.203180
1546.0, 0.202126
1547.0, 0.201309
1548.0, 0.200535
1549.0, 0.200234
1550.0, 0.199977
1551.0, 0.200082
1552.0, 0.200209
1553.0, 0.200543
1554.0, 0.200901
1555.0, 0.201414
1556.0, 0.201934
1557.0, 0.202468
1558.0, 0.203004
1559.0, 0.203622
1560.0, 0.204242
1561.0, 0.204697
1562.0, 0.205140
1563.0, 0.205533
1564.0, 0.205922
1565.0, 0.206232
1566.0, 0.206529
1567.0, 0.206761
1568.0, 0.206993
1569.0, 0.207145
1570.0, 0.207289
1571.0, 0.207377
1572.0, 0.207461
1573.0, 0.207476
1574.0, 0.207480
1575.0, 0.207416
1576.0, 0.207349
1577.0, 0.207250
1578.0, 0.207143
1579.0, 0.206931
1580.0, 0.206707
1581.0, 0.206485
1582.0, 0.206260
1583.0, 0.205951
1584.0, 0.205629
1585.0, 0.205283
1586.0, 0.204935
1587.0, 0.204476
1588.0, 0.203996
1589.0, 0.203587
1590.0, 0.203188
1591.0, 0.202710
1592.0, 0.202217
1593.0, 0.201732
1594.0, 0.201251
1595.0, 0.200729
1596.0, 0.200197
1597.0, 0.199730
1598.0, 0.199272
1599.0, 0.198805
1600.0, 0.198340
1601.0, 0.197918
1602.0, 0.197506
1603.0, 0.197036
1604.0, 0.196550
1605.0, 0.196152
1606.0, 0.195766
1607.0, 0.195394
1608.0, 0.195027
1609.0, 0.194727
1610.0, 0.194440
1611.0, 0.194143
1612.0, 0.193843
1613.0, 0.193664
1614.0, 0.193503
1615.0, 0.193339
1616.0, 0.193176
1617.0, 0.193058
1618.0, 0.192948
1619.0, 0.192841
1620.0, 0.192733
1621.0, 0.192670
1622.0, 0.192612
1623.0, 0.192619
1624.0, 0.192635
1625.0, 0.192693
1626.0, 0.192756
1627.0, 0.192801
1628.0, 0.192844
1629.0, 0.192982
1630.0, 0.193129
1631.0, 0.193336
1632.0, 0.193550
1633.0, 0.193766
1634.0, 0.193983
1635.0, 0.194221
1636.0, 0.194460
1637.0, 0.194691
1638.0, 0.194921
1639.0, 0.195134
1640.0, 0.195345
1641.0, 0.195546
1642.0, 0.195746
1643.0, 0.195931
1644.0, 0.196116
1645.0, 0.196271
1646.0, 0.196428
1647.0, 0.196600
1648.0, 0.196771
1649.0, 0.196930
1650.0, 0.197088
1651.0, 0.197201
1652.0, 0.197310
1653.0, 0.197375
1654.0, 0.197442
1655.0, 0.197545
1656.0, 0.197645
1657.0, 0.197671
1658.0, 0.197695
1659.0, 0.197693
1660.0, 0.197686
1661.0, 0.197662
1662.0, 0.197644
1663.0, 0.197649
1664.0, 0.197645
1665.0, 0.197583
1666.0, 0.197508
1667.0, 0.197385
1668.0, 0.197269
1669.0, 0.197191
1670.0, 0.197111
1671.0, 0.197018
1672.0, 0.196921
1673.0, 0.196806
1674.0, 0.196681
1675.0, 0.196526
1676.0, 0.196383
1677.0, 0.196288
1678.0, 0.196188
1679.0, 0.196059
1680.0, 0.195940
1681.0, 0.195839
1682.0, 0.195730
1683.0, 0.195606
1684.0, 0.195479
1685.0, 0.195362
1686.0, 0.195272
1687.0, 0.195208
1688.0, 0.195133
1689.0, 0.195040
1690.0, 0.194910
1691.0, 0.194739
1692.0, 0.194579
1693.0, 0.194444
1694.0, 0.194328
1695.0, 0.194216
1696.0, 0.194103
1697.0, 0.193989
1698.0, 0.193868
1699.0, 0.193737
1700.0, 0.193619
1701.0, 0.193531
1702.0, 0.193500
1703.0, 0.193487
1704.0, 0.193483
1705.0, 0.193480
1706.0, 0.193457
1707.0, 0.193433
1708.0, 0.193457
1709.0, 0.193509
1710.0, 0.193618
1711.0, 0.193741
1712.0, 0.193902
1713.0, 0.194062
1714.0, 0.194186
1715.0, 0.194316
1716.0, 0.194447
1717.0, 0.194592
1718.0, 0.194876
1719.0, 0.195171
1720.0, 0.195386
1721.0, 0.195589
1722.0, 0.195836
1723.0, 0.196079
1724.0, 0.196288
1725.0, 0.196519
1726.0, 0.196838
1727.0, 0.197165
1728.0, 0.197457
1729.0, 0.197727
1730.0, 0.197999
1731.0, 0.198265
1732.0, 0.198521
1733.0, 0.198800
1734.0, 0.199101
1735.0, 0.199407
1736.0, 0.199717
1737.0, 0.200031
1738.0, 0.200371
1739.0, 0.200696
1740.0, 0.201028
1741.0, 0.201424
1742.0, 0.201868
1743.0, 0.202276
1744.0, 0.202636
1745.0, 0.203050
1746.0, 0.203536
1747.0, 0.203952
1748.0, 0.204339
1749.0, 0.204850
1750.0, 0.205429
1751.0, 0.205943
1752.0, 0.206411
1753.0, 0.206906
1754.0, 0.207444
1755.0, 0.207918
1756.0, 0.208359
1757.0, 0.208903
1758.0, 0.209477
1759.0, 0.209918
1760.0, 0.210301
1761.0, 0.210717
1762.0, 0.211147
1763.0, 0.211531
1764.0, 0.211942
1765.0, 0.212412
1766.0, 0.212876
1767.0, 0.213271
1768.0, 0.213631
1769.0, 0.213942
1770.0, 0.214240
1771.0, 0.214530
1772.0, 0.214851
1773.0, 0.215215
1774.0, 0.215565
1775.0, 0.215874
1776.0, 0.216211
1777.0, 0.216576
1778.0, 0.216921
1779.0, 0.217301
1780.0, 0.217760
1781.0, 0.218300
1782.0, 0.218811
1783.0, 0.219268
1784.0, 0.219795
1785.0, 0.220394
1786.0, 0.220898
1787.0, 0.221377
1788.0, 0.221937
1789.0, 0.222517
1790.0, 0.223042
1791.0, 0.223529
1792.0, 0.224022
1793.0, 0.224533
1794.0, 0.225038
1795.0, 0.225570
1796.0, 0.226150
1797.0, 0.226724
1798.0, 0.227229
1799.0, 0.227714
1800.0, 0.228231
1801.0, 0.228757
1802.0, 0.229239
1803.0, 0.229723
1804.0, 0.230227
1805.0, 0.230706
1806.0, 0.231084
1807.0, 0.231465
1808.0, 0.231950
1809.0, 0.232364
1810.0, 0.232703
1811.0, 0.233145
1812.0, 0.233656
1813.0, 0.234129
1814.0, 0.234500
1815.0, 0.234833
1816.0, 0.235185
1817.0, 0.235494
1818.0, 0.235827
1819.0, 0.236211
1820.0, 0.236536
1821.0, 0.236796
1822.0, 0.237036
1823.0, 0.237224
1824.0, 0.237374
1825.0, 0.237532
1826.0, 0.237738
1827.0, 0.237919
1828.0, 0.238107
1829.0, 0.238255
1830.0, 0.238306
1831.0, 0.238331
1832.0, 0.238358
1833.0, 0.238390
1834.0, 0.238401
1835.0, 0.238399
1836.0, 0.238377
1837.0, 0.238281
1838.0, 0.238176
1839.0, 0.238014
1840.0, 0.237830
1841.0, 0.237648
1842.0, 0.237451
1843.0, 0.237208
1844.0, 0.236948
1845.0, 0.236690
1846.0, 0.236423
1847.0, 0.236152
1848.0, 0.235826
1849.0, 0.235494
1850.0, 0.235166
1851.0, 0.234831
1852.0, 0.234444
1853.0, 0.233999
1854.0, 0.233552
1855.0, 0.233091
1856.0, 0.232625
1857.0, 0.232081
1858.0, 0.231532
1859.0, 0.230950
1860.0, 0.230366
1861.0, 0.229687
1862.0, 0.228968
1863.0, 0.228274
1864.0, 0.227601
1865.0, 0.226891
1866.0, 0.225961
1867.0, 0.225025
1868.0, 0.224032
1869.0, 0.223037
1870.0, 0.221913
1871.0, 0.220745
1872.0, 0.219571
1873.0, 0.218396
1874.0, 0.217167
1875.0, 0.215807
1876.0, 0.214472
1877.0, 0.213205
1878.0, 0.211947
1879.0, 0.210480
1880.0, 0.208987
1881.0, 0.207594
1882.0, 0.206258
1883.0, 0.204903
1884.0, 0.203517
1885.0, 0.202184
1886.0, 0.201009
1887.0, 0.199836
1888.0, 0.198657
1889.0, 0.197480
1890.0, 0.196534
1891.0, 0.195648
1892.0, 0.194760
1893.0, 0.193856
1894.0, 0.193034
1895.0, 0.192335
1896.0, 0.191638
1897.0, 0.190942
1898.0, 0.190246
1899.0, 0.189680
1900.0, 0.189128
1901.0, 0.188638
1902.0, 0.188164
1903.0, 0.187731
1904.0, 0.187322
1905.0, 0.186899
1906.0, 0.186463
1907.0, 0.186040
1908.0, 0.185695
1909.0, 0.185350
1910.0, 0.185040
1911.0, 0.184729
1912.0, 0.184387
1913.0, 0.184036
1914.0, 0.183652
1915.0, 0.183236
1916.0, 0.182824
1917.0, 0.182436
1918.0, 0.182035
1919.0, 0.181535
1920.0, 0.181035
1921.0, 0.180584
1922.0, 0.180136
1923.0, 0.179594
1924.0, 0.179020
1925.0, 0.178394
1926.0, 0.177725
1927.0, 0.176996
1928.0, 0.176145
1929.0, 0.175301
1930.0, 0.174470
1931.0, 0.173639
1932.0, 0.172634
1933.0, 0.171619
1934.0, 0.170554
1935.0, 0.169475
1936.0, 0.168259
1937.0, 0.166928
1938.0, 0.165594
1939.0, 0.164256
1940.0, 0.162873
1941.0, 0.161257
1942.0, 0.159642
1943.0, 0.158090
1944.0, 0.156540
1945.0, 0.154800
1946.0, 0.153007
1947.0, 0.151295
1948.0, 0.149642
1949.0, 0.147875
1950.0, 0.145928
1951.0, 0.144033
1952.0, 0.142339
1953.0, 0.140637
1954.0, 0.138754
1955.0, 0.136867
1956.0, 0.135251
1957.0, 0.133694
1958.0, 0.132157
1959.0, 0.130637
1960.0, 0.129308
1961.0, 0.128208
1962.0, 0.127137
1963.0, 0.126167
1964.0, 0.125231
1965.0, 0.124703
1966.0, 0.124176
1967.0, 0.123761
1968.0, 0.123356
1969.0, 0.123134
1970.0, 0.122982
1971.0, 0.122899
1972.0, 0.122887
1973.0, 0.122898
1974.0, 0.122947
1975.0, 0.123009
1976.0, 0.123147
1977.0, 0.123283
1978.0, 0.123382
1979.0, 0.123479
1980.0, 0.123593
1981.0, 0.123718
1982.0, 0.123802
1983.0, 0.123859
1984.0, 0.123985
1985.0, 0.124206
1986.0, 0.124439
1987.0, 0.124683
1988.0, 0.124925
1989.0, 0.125165
1990.0, 0.125407
1991.0, 0.125577
1992.0, 0.125734
1993.0, 0.125870
1994.0, 0.125997
1995.0, 0.126059
1996.0, 0.126065
1997.0, 0.126032
1998.0, 0.125931
1999.0, 0.125810
2000.0, 0.125617
2001.0, 0.125418
2002.0, 0.125120
2003.0, 0.124821
2004.0, 0.124403
2005.0, 0.123952
2006.0, 0.123417
2007.0, 0.122847
2008.0, 0.122232
2009.0, 0.121581
2010.0, 0.120891
2011.0, 0.120116
2012.0, 0.119351
2013.0, 0.118639
2014.0, 0.117915
2015.0, 0.117037
2016.0, 0.116145
2017.0, 0.115360
2018.0, 0.114602
2019.0, 0.113702
2020.0, 0.112728
2021.0, 0.111838
2022.0, 0.111016
2023.0, 0.110168
2024.0, 0.109282
2025.0, 0.108389
2026.0, 0.107566
2027.0, 0.106741
2028.0, 0.105874
2029.0, 0.104996
2030.0, 0.104179
2031.0, 0.103364
2032.0, 0.102547
2033.0, 0.101743
2034.0, 0.101008
2035.0, 0.100351
2036.0, 0.0996630
2037.0, 0.0988910
2038.0, 0.0981660
2039.0, 0.0975950
2040.0, 0.0970130
2041.0, 0.0964170
2042.0, 0.0958240
2043.0, 0.0953050
2044.0, 0.0948110
2045.0, 0.0942930
2046.0, 0.0937640
2047.0, 0.0932920
2048.0, 0.0928540
2049.0, 0.0924310
2050.0, 0.0920340
2051.0, 0.0916610
2052.0, 0.0913770
2053.0, 0.0910960
2054.0, 0.0907880
2055.0, 0.0904750
2056.0, 0.0902440
2057.0, 0.0900250
2058.0, 0.0898230
2059.0, 0.0896330
2060.0, 0.0895000
2061.0, 0.0894030
2062.0, 0.0892650
2063.0, 0.0890750
2064.0, 0.0889140
2065.0, 0.0887790
2066.0, 0.0886400
2067.0, 0.0885290
2068.0, 0.0884170
2069.0, 0.0883280
2070.0, 0.0882410
2071.0, 0.0881640
2072.0, 0.0880940
2073.0, 0.0880350
2074.0, 0.0879590
2075.0, 0.0878330
2076.0, 0.0876940
2077.0, 0.0875850
2078.0, 0.0875170
2079.0, 0.0874480
2080.0, 0.0873540
2081.0, 0.0872720
2082.0, 0.0872150
2083.0, 0.0871480
2084.0, 0.0870310
2085.0, 0.0869170
2086.0, 0.0868010
2087.0, 0.0866870
2088.0, 0.0865180
2089.0, 0.0863180
2090.0, 0.0861570
2091.0, 0.0860110
2092.0, 0.0858780
2093.0, 0.0857710
2094.0, 0.0856370
2095.0, 0.0854720
2096.0, 0.0853110
2097.0, 0.0851680
2098.0, 0.0850270
2099.0, 0.0848640
2100.0, 0.0846950
2101.0, 0.0845130
2102.0, 0.0843370
2103.0, 0.0841580
2104.0, 0.0839710
2105.0, 0.0837900
2106.0, 0.0836070
2107.0, 0.0834220
2108.0, 0.0832370
2109.0, 0.0830430
2110.0, 0.0828190
2111.0, 0.0825920
2112.0, 0.0823780
2113.0, 0.0821500
2114.0, 0.0818660
2115.0, 0.0815890
2116.0, 0.0814300
2117.0, 0.0812680
2118.0, 0.0810550
2119.0, 0.0808400
2120.0, 0.0806360
2121.0, 0.0804450
2122.0, 0.0802160
2123.0, 0.0799440
2124.0, 0.0797140
2125.0, 0.0795310
2126.0, 0.0793400
2127.0, 0.0791880
2128.0, 0.0790420
2129.0, 0.0789250
2130.0, 0.0788140
2131.0, 0.0787420
2132.0, 0.0786780
2133.0, 0.0786810
2134.0, 0.0786860
2135.0, 0.0786880
2136.0, 0.0787040
2137.0, 0.0787380
2138.0, 0.0788040
2139.0, 0.0789270
2140.0, 0.0790940
2141.0, 0.0793120
2142.0, 0.0795990
2143.0, 0.0799250
2144.0, 0.0803730
2145.0, 0.0808270
2146.0, 0.0812700
2147.0, 0.0817360
2148.0, 0.0823130
2149.0, 0.0829020
2150.0, 0.0835570
2151.0, 0.0842280
2152.0, 0.0850550
2153.0, 0.0859260
2154.0, 0.0867480
2155.0, 0.0875630
2156.0, 0.0885020
2157.0, 0.0895280
2158.0, 0.0905470
2159.0, 0.0915270
2160.0, 0.0925710
2161.0, 0.0937470
2162.0, 0.0948830
2163.0, 0.0959300
2164.0, 0.0970120
2165.0, 0.0982110
2166.0, 0.0994050
2167.0, 0.100457
2168.0, 0.101500
2169.0, 0.102667
2170.0, 0.103866
2171.0, 0.104879
2172.0, 0.105841
2173.0, 0.106925
2174.0, 0.108062
2175.0, 0.109065
2176.0, 0.109946
2177.0, 0.110861
2178.0, 0.111861
2179.0, 0.112809
2180.0, 0.113622
2181.0, 0.114437
2182.0, 0.115264
2183.0, 0.116076
2184.0, 0.116700
2185.0, 0.117326
2186.0, 0.117982
2187.0, 0.118645
2188.0, 0.119195
2189.0, 0.119737
2190.0, 0.120297
2191.0, 0.120864
2192.0, 0.121382
2193.0, 0.121866
2194.0, 0.122309
2195.0, 0.122728
2196.0, 0.123070
2197.0, 0.123336
2198.0, 0.123583
2199.0, 0.123816
2200.0, 0.124023
2201.0, 0.124146
2202.0, 0.124231
2203.0, 0.124263
2204.0, 0.124287
2205.0, 0.124298
2206.0, 0.124314
2207.0, 0.124316
2208.0, 0.124316
2209.0, 0.124330
2210.0, 0.124326
2211.0, 0.124272
2212.0, 0.124222
2213.0, 0.124133
2214.0, 0.124032
2215.0, 0.123884
2216.0, 0.123717
2217.0, 0.123607
2218.0, 0.123526
2219.0, 0.123440
2220.0, 0.123370
2221.0, 0.123313
2222.0, 0.123286
2223.0, 0.123270
2224.0, 0.123287
2225.0, 0.123331
2226.0, 0.123356
2227.0, 0.123390
2228.0, 0.123572
2229.0, 0.123741
2230.0, 0.123764
2231.0, 0.123784
2232.0, 0.123820
2233.0, 0.123852
2234.0, 0.123870
2235.0, 0.123882
2236.0, 0.124004
2237.0, 0.124166
2238.0, 0.124253
2239.0, 0.124323
2240.0, 0.124395
2241.0, 0.124455
2242.0, 0.124545
2243.0, 0.124653
2244.0, 0.124801
2245.0, 0.125036
2246.0, 0.125213
2247.0, 0.125276
2248.0, 0.125344
2249.0, 0.125369
2250.0, 0.125372
2251.0, 0.125257
2252.0, 0.125138
2253.0, 0.125142
2254.0, 0.125143
2255.0, 0.125080
2256.0, 0.125003
2257.0, 0.124870
2258.0, 0.124738
2259.0, 0.124603
2260.0, 0.124447
2261.0, 0.124223
2262.0, 0.123984
2263.0, 0.123689
2264.0, 0.123368
2265.0, 0.122875
2266.0, 0.122287
2267.0, 0.121722
2268.0, 0.121172
2269.0, 0.120551
2270.0, 0.119879
2271.0, 0.119192
2272.0, 0.118510
2273.0, 0.117786
2274.0, 0.116976
2275.0, 0.116214
2276.0, 0.115530
2277.0, 0.114800
2278.0, 0.113962
2279.0, 0.113130
2280.0, 0.112447
2281.0, 0.111746
2282.0, 0.110889
2283.0, 0.110044
2284.0, 0.109336
2285.0, 0.108619
2286.0, 0.108000
2287.0, 0.107381
2288.0, 0.106823
2289.0, 0.106279
2290.0, 0.105770
2291.0, 0.105259
2292.0, 0.104918
2293.0, 0.104615
2294.0, 0.104298
2295.0, 0.103972
2296.0, 0.103694
2297.0, 0.103448
2298.0, 0.103189
2299.0, 0.102921
2300.0, 0.102708
2301.0, 0.102525
2302.0, 0.102347
2303.0, 0.102190
2304.0, 0.102041
2305.0, 0.101909
2306.0, 0.101836
2307.0, 0.101846
2308.0, 0.101836
2309.0, 0.101764
2310.0, 0.101688
2311.0, 0.101622
2312.0, 0.101556
2313.0, 0.101497
2314.0, 0.101427
2315.0, 0.101331
2316.0, 0.101239
2317.0, 0.101154
2318.0, 0.101055
2319.0, 0.100910
2320.0, 0.100762
2321.0, 0.100625
2322.0, 0.100487
2323.0, 0.100149
2324.0, 0.0997970
2325.0, 0.0996480
2326.0, 0.0995160
2327.0, 0.0993900
2328.0, 0.0992640
2329.0, 0.0990560
2330.0, 0.0988260
2331.0, 0.0984820
2332.0, 0.0981050
2333.0, 0.0979280
2334.0, 0.0978160
2335.0, 0.0975720
2336.0, 0.0972770
2337.0, 0.0968710
2338.0, 0.0964060
2339.0, 0.0960160
2340.0, 0.0956660
2341.0, 0.0953270
2342.0, 0.0949980
2343.0, 0.0946670
2344.0, 0.0943310
2345.0, 0.0939520
2346.0, 0.0935350
2347.0, 0.0931070
2348.0, 0.0926680
2349.0, 0.0922070
2350.0, 0.0917220
2351.0, 0.0912390
2352.0, 0.0907600
2353.0, 0.0903280
2354.0, 0.0899740
2355.0, 0.0895450
2356.0, 0.0889870
2357.0, 0.0884340
2358.0, 0.0879080
2359.0, 0.0874100
2360.0, 0.0869830
2361.0, 0.0865090
2362.0, 0.0859010
2363.0, 0.0853100
2364.0, 0.0848230
2365.0, 0.0842910
2366.0, 0.0835940
2367.0, 0.0828760
2368.0, 0.0820960
2369.0, 0.0813000
2370.0, 0.0804570
2371.0, 0.0796230
2372.0, 0.0789050
2373.0, 0.0781750
2374.0, 0.0774940
2375.0, 0.0767830
2376.0, 0.0758440
2377.0, 0.0749120
2378.0, 0.0741040
2379.0, 0.0732870
2380.0, 0.0724770
2381.0, 0.0716450
2382.0, 0.0708750
2383.0, 0.0700970
2384.0, 0.0691080
2385.0, 0.0680970
2386.0, 0.0672780
2387.0, 0.0664530
2388.0, 0.0654600
2389.0, 0.0644350
2390.0, 0.0636880
2391.0, 0.0629470
2392.0, 0.0624060
2393.0, 0.0618820
2394.0, 0.0613680
2395.0, 0.0608240
2396.0, 0.0603740
2397.0, 0.0599440
2398.0, 0.0597070
2399.0, 0.0595090
2400.0, 0.0595990
2401.0, 0.0597070
2402.0, 0.0597620
2403.0, 0.0598200
2404.0, 0.0596850
2405.0, 0.0595340
2406.0, 0.0599300
2407.0, 0.0604270
2408.0, 0.0608630
2409.0, 0.0612910
2410.0, 0.0618280
2411.0, 0.0623950
2412.0, 0.0629800
2413.0, 0.0635550
2414.0, 0.0639380
2415.0, 0.0643140
2416.0, 0.0649350
2417.0, 0.0656130
2418.0, 0.0662330
2419.0, 0.0668070
2420.0, 0.0672220
2421.0, 0.0676690
2422.0, 0.0680010
2423.0, 0.0683310
2424.0, 0.0687710
2425.0, 0.0691960
2426.0, 0.0694210
2427.0, 0.0695990
2428.0, 0.0697080
2429.0, 0.0697860
2430.0, 0.0697800
2431.0, 0.0698340
2432.0, 0.0698330
2433.0, 0.0697520
2434.0, 0.0698150
2435.0, 0.0698470
2436.0, 0.0697430
2437.0, 0.0696710
2438.0, 0.0693780
2439.0, 0.0690820
2440.0, 0.0687010
2441.0, 0.0682340
2442.0, 0.0680310
2443.0, 0.0678730
2444.0, 0.0678120
2445.0, 0.0677400
2446.0, 0.0676620
2447.0, 0.0676710
2448.0, 0.0672590
2449.0, 0.0667450
2450.0, 0.0664270
2451.0, 0.0661010
2452.0, 0.0655270
2453.0, 0.0649240
2454.0, 0.0649240
2455.0, 0.0650020
2456.0, 0.0646250
2457.0, 0.0642230
2458.0, 0.0642800
2459.0, 0.0643520
2460.0, 0.0639490
2461.0, 0.0633550
2462.0, 0.0629360
2463.0, 0.0627360
2464.0, 0.0627480
2465.0, 0.0626360
2466.0, 0.0621600
2467.0, 0.0617250
2468.0, 0.0615610
2469.0, 0.0612810
2470.0, 0.0610950
2471.0, 0.0611170
2472.0, 0.0612260
2473.0, 0.0612950
2474.0, 0.0610500
2475.0, 0.0605700
2476.0, 0.0595820
2477.0, 0.0587190
2478.0, 0.0585350
2479.0, 0.0584600
2480.0, 0.0586680
2481.0, 0.0586930
2482.0, 0.0583520
2483.0, 0.0580230
2484.0, 0.0577800
2485.0, 0.0573140
2486.0, 0.0566720
2487.0, 0.0564520
2488.0, 0.0566630
2489.0, 0.0567070
2490.0, 0.0565740
2491.0, 0.0567120
2492.0, 0.0567550
2493.0, 0.0565780
2494.0, 0.0570470
2495.0, 0.0568600
2496.0, 0.0553410
2497.0, 0.0548680
2498.0, 0.0555150
2499.0, 0.0562060
2500.0, 0.0572250
