Database of Origin, USGS Spectral Database
Sample Description, See USGS database for additional info
Date Added,2016-08-10 05:03:06.860577

Data ID,USGS_lep05          
Sample ID, lepidolite_nmnh105538.12711
Mineral Name, lepidolite
Material Class,Phyllosilicate

Wavelength
213.1, 0.0500460
221.1, 0.0459110
229.1, 0.0453580
236.1, 0.0454420
242.1, 0.0446100
248.1, 0.0458700
253.6, 0.0463880
258.6, 0.0485300
263.6, 0.0508590
268.6, 0.0541950
273.1, 0.0583600
277.1, 0.0622400
281.1, 0.0663990
285.1, 0.0719460
289.1, 0.0780210
293.1, 0.0844850
297.1, 0.0916830
301.1, 0.100727
305.1, 0.108813
309.1, 0.119028
313.1, 0.129654
317.1, 0.140058
321.1, 0.152915
325.1, 0.166068
329.1, 0.180395
333.1, 0.195481
337.1, 0.212080
341.1, 0.229580
345.1, 0.247980
349.1, 0.266207
353.1, 0.282634
357.1, 0.299420
360.6, 0.314430
363.6, 0.327154
366.6, 0.336345
369.6, 0.345843
372.6, 0.354849
375.6, 0.362424
378.6, 0.368593
381.1, 0.373193
383.1, 0.375037
385.1, 0.376651
387.1, 0.378318
389.1, 0.378885
391.1, 0.378465
393.1, 0.378272
395.1, 0.376917
397.1, 0.373190
399.1, 0.372213
401.1, 0.368692
403.1, 0.363555
405.1, 0.360506
407.1, 0.356430
409.1, 0.351151
411.1, 0.346670
412.8, 0.341830
415.8, 0.334172
418.8, 0.328251
421.8, 0.322338
424.8, 0.316163
427.8, 0.311108
430.8, 0.305240
433.8, 0.300844
436.8, 0.296254
439.8, 0.292935
442.8, 0.289776
445.8, 0.287767
448.8, 0.286279
451.3, 0.284842
453.3, 0.285668
455.3, 0.284376
457.3, 0.284274
459.3, 0.284404
461.3, 0.284402
463.3, 0.285288
465.3, 0.286145
467.3, 0.286607
469.3, 0.286278
471.3, 0.287110
473.3, 0.287279
475.3, 0.286871
477.3, 0.287528
479.3, 0.286851
481.3, 0.287537
483.3, 0.287688
485.3, 0.286885
487.3, 0.287813
489.3, 0.288489
491.3, 0.288563
493.3, 0.287732
495.3, 0.287808
497.3, 0.287198
499.3, 0.285156
501.3, 0.284344
503.3, 0.281910
505.3, 0.280721
507.3, 0.278829
509.3, 0.276948
511.3, 0.275043
513.3, 0.273649
515.3, 0.272214
517.3, 0.269832
519.3, 0.268757
521.3, 0.267063
523.3, 0.266297
525.3, 0.265110
527.3, 0.263660
529.3, 0.264692
531.3, 0.263251
533.3, 0.262909
535.3, 0.261487
537.3, 0.262186
539.3, 0.262601
541.3, 0.261731
543.3, 0.261845
545.3, 0.261525
547.3, 0.261267
549.3, 0.262138
551.3, 0.261462
553.3, 0.262419
555.3, 0.262669
557.3, 0.262486
559.3, 0.263257
561.3, 0.264212
563.3, 0.265070
565.3, 0.265512
567.3, 0.267292
569.3, 0.268525
571.3, 0.270216
573.3, 0.272235
575.3, 0.274452
577.3, 0.277455
579.3, 0.279784
581.3, 0.283088
583.3, 0.286399
585.3, 0.289349
587.3, 0.293147
589.3, 0.297140
591.3, 0.300693
593.3, 0.305435
595.3, 0.309509
597.3, 0.313936
599.3, 0.318870
601.1, 0.322859
602.7, 0.326599
604.3, 0.331593
605.9, 0.334909
607.5, 0.337827
609.1, 0.342003
610.7, 0.346077
612.3, 0.349204
613.9, 0.354030
615.5, 0.357194
617.1, 0.361106
618.7, 0.363886
620.3, 0.367344
621.9, 0.371377
623.5, 0.375703
625.1, 0.377959
626.7, 0.380792
628.3, 0.384162
629.9, 0.386233
631.7, 0.389509
633.7, 0.392276
635.7, 0.395623
637.7, 0.399337
639.7, 0.400889
641.7, 0.403695
643.7, 0.405288
645.7, 0.407689
647.7, 0.408684
649.7, 0.409986
651.7, 0.411364
653.7, 0.412725
655.7, 0.413030
657.7, 0.413341
659.7, 0.414018
661.7, 0.414005
663.7, 0.414673
665.7, 0.413654
667.7, 0.414278
670.2, 0.412182
673.2, 0.411578
676.2, 0.410065
679.2, 0.408980
682.2, 0.407091
685.2, 0.405721
688.2, 0.403886
691.2, 0.401947
694.2, 0.399778
697.2, 0.397445
700.2, 0.394807
702.0, 0.394285
704.0, 0.392985
706.0, 0.391055
708.0, 0.390021
710.0, 0.388840
712.0, 0.387941
714.0, 0.386527
716.0, 0.385807
718.0, 0.383692
720.0, 0.383028
722.0, 0.381846
724.0, 0.379877
726.0, 0.378389
728.0, 0.377766
730.0, 0.376692
732.0, 0.375120
734.0, 0.374843
736.0, 0.372940
738.0, 0.371867
740.0, 0.370644
742.0, 0.370247
744.0, 0.369318
746.0, 0.368124
748.0, 0.368089
750.5, 0.366793
753.5, 0.366771
756.5, 0.364920
759.5, 0.363762
762.5, 0.362868
765.5, 0.362632
768.5, 0.362263
771.5, 0.361305
774.5, 0.361349
777.5, 0.360543
781.0, 0.359720
785.0, 0.359739
789.0, 0.358689
793.0, 0.358903
797.0, 0.358561
801.5, 0.358305
806.5, 0.359117
811.5, 0.358678
816.5, 0.359123
822.0, 0.358921
828.0, 0.360423
835.0, 0.363118
843.0, 0.363598
851.0, 0.365784
859.0, 0.368574
871.0, 0.376455
883.0, 0.379022
894.0, 0.383070
904.0, 0.384457
914.0, 0.392005
924.0, 0.394900
933.0, 0.402303
941.0, 0.408223
949.0, 0.404772
957.0, 0.405656
964.0, 0.408030
970.0, 0.416707
976.0, 0.425401
982.0, 0.431685
988.0, 0.435470
994.0, 0.438784
1000.0, 0.446041
1006.0, 0.447739
1012.0, 0.451887
1018.0, 0.456666
1023.5, 0.461351
1028.5, 0.466934
1033.5, 0.470235
1038.5, 0.474478
1043.5, 0.475218
1048.5, 0.480880
1053.5, 0.481441
1058.5, 0.488180
1063.5, 0.491602
1068.5, 0.494275
1073.5, 0.498896
1078.5, 0.502318
1083.5, 0.505870
1088.5, 0.510456
1093.5, 0.514953
1098.5, 0.518966
1103.5, 0.520918
1108.5, 0.524691
1113.5, 0.526839
1118.5, 0.531903
1123.5, 0.536163
1128.5, 0.538622
1133.5, 0.542256
1138.5, 0.546232
1143.5, 0.551815
1148.5, 0.554201
1153.5, 0.556579
1158.5, 0.559964
1163.5, 0.563786
1168.5, 0.566264
1173.5, 0.569813
1178.5, 0.572743
1183.5, 0.577432
1188.5, 0.581449
1193.5, 0.583625
1198.5, 0.586470
1203.5, 0.590716
1208.5, 0.592618
1213.5, 0.595971
1218.5, 0.599675
1223.5, 0.603856
1228.5, 0.605340
1233.5, 0.608388
1238.5, 0.608824
1243.5, 0.606449
1248.5, 0.606313
1253.5, 0.612389
1258.5, 0.619961
1263.5, 0.623285
1268.5, 0.627126
1273.5, 0.629223
1278.5, 0.631290
1283.5, 0.631245
1288.5, 0.630737
1293.5, 0.629897
1298.5, 0.626419
1303.5, 0.626693
1308.5, 0.624769
1313.5, 0.625933
1318.5, 0.624426
1323.5, 0.626171
1328.5, 0.627668
1333.5, 0.628521
1338.5, 0.632684
1343.5, 0.637612
1348.5, 0.643686
1353.5, 0.642802
1358.5, 0.643623
1363.5, 0.633900
1368.5, 0.623670
1373.5, 0.612360
1378.5, 0.585902
1383.5, 0.511903
1388.5, 0.444616
1393.5, 0.393720
1398.5, 0.320566
1403.5, 0.270387
1408.5, 0.247731
1413.5, 0.247932
1418.5, 0.319763
1423.5, 0.427910
1428.5, 0.507961
1433.5, 0.559766
1438.5, 0.597209
1443.5, 0.630318
1448.5, 0.646293
1453.5, 0.656452
1458.5, 0.662665
1463.5, 0.667373
1468.5, 0.670280
1473.5, 0.674371
1478.5, 0.677634
1483.5, 0.686737
1488.5, 0.689264
1493.5, 0.691692
1498.5, 0.694272
1503.5, 0.698034
1508.5, 0.703808
1513.5, 0.704659
1518.5, 0.707986
1523.5, 0.711295
1528.5, 0.714524
1534.0, 0.715345
1540.0, 0.718069
1546.0, 0.719358
1552.0, 0.720844
1558.0, 0.726013
1564.0, 0.726269
1570.5, 0.724299
1577.5, 0.726681
1584.5, 0.729305
1591.5, 0.731099
1598.5, 0.733685
1605.5, 0.734642
1612.5, 0.736221
1619.5, 0.737409
1626.5, 0.737516
1633.5, 0.740421
1640.5, 0.740770
1647.5, 0.743176
1654.5, 0.745710
1661.5, 0.747555
1668.5, 0.744968
1676.0, 0.745908
1684.0, 0.745765
1692.0, 0.752099
1700.0, 0.748289
1708.0, 0.751527
1716.0, 0.746722
1724.0, 0.744656
1732.0, 0.745976
1740.0, 0.749128
1748.0, 0.749275
1756.0, 0.744182
1764.0, 0.739669
1772.0, 0.737457
1780.0, 0.739023
1788.0, 0.743757
1796.0, 0.740066
1805.0, 0.735218
1815.0, 0.729209
1825.0, 0.715940
1835.0, 0.704113
1845.0, 0.706396
1855.0, 0.709694
1865.0, 0.704718
1875.0, 0.697848
1885.0, 0.675101
1895.0, 0.626661
1905.0, 0.573656
1915.0, 0.564790
1925.0, 0.580377
1935.0, 0.599906
1945.0, 0.604504
1955.0, 0.607136
1965.0, 0.608574
1975.0, 0.611769
1985.0, 0.614645
1995.0, 0.620500
2005.0, 0.622030
2015.0, 0.623931
2025.0, 0.625720
2035.0, 0.624869
2045.0, 0.622813
2055.0, 0.618793
2065.0, 0.614645
2075.0, 0.593854
2085.0, 0.554577
2095.0, 0.531666
2105.0, 0.509368
2115.0, 0.486960
2125.0, 0.482340
2135.0, 0.478260
2145.0, 0.462054
2155.0, 0.425438
2165.0, 0.361984
2175.0, 0.269158
2185.0, 0.182220
2195.0, 0.138438
2205.0, 0.142173
2215.0, 0.196929
2225.0, 0.276800
2235.0, 0.334308
2245.0, 0.361529
2255.0, 0.376538
2265.0, 0.381025
2275.0, 0.377637
2285.0, 0.369137
2295.0, 0.348697
2305.0, 0.318944
2315.0, 0.272956
2325.0, 0.232151
2335.0, 0.199208
2345.0, 0.179862
2355.0, 0.178525
2365.0, 0.186778
2375.0, 0.191090
2386.0, 0.193391
2400.0, 0.189152
2418.0, 0.164980
2440.0, 0.145967
2466.0, 0.151302
2496.0, 0.169119
2528.0, 0.186148
2560.0, 0.187563
2592.0, 0.172262
2624.0, 0.158748
2656.0, 0.151669
2688.0, 0.0999970
2720.0, 0.0362270
2752.0, 0.00971000
2784.0, 0.0223010
2816.0, 0.0458120
2848.0, 0.0692030
2880.0, 0.0783500
2912.0, 0.0767600
2944.0, 0.0759000
2976.0, 0.0918490
