Database of Origin, USGS Spectral Database
Sample Description, See USGS database for additional info
Date Added,2016-08-10 02:51:26.228957

Data ID,USGS_gro02          
Sample ID, gross_nmnh155371.8586
Mineral Name, gross
Material Class,Nesosilicate

Wavelength
1602.52, 0.512953
1603.02, 0.513092
1603.51, 0.513302
1604.01, 0.513511
1604.5, 0.513580
1605.0, 0.513232
1605.5, 0.513371
1606.0, 0.513580
1606.49, 0.513790
1606.99, 0.513859
1607.49, 0.514068
1607.99, 0.514068
1608.49, 0.514068
1608.99, 0.514278
1609.49, 0.514626
1609.99, 0.514626
1610.49, 0.514417
1610.99, 0.514417
1611.49, 0.514905
1611.99, 0.515044
1612.49, 0.514835
1612.99, 0.514835
1613.49, 0.515044
1614.0, 0.515114
1614.5, 0.515114
1615.0, 0.515254
1615.51, 0.515463
1616.01, 0.515463
1616.51, 0.515532
1617.02, 0.515532
1617.52, 0.515811
1618.03, 0.515881
1618.53, 0.516020
1619.04, 0.515951
1619.54, 0.515742
1620.05, 0.515672
1620.55, 0.515881
1621.06, 0.516160
1621.57, 0.516369
1622.08, 0.516508
1622.58, 0.516299
1623.09, 0.516299
1623.6, 0.516439
1624.11, 0.516369
1624.62, 0.516439
1625.13, 0.516299
1625.64, 0.516439
1626.15, 0.516648
1626.66, 0.516648
1627.17, 0.516648
1627.68, 0.516857
1628.19, 0.516927
1628.7, 0.517066
1629.21, 0.517136
1629.72, 0.517136
1630.24, 0.516996
1630.75, 0.517206
1631.26, 0.517275
1631.78, 0.517066
1632.29, 0.516996
1632.8, 0.516996
1633.32, 0.517275
1633.83, 0.517554
1634.35, 0.517763
1634.86, 0.517972
1635.38, 0.518042
1635.9, 0.517554
1636.41, 0.517206
1636.93, 0.517206
1637.45, 0.517554
1637.96, 0.517554
1638.48, 0.517206
1639.0, 0.517206
1639.52, 0.517206
1640.04, 0.517624
1640.56, 0.517903
1641.08, 0.517972
1641.59, 0.517833
1642.11, 0.517694
1642.63, 0.517763
1643.16, 0.517833
1643.68, 0.517763
1644.2, 0.517554
1644.72, 0.517694
1645.24, 0.517972
1645.76, 0.517903
1646.29, 0.517833
1646.81, 0.517694
1647.33, 0.517833
1647.86, 0.517972
1648.38, 0.517763
1648.9, 0.517833
1649.43, 0.518112
1649.95, 0.518112
1650.48, 0.518042
1651.0, 0.517972
1651.53, 0.517903
1652.06, 0.517903
1652.58, 0.517972
1653.11, 0.517972
1653.64, 0.518112
1654.17, 0.518042
1654.69, 0.517833
1655.22, 0.517903
1655.75, 0.517972
1656.28, 0.518112
1656.81, 0.518600
1657.34, 0.518530
1657.87, 0.518182
1658.4, 0.518042
1658.93, 0.517763
1659.46, 0.517903
1659.99, 0.518321
1660.52, 0.518112
1661.05, 0.518182
1661.59, 0.518670
1662.12, 0.518600
1662.65, 0.518530
1663.19, 0.518600
1663.72, 0.518600
1664.26, 0.518739
1664.79, 0.518809
1665.32, 0.519018
1665.86, 0.519157
1666.39, 0.518948
1666.93, 0.518739
1667.47, 0.519088
1668.0, 0.519157
1668.54, 0.519227
1669.08, 0.519157
1669.61, 0.519088
1670.15, 0.519157
1670.69, 0.519436
1671.23, 0.519715
1671.77, 0.519924
1672.31, 0.519715
1672.85, 0.519506
1673.39, 0.519715
1673.93, 0.520203
1674.47, 0.519994
1675.01, 0.519924
1675.55, 0.520343
1676.09, 0.520482
1676.64, 0.520343
1677.18, 0.520343
1677.72, 0.520343
1678.26, 0.520343
1678.81, 0.520343
1679.35, 0.520203
1679.89, 0.520343
1680.44, 0.520691
1680.98, 0.520970
1681.53, 0.521040
1682.07, 0.520831
1682.62, 0.521110
1683.17, 0.521388
1683.71, 0.521249
1684.26, 0.521110
1684.81, 0.521597
1685.36, 0.521807
1685.9, 0.521737
1686.45, 0.521528
1687.0, 0.521528
1687.55, 0.521807
1688.1, 0.521807
1688.65, 0.521807
1689.2, 0.522016
1689.75, 0.521876
1690.3, 0.521667
1690.85, 0.521807
1691.41, 0.522155
1691.96, 0.522225
1692.51, 0.522225
1693.06, 0.522295
1693.61, 0.522574
1694.17, 0.522225
1694.72, 0.521807
1695.28, 0.522364
1695.83, 0.522643
1696.39, 0.522434
1696.94, 0.522504
1697.5, 0.522574
1698.05, 0.522713
1698.61, 0.522783
1699.17, 0.522783
1699.72, 0.522643
1700.28, 0.522783
1700.84, 0.522852
1701.4, 0.522922
1701.95, 0.523061
1702.51, 0.522713
1703.07, 0.522434
1703.63, 0.522504
1704.19, 0.522852
1704.75, 0.523131
1705.31, 0.522783
1705.88, 0.522643
1706.44, 0.522992
1707.0, 0.522992
1707.56, 0.522643
1708.12, 0.522852
1708.69, 0.522922
1709.25, 0.522992
1709.81, 0.523061
1710.38, 0.523061
1710.94, 0.522922
1711.51, 0.523201
1712.07, 0.523340
1712.64, 0.523061
1713.2, 0.522922
1713.77, 0.523271
1714.34, 0.523201
1714.9, 0.523201
1715.47, 0.523271
1716.04, 0.523340
1716.61, 0.523410
1717.18, 0.523480
1717.74, 0.523340
1718.31, 0.522992
1718.88, 0.522992
1719.45, 0.523131
1720.02, 0.523201
1720.59, 0.523131
1721.17, 0.523201
1721.74, 0.523271
1722.31, 0.523061
1722.88, 0.523061
1723.45, 0.523271
1724.03, 0.523340
1724.6, 0.523131
1725.18, 0.523271
1725.75, 0.523410
1726.33, 0.523131
1726.9, 0.522922
1727.48, 0.522992
1728.05, 0.522992
1728.63, 0.523061
1729.2, 0.523201
1729.78, 0.523201
1730.36, 0.523271
1730.94, 0.523480
1731.51, 0.523480
1732.09, 0.523480
1732.67, 0.523340
1733.25, 0.523201
1733.83, 0.523480
1734.41, 0.523619
1734.99, 0.523619
1735.57, 0.523828
1736.15, 0.523759
1736.73, 0.523759
1737.32, 0.523759
1737.9, 0.523689
1738.48, 0.523759
1739.07, 0.523968
1739.65, 0.524177
1740.23, 0.524247
1740.82, 0.524247
1741.4, 0.524386
1741.99, 0.524107
1742.57, 0.524107
1743.16, 0.524456
1743.74, 0.524526
1744.33, 0.524316
1744.92, 0.524456
1745.51, 0.524874
1746.09, 0.525083
1746.68, 0.525153
1747.27, 0.525014
1747.86, 0.524944
1748.45, 0.524944
1749.04, 0.525223
1749.63, 0.525432
1750.22, 0.525501
1750.81, 0.525501
1751.4, 0.525571
1751.99, 0.525780
1752.59, 0.525780
1753.18, 0.526059
1753.77, 0.526268
1754.37, 0.526268
1754.96, 0.526129
1755.56, 0.526059
1756.15, 0.526268
1756.74, 0.526129
1757.34, 0.525920
1757.94, 0.526199
1758.53, 0.526617
1759.13, 0.526617
1759.73, 0.526687
1760.32, 0.526896
1760.92, 0.527035
1761.52, 0.527035
1762.12, 0.527314
1762.72, 0.527523
1763.32, 0.527453
1763.92, 0.527384
1764.52, 0.527314
1765.12, 0.527523
1765.72, 0.527732
1766.32, 0.528011
1766.92, 0.527872
1767.53, 0.527663
1768.13, 0.527663
1768.73, 0.527802
1769.34, 0.527941
1769.94, 0.527872
1770.55, 0.527941
1771.15, 0.528429
1771.76, 0.528778
1772.36, 0.528778
1772.97, 0.528499
1773.57, 0.528360
1774.18, 0.528429
1774.79, 0.528639
1775.4, 0.528708
1776.0, 0.528778
1776.61, 0.528778
1777.22, 0.528708
1777.83, 0.528569
1778.44, 0.528708
1779.05, 0.528848
1779.66, 0.528778
1780.27, 0.528778
1780.88, 0.529057
1781.5, 0.529127
1782.11, 0.529336
1782.72, 0.529196
1783.33, 0.528987
1783.95, 0.529127
1784.56, 0.529336
1785.18, 0.528987
1785.79, 0.529057
1786.41, 0.529127
1787.02, 0.529405
1787.64, 0.529266
1788.26, 0.529057
1788.87, 0.528917
1789.49, 0.529336
1790.11, 0.529615
1790.73, 0.529684
1791.35, 0.529754
1791.96, 0.529615
1792.58, 0.529336
1793.21, 0.529127
1793.83, 0.529196
1794.45, 0.529266
1795.07, 0.529475
1795.69, 0.529545
1796.31, 0.529545
1796.93, 0.529615
1797.56, 0.529545
1798.18, 0.529475
1798.8, 0.529336
1799.43, 0.529545
1800.05, 0.529963
1800.68, 0.529963
1801.3, 0.529615
1801.93, 0.529545
1802.56, 0.529615
1803.18, 0.529824
1803.81, 0.529893
1804.44, 0.529963
1805.07, 0.530103
1805.7, 0.529824
1806.33, 0.529615
1806.95, 0.529963
1807.58, 0.530103
1808.22, 0.529893
1808.85, 0.529754
1809.48, 0.530033
1810.11, 0.530242
1810.74, 0.530172
1811.38, 0.529963
1812.01, 0.530033
1812.64, 0.530172
1813.28, 0.530521
1813.91, 0.530730
1814.55, 0.530521
1815.18, 0.530242
1815.82, 0.530242
1816.45, 0.530521
1817.09, 0.530939
1817.73, 0.530730
1818.36, 0.530521
1819.0, 0.530451
1819.64, 0.530312
1820.28, 0.530033
1820.92, 0.530103
1821.56, 0.530381
1822.2, 0.530730
1822.84, 0.530869
1823.48, 0.530939
1824.12, 0.530869
1824.76, 0.531079
1825.41, 0.530869
1826.05, 0.530591
1826.69, 0.531009
1827.34, 0.531357
1827.98, 0.531079
1828.63, 0.531218
1829.27, 0.531218
1829.92, 0.531288
1830.56, 0.531497
1831.21, 0.531706
1831.86, 0.532124
1832.5, 0.532543
1833.15, 0.532682
1833.8, 0.532821
1834.45, 0.532682
1835.1, 0.532682
1835.75, 0.532473
1836.4, 0.532821
1837.05, 0.533031
1837.7, 0.532891
1838.35, 0.533658
1839.01, 0.533867
1839.66, 0.533379
1840.31, 0.533797
1840.96, 0.534007
1841.62, 0.533658
1842.27, 0.534216
1842.93, 0.534983
1843.58, 0.535331
1844.24, 0.535610
1844.9, 0.535889
1845.55, 0.535958
1846.21, 0.535331
1846.87, 0.534704
1847.53, 0.535052
1848.18, 0.535610
1848.84, 0.536098
1849.5, 0.536725
1850.16, 0.537074
1850.82, 0.537213
1851.48, 0.537213
1852.14, 0.537283
1852.81, 0.536865
1853.47, 0.536447
1854.13, 0.536725
1854.8, 0.537492
1855.46, 0.537422
1856.12, 0.537283
1856.79, 0.537422
1857.45, 0.537911
1858.12, 0.538468
1858.79, 0.538189
1859.45, 0.537492
1860.12, 0.537771
1860.79, 0.538189
1861.46, 0.538677
1862.12, 0.538747
1862.79, 0.538886
1863.46, 0.538538
1864.13, 0.538399
1864.8, 0.538608
1865.48, 0.539026
1866.15, 0.539235
1866.82, 0.538886
1867.49, 0.538189
1868.16, 0.538468
1868.84, 0.538956
1869.51, 0.539165
1870.19, 0.538817
1870.86, 0.538259
1871.54, 0.538538
1872.21, 0.538538
1872.89, 0.538189
1873.56, 0.538468
1874.24, 0.538956
1874.92, 0.539026
1875.6, 0.539096
1876.28, 0.538677
1876.96, 0.538189
1877.64, 0.538608
1878.32, 0.539235
1879.0, 0.539374
1879.68, 0.539584
1880.36, 0.539514
1881.04, 0.539235
1881.73, 0.539444
1882.41, 0.539584
1883.09, 0.539305
1883.78, 0.538886
1884.46, 0.539165
1885.15, 0.539305
1885.83, 0.539584
1886.52, 0.539584
1887.21, 0.539444
1887.89, 0.539444
1888.58, 0.539584
1889.27, 0.539305
1889.96, 0.539026
1890.65, 0.539235
1891.34, 0.539723
1892.03, 0.539653
1892.72, 0.539862
1893.41, 0.539862
1894.1, 0.539862
1894.79, 0.539932
1895.49, 0.539793
1896.18, 0.539862
1896.87, 0.539862
1897.57, 0.540002
1898.26, 0.540141
1898.96, 0.539584
1899.65, 0.539235
1900.35, 0.539584
1901.05, 0.540211
1901.74, 0.540350
1902.44, 0.540072
1903.14, 0.540141
1903.84, 0.540629
1904.54, 0.540350
1905.24, 0.539932
1905.94, 0.540141
1906.64, 0.540629
1907.34, 0.541187
1908.04, 0.541466
1908.75, 0.541466
1909.45, 0.541326
1910.15, 0.541117
1910.86, 0.541396
1911.56, 0.541745
1912.27, 0.542024
1912.97, 0.541814
1913.68, 0.541745
1914.39, 0.542233
1915.09, 0.542581
1915.8, 0.542790
1916.51, 0.542790
1917.22, 0.542860
1917.93, 0.543139
1918.64, 0.543348
1919.35, 0.542930
1920.06, 0.542581
1920.77, 0.543000
1921.48, 0.543836
1922.19, 0.544185
1922.91, 0.544185
1923.62, 0.544115
1924.33, 0.544324
1925.05, 0.544742
1925.76, 0.544603
1926.48, 0.544603
1927.19, 0.545021
1927.91, 0.544952
1928.63, 0.545021
1929.35, 0.545579
1930.07, 0.545788
1930.78, 0.545858
1931.5, 0.546067
1932.22, 0.546206
1932.94, 0.546276
1933.66, 0.546206
1934.39, 0.546485
1935.11, 0.546694
1935.83, 0.546694
1936.55, 0.547043
1937.28, 0.547322
1938.0, 0.547182
1938.73, 0.547182
1939.45, 0.547252
1940.18, 0.547531
1940.9, 0.547810
1941.63, 0.547670
1942.36, 0.547810
1943.09, 0.548019
1943.81, 0.548298
1944.54, 0.548577
1945.27, 0.548507
1946.0, 0.548228
1946.73, 0.548228
1947.47, 0.548437
1948.2, 0.548577
1948.93, 0.548716
1949.66, 0.549065
1950.4, 0.549065
1951.13, 0.549065
1951.86, 0.549274
1952.6, 0.549344
1953.34, 0.549344
1954.07, 0.549413
1954.81, 0.549413
1955.55, 0.549692
1956.29, 0.549762
1957.02, 0.549762
1957.76, 0.550110
1958.5, 0.550459
1959.24, 0.550389
1959.98, 0.550319
1960.72, 0.550319
1961.47, 0.550459
1962.21, 0.550529
1962.95, 0.550598
1963.7, 0.550529
1964.44, 0.550389
1965.18, 0.550459
1965.93, 0.550529
1966.67, 0.550668
1967.42, 0.550738
1968.17, 0.550598
1968.92, 0.550598
1969.66, 0.550738
1970.41, 0.550947
1971.16, 0.550947
1971.91, 0.550877
1972.66, 0.550947
1973.41, 0.551296
1974.16, 0.551296
1974.92, 0.551435
1975.67, 0.551505
1976.42, 0.551644
1977.18, 0.551574
1977.93, 0.551644
1978.69, 0.551644
1979.44, 0.551644
1980.2, 0.551714
1980.95, 0.551784
1981.71, 0.551853
1982.47, 0.551853
1983.23, 0.551853
1983.99, 0.552062
1984.74, 0.551993
1985.51, 0.551784
1986.27, 0.551784
1987.03, 0.552202
1987.79, 0.552481
1988.55, 0.552341
1989.32, 0.552411
1990.08, 0.552271
1990.84, 0.552132
1991.61, 0.552271
1992.37, 0.552481
1993.14, 0.552899
1993.9, 0.552899
1994.67, 0.552690
1995.44, 0.552759
1996.21, 0.553108
1996.98, 0.553387
1997.75, 0.553457
1998.52, 0.553317
1999.29, 0.553248
2000.06, 0.553317
2000.83, 0.553596
2001.6, 0.553596
2002.38, 0.553735
2003.15, 0.553875
2003.93, 0.553945
2004.7, 0.554014
2005.48, 0.554293
2006.25, 0.554572
2007.03, 0.554921
2007.81, 0.554711
2008.58, 0.554711
2009.36, 0.554572
2010.14, 0.554642
2010.92, 0.555269
2011.7, 0.555897
2012.48, 0.556175
2013.26, 0.556106
2014.05, 0.555966
2014.83, 0.556454
2015.61, 0.556454
2016.4, 0.556385
2017.18, 0.556733
2017.97, 0.556803
2018.75, 0.556803
2019.54, 0.557082
2020.32, 0.557151
2021.11, 0.557361
2021.9, 0.557291
2022.69, 0.557291
2023.48, 0.557570
2024.27, 0.557779
2025.06, 0.557709
2025.85, 0.557918
2026.64, 0.558127
2027.44, 0.558406
2028.23, 0.558685
2029.02, 0.558825
2029.82, 0.558825
2030.61, 0.558894
2031.41, 0.559103
2032.2, 0.559313
2033.0, 0.559452
2033.8, 0.559591
2034.6, 0.559801
2035.4, 0.560079
2036.2, 0.560079
2037.0, 0.560428
2037.8, 0.560289
2038.6, 0.560498
2039.4, 0.560567
2040.2, 0.560707
2041.01, 0.560846
2041.81, 0.560846
2042.61, 0.560916
2043.42, 0.561055
2044.22, 0.561125
2045.03, 0.561195
2045.84, 0.561125
2046.65, 0.561334
2047.46, 0.561474
2048.26, 0.561474
2049.07, 0.561543
2049.88, 0.561404
2050.69, 0.561613
2051.51, 0.561962
2052.32, 0.562101
2053.13, 0.562171
2053.94, 0.562171
2054.76, 0.562031
2055.57, 0.562031
2056.39, 0.562101
2057.2, 0.562310
2058.02, 0.562310
2058.84, 0.562171
2059.66, 0.562101
2060.48, 0.562241
2061.29, 0.562310
2062.11, 0.562101
2062.94, 0.562031
2063.76, 0.562031
2064.58, 0.561892
2065.4, 0.561962
2066.22, 0.562171
2067.05, 0.562171
2067.87, 0.562031
2068.7, 0.562031
2069.52, 0.562101
2070.35, 0.562101
2071.18, 0.562031
2072.0, 0.561822
2072.83, 0.561822
2073.66, 0.561822
2074.49, 0.561683
2075.32, 0.561474
2076.15, 0.561683
2076.98, 0.561822
2077.82, 0.561683
2078.65, 0.561543
2079.48, 0.561613
2080.32, 0.561822
2081.15, 0.561753
2081.99, 0.561404
2082.83, 0.561265
2083.66, 0.561334
2084.5, 0.561265
2085.34, 0.560986
2086.18, 0.561055
2087.02, 0.561125
2087.86, 0.561055
2088.7, 0.560986
2089.54, 0.560916
2090.39, 0.561125
2091.23, 0.561055
2092.07, 0.560707
2092.92, 0.560428
2093.76, 0.560567
2094.61, 0.560777
2095.45, 0.560916
2096.3, 0.560846
2097.15, 0.560637
2098.0, 0.560846
2098.85, 0.560846
2099.7, 0.560637
2100.55, 0.560567
2101.4, 0.560777
2102.25, 0.560777
2103.1, 0.560637
2103.96, 0.560777
2104.81, 0.560916
2105.67, 0.560707
2106.52, 0.560777
2107.38, 0.560846
2108.24, 0.560777
2109.09, 0.560846
2109.95, 0.560846
2110.81, 0.560986
2111.67, 0.561055
2112.53, 0.560916
2113.39, 0.560846
2114.25, 0.560986
2115.12, 0.561125
2115.98, 0.561125
2116.84, 0.561334
2117.71, 0.561334
2118.58, 0.561334
2119.44, 0.561474
2120.31, 0.561543
2121.18, 0.561683
2122.04, 0.561962
2122.91, 0.562031
2123.78, 0.561962
2124.65, 0.561892
2125.52, 0.562171
2126.4, 0.562171
2127.27, 0.562380
2128.14, 0.562589
2129.02, 0.562450
2129.89, 0.562241
2130.77, 0.562171
2131.64, 0.562171
2132.52, 0.562380
2133.4, 0.562450
2134.27, 0.562659
2135.15, 0.562729
2136.03, 0.562659
2136.91, 0.562589
2137.79, 0.562938
2138.68, 0.562868
2139.56, 0.562868
2140.44, 0.562424
2141.33, 0.562360
2142.21, 0.562868
2143.1, 0.562487
2143.99, 0.562424
2144.87, 0.562614
2145.76, 0.562741
2146.65, 0.562551
2147.54, 0.561980
2148.43, 0.561472
2149.32, 0.561472
2150.21, 0.562043
2151.1, 0.561789
2151.99, 0.561091
2152.89, 0.561028
2153.78, 0.561218
2154.68, 0.561028
2155.57, 0.560521
2156.47, 0.560203
2157.37, 0.560521
2158.27, 0.560838
2159.16, 0.560267
2160.06, 0.559315
2160.96, 0.559252
2161.86, 0.559379
2162.77, 0.559442
2163.67, 0.559569
2164.57, 0.559188
2165.48, 0.558363
2166.38, 0.557602
2167.29, 0.557602
2168.2, 0.557412
2169.1, 0.557539
2170.01, 0.557602
2170.92, 0.557348
2171.83, 0.556968
2172.74, 0.556460
2173.65, 0.555318
2174.56, 0.555191
2175.47, 0.555572
2176.39, 0.555064
2177.3, 0.554240
2178.22, 0.554367
2179.13, 0.554557
2180.05, 0.553922
2180.96, 0.554113
2181.88, 0.554176
2182.8, 0.553605
2183.72, 0.552971
2184.64, 0.552590
2185.56, 0.552336
2186.48, 0.552273
2187.41, 0.551892
2188.33, 0.550941
2189.25, 0.550243
2190.18, 0.550179
2191.1, 0.549862
2192.03, 0.549481
2192.96, 0.549291
2193.89, 0.548974
2194.82, 0.547895
2195.74, 0.546944
2196.68, 0.546500
2197.61, 0.546246
2198.54, 0.546055
2199.47, 0.545675
2200.4, 0.545040
2201.34, 0.543962
2202.28, 0.543200
2203.21, 0.542693
2204.15, 0.542820
2205.08, 0.543264
2206.02, 0.542693
2206.96, 0.542185
2207.9, 0.542249
2208.84, 0.542439
2209.78, 0.542693
2210.73, 0.542947
2211.67, 0.542883
2212.61, 0.543518
2213.56, 0.543645
2214.5, 0.543772
2215.45, 0.543772
2216.4, 0.543454
2217.35, 0.543518
2218.3, 0.543454
2219.24, 0.543200
2220.2, 0.543391
2221.15, 0.543074
2222.1, 0.542566
2223.05, 0.542439
2224.0, 0.542439
2224.96, 0.541932
2225.91, 0.541424
2226.87, 0.541043
2227.83, 0.541107
2228.79, 0.541043
2229.74, 0.540219
2230.7, 0.539330
2231.66, 0.539140
2232.63, 0.538125
2233.59, 0.537364
2234.55, 0.537300
2235.51, 0.537046
2236.48, 0.536412
2237.44, 0.535651
2238.41, 0.535080
2239.38, 0.534001
2240.34, 0.532796
2241.31, 0.532035
2242.28, 0.531654
2243.25, 0.530639
2244.22, 0.529433
2245.19, 0.528228
2246.17, 0.526959
2247.14, 0.525056
2248.12, 0.523914
2249.09, 0.523723
2250.07, 0.523089
2251.04, 0.522581
2252.02, 0.522201
2253.0, 0.521820
2253.98, 0.521693
2254.96, 0.521439
2255.94, 0.520932
2256.92, 0.520171
2257.91, 0.519282
2258.89, 0.519029
2259.88, 0.518331
2260.86, 0.517760
2261.85, 0.518458
2262.83, 0.519156
2263.82, 0.519600
2264.81, 0.520995
2265.8, 0.522074
2266.79, 0.522899
2267.78, 0.524231
2268.78, 0.525183
2269.77, 0.525944
2270.76, 0.526705
2271.76, 0.527467
2272.75, 0.527847
2273.75, 0.527911
2274.75, 0.528291
2275.75, 0.528735
2276.75, 0.528735
2277.75, 0.528355
2278.75, 0.528482
2279.75, 0.528672
2280.75, 0.528926
2281.76, 0.528926
2282.76, 0.529180
2283.77, 0.529116
2284.77, 0.528228
2285.78, 0.527149
2286.79, 0.526261
2287.8, 0.525436
2288.81, 0.524865
2289.82, 0.524738
2290.83, 0.524548
2291.84, 0.524358
2292.86, 0.524612
2293.87, 0.524865
2294.89, 0.524929
2295.91, 0.524612
2296.92, 0.524612
2297.94, 0.524548
2298.96, 0.524485
2299.98, 0.524168
2301.0, 0.523787
2302.02, 0.523406
2303.04, 0.522645
2304.07, 0.522010
2305.09, 0.521376
2306.12, 0.520868
2307.15, 0.520995
2308.17, 0.520742
2309.2, 0.520234
2310.23, 0.519473
2311.26, 0.518711
2312.29, 0.517696
2313.32, 0.517062
2314.35, 0.516110
2315.39, 0.515222
2316.42, 0.514461
2317.46, 0.513763
2318.5, 0.512431
2319.53, 0.511162
2320.57, 0.509512
2321.61, 0.508180
2322.65, 0.506974
2323.69, 0.505896
2324.73, 0.504437
2325.78, 0.502660
2326.82, 0.501455
2327.86, 0.500123
2328.91, 0.498156
2329.96, 0.496633
2331.01, 0.495682
2332.05, 0.494476
2333.1, 0.492953
2334.15, 0.491558
2335.21, 0.490606
2336.26, 0.489274
2337.31, 0.487688
2338.36, 0.486355
2339.42, 0.485213
2340.48, 0.484135
2341.53, 0.483247
2342.59, 0.482295
2343.65, 0.481090
2344.71, 0.480646
2345.77, 0.480265
2346.83, 0.479757
2347.9, 0.479123
2348.96, 0.478362
2350.02, 0.477664
2351.09, 0.477410
2352.16, 0.477029
2353.23, 0.476522
2354.29, 0.475951
2355.36, 0.475634
2356.43, 0.475443
2357.51, 0.475380
2358.58, 0.475253
2359.65, 0.475126
2360.73, 0.475253
2361.8, 0.476141
2362.88, 0.477156
2363.96, 0.478298
2365.03, 0.479630
2366.11, 0.481026
2367.19, 0.482041
2368.27, 0.483056
2369.36, 0.484135
2370.44, 0.484960
2371.53, 0.486292
2372.61, 0.488005
2373.7, 0.489210
2374.78, 0.490416
2375.87, 0.491748
2376.96, 0.493398
2378.05, 0.494603
2379.14, 0.494920
2380.24, 0.495111
2381.33, 0.495428
2382.42, 0.495745
2383.52, 0.496316
2384.61, 0.496443
2385.71, 0.495935
2386.81, 0.495808
2387.91, 0.496443
2389.01, 0.497585
2390.11, 0.499742
2391.22, 0.502343
2392.32, 0.504373
2393.42, 0.506403
2394.53, 0.508307
2395.64, 0.509829
2396.74, 0.510591
2397.85, 0.511035
2398.96, 0.511986
2400.07, 0.512431
2401.18, 0.512684
2402.3, 0.512684
2403.41, 0.512621
2404.52, 0.512621
2405.64, 0.512367
2406.76, 0.512113
2407.88, 0.512304
2408.99, 0.512684
2410.11, 0.512684
2411.23, 0.512431
2412.36, 0.512684
2413.48, 0.512811
2414.6, 0.512431
2415.73, 0.512431
2416.85, 0.512431
2417.98, 0.512050
2419.11, 0.511606
2420.24, 0.511606
2421.37, 0.511225
2422.5, 0.510781
2423.64, 0.510971
2424.77, 0.510718
2425.9, 0.510147
2427.04, 0.509766
2428.18, 0.509512
2429.31, 0.509385
2430.45, 0.509322
2431.59, 0.509258
2432.73, 0.509322
2433.88, 0.509512
2435.02, 0.509512
2436.16, 0.509322
2437.31, 0.509258
2438.45, 0.509131
2439.6, 0.509068
2440.75, 0.508751
2441.9, 0.508561
2443.05, 0.507926
2444.2, 0.507482
2445.35, 0.507165
2446.51, 0.506974
2447.67, 0.506784
2448.82, 0.506530
2449.98, 0.506340
2451.14, 0.506277
2452.3, 0.506277
2453.46, 0.506403
2454.62, 0.506277
2455.78, 0.506340
2456.94, 0.506277
2458.11, 0.506150
2459.28, 0.505959
2460.44, 0.505642
2461.61, 0.505579
2462.78, 0.505388
2463.95, 0.504627
2465.12, 0.504119
2466.3, 0.503485
2467.47, 0.502533
2468.65, 0.502407
2469.82, 0.502089
2471.0, 0.501709
2472.18, 0.501074
2473.36, 0.500694
2474.54, 0.500376
2475.72, 0.499932
2476.9, 0.499361
2478.08, 0.498536
2479.27, 0.498219
2480.46, 0.497839
2481.64, 0.497395
2482.83, 0.496950
2484.02, 0.496253
2485.21, 0.495999
2486.4, 0.495999
2487.6, 0.495428
2488.79, 0.494857
2489.99, 0.494540
2491.18, 0.494222
2492.38, 0.493778
2493.58, 0.493651
2494.78, 0.493398
2495.98, 0.493207
2497.18, 0.493017
2498.39, 0.493017
2499.59, 0.492953
2500.8, 0.492890
2502.01, 0.492256
2503.21, 0.491938
2504.42, 0.491875
2505.63, 0.491812
2506.84, 0.491938
2508.06, 0.491938
2509.27, 0.491812
2510.49, 0.491938
2511.7, 0.492383
2512.92, 0.492192
2514.14, 0.491748
2515.36, 0.491558
2516.58, 0.491621
2517.8, 0.491875
2519.03, 0.492002
2520.25, 0.492256
2521.48, 0.492383
2522.7, 0.492383
2523.93, 0.492129
2525.16, 0.492192
2526.39, 0.492192
2527.62, 0.492256
2528.86, 0.492573
2530.09, 0.492509
2531.33, 0.492319
2532.56, 0.492319
2533.8, 0.492509
2535.04, 0.492700
2536.28, 0.492827
2537.52, 0.492700
2538.76, 0.493017
2540.01, 0.493461
2541.25, 0.493524
2542.5, 0.493334
2543.75, 0.493398
2544.99, 0.493778
2546.24, 0.494032
2547.49, 0.494032
2548.75, 0.494159
2550.0, 0.494095
2551.26, 0.494095
2552.51, 0.494222
2553.77, 0.494540
2555.03, 0.495047
2556.29, 0.495618
2557.55, 0.495682
2558.81, 0.495237
2560.08, 0.494540
2561.34, 0.493588
2562.61, 0.493588
2563.88, 0.494222
2565.14, 0.494793
2566.41, 0.495301
2567.68, 0.495555
2568.96, 0.495047
2570.23, 0.494666
2571.51, 0.495047
2572.78, 0.494349
2574.06, 0.493905
2575.34, 0.494476
2576.62, 0.494095
2577.9, 0.494159
2579.18, 0.494793
2580.47, 0.494413
2581.75, 0.493651
2583.04, 0.492573
2584.32, 0.492065
2585.61, 0.492763
2586.9, 0.492636
2588.2, 0.492636
2589.49, 0.493080
2590.78, 0.493398
2592.08, 0.493017
2593.37, 0.490543
2594.67, 0.487244
2595.97, 0.487878
2597.27, 0.490416
2598.57, 0.491875
2599.88, 0.491685
2601.18, 0.490416
2602.49, 0.489464
2603.79, 0.488259
2605.1, 0.486546
2606.41, 0.486419
2607.72, 0.487307
2609.03, 0.487688
2610.35, 0.487751
2611.66, 0.487688
2612.98, 0.487117
2614.3, 0.486673
2615.62, 0.485277
2616.94, 0.483627
2618.26, 0.484008
2619.58, 0.483374
2620.91, 0.482676
2622.23, 0.483881
2623.56, 0.484198
2624.89, 0.483437
2626.22, 0.481724
2627.55, 0.481534
2628.88, 0.481724
2630.21, 0.480328
2631.55, 0.480392
2632.89, 0.481343
2634.22, 0.481343
2635.56, 0.481597
2636.9, 0.481597
2638.25, 0.481534
2639.59, 0.481216
2640.93, 0.480646
2642.28, 0.480138
2643.63, 0.479948
2644.98, 0.479630
2646.33, 0.479186
2647.68, 0.479440
2649.03, 0.479504
2650.39, 0.479377
2651.74, 0.478298
2653.1, 0.477410
2654.46, 0.477283
2655.82, 0.477029
2657.18, 0.476585
2658.54, 0.475824
2659.9, 0.474999
2661.27, 0.474872
2662.64, 0.474238
2664.01, 0.471954
2665.38, 0.469289
2666.74, 0.468020
2668.12, 0.468020
2669.49, 0.465990
2670.87, 0.463770
2672.24, 0.465229
2673.62, 0.465673
2675.0, 0.463770
2676.38, 0.461105
2677.76, 0.459519
2679.15, 0.458187
2680.54, 0.457298
2681.92, 0.455903
2683.31, 0.453238
2684.7, 0.450383
2686.09, 0.447148
2687.48, 0.443722
2688.88, 0.440359
2690.27, 0.436362
2691.67, 0.431477
2693.07, 0.425133
2694.47, 0.418979
2695.87, 0.414157
2697.27, 0.409272
2698.67, 0.403752
2700.08, 0.398233
2701.49, 0.392396
2702.9, 0.387194
2704.31, 0.381420
2705.72, 0.372792
2707.13, 0.358454
2708.54, 0.333648
2709.96, 0.295518
2711.38, 0.250664
2712.8, 0.219069
2714.22, 0.212979
2715.64, 0.227507
2717.06, 0.243812
2718.49, 0.244954
2719.91, 0.227888
2721.34, 0.204287
2722.77, 0.187221
2724.2, 0.180559
2725.63, 0.183097
2727.07, 0.185825
2728.5, 0.181701
2729.94, 0.172565
2731.38, 0.161526
2732.82, 0.150170
2734.26, 0.140209
2735.7, 0.135768
2737.15, 0.136022
2738.59, 0.133675
2740.04, 0.123080
2741.49, 0.107473
2742.94, 0.0934520
2744.39, 0.0852040
2745.84, 0.0829200
2747.3, 0.0855850
2748.76, 0.0918660
2750.21, 0.100748
2751.67, 0.110455
2753.14, 0.119337
2754.6, 0.127204
2756.06, 0.135007
2757.53, 0.141098
2759.0, 0.144079
2760.46, 0.144270
2761.94, 0.142303
2763.41, 0.138306
2764.88, 0.131962
2766.36, 0.124031
2767.83, 0.116228
2769.31, 0.109693
2770.79, 0.104364
2772.27, 0.0997330
2773.76, 0.0948480
2775.24, 0.0891380
2776.73, 0.0845700
2778.22, 0.0835550
2779.71, 0.0876150
2781.2, 0.0970050
2782.69, 0.110455
2784.18, 0.124476
2785.68, 0.133929
2787.18, 0.136276
2788.68, 0.134309
2790.18, 0.132913
2791.68, 0.135261
2793.19, 0.139385
2794.69, 0.141098
2796.2, 0.138687
2797.71, 0.133358
2799.22, 0.127267
2800.73, 0.122509
2802.24, 0.120605
2803.76, 0.122318
2805.28, 0.126759
2806.8, 0.132913
2808.32, 0.138750
2809.84, 0.141415
2811.36, 0.139575
2812.89, 0.134626
2814.42, 0.128536
2815.94, 0.123587
2817.48, 0.121113
2819.01, 0.121747
2820.54, 0.125046
2822.08, 0.129868
2823.61, 0.135515
2825.15, 0.141986
2826.69, 0.149028
2828.23, 0.157022
2829.78, 0.166158
2831.32, 0.176372
2832.87, 0.187030
2834.42, 0.198260
2835.97, 0.210187
2837.52, 0.222432
2839.08, 0.234994
2840.63, 0.247682
2842.19, 0.259736
2843.75, 0.270014
2845.31, 0.278198
2846.87, 0.284987
2848.44, 0.291331
2850.0, 0.297549
2851.57, 0.303639
2853.14, 0.309349
2854.71, 0.314361
2856.28, 0.318358
2857.86, 0.321340
2859.43, 0.323180
2861.01, 0.324195
2862.59, 0.324829
2864.17, 0.325337
2865.76, 0.325781
2867.34, 0.326479
2868.93, 0.327367
2870.52, 0.328065
2872.11, 0.328636
2873.7, 0.329524
2875.29, 0.330539
2876.89, 0.331491
2878.49, 0.332442
2880.08, 0.333521
2881.69, 0.334726
2883.29, 0.335741
2884.89, 0.336630
2886.5, 0.337645
2888.11, 0.338977
2889.72, 0.339992
2891.33, 0.340880
2892.94, 0.342022
2894.56, 0.343037
2896.17, 0.343735
2897.79, 0.344370
2899.42, 0.345067
2901.04, 0.345892
2902.66, 0.346717
2904.29, 0.347351
2905.92, 0.347732
2907.55, 0.348049
2909.18, 0.348240
2910.81, 0.348557
2912.45, 0.348874
2914.08, 0.349191
2915.72, 0.349635
2917.36, 0.349889
2919.01, 0.350016
2920.65, 0.350143
2922.3, 0.350524
2923.94, 0.350904
2925.59, 0.351095
2927.25, 0.351412
2928.9, 0.351412
2930.56, 0.351602
2932.21, 0.351856
2933.87, 0.352046
2935.53, 0.351983
2937.2, 0.351983
2938.86, 0.352046
2940.53, 0.352490
2942.2, 0.352871
2943.87, 0.352934
2945.54, 0.353125
2947.22, 0.353632
2948.89, 0.353886
2950.57, 0.354267
2952.25, 0.354584
2953.93, 0.354901
2955.62, 0.355155
2957.3, 0.355409
2958.99, 0.355599
2960.68, 0.355980
2962.37, 0.356360
2964.07, 0.356487
2965.76, 0.356678
2967.46, 0.356868
2969.16, 0.357185
2970.86, 0.357629
2972.56, 0.358200
2974.27, 0.358898
2975.98, 0.359533
2977.69, 0.359977
2979.4, 0.360548
2981.11, 0.361119
2982.83, 0.362007
2984.54, 0.362832
2986.26, 0.363529
2987.98, 0.364227
2989.71, 0.364925
2991.43, 0.365560
2993.16, 0.366067
2994.89, 0.366575
2996.62, 0.367209
2998.35, 0.367844
3000.09, 0.368351
3001.83, 0.368859
3003.57, 0.369493
3005.31, 0.370128
3007.05, 0.370508
3008.79, 0.370952
3010.54, 0.371523
3012.29, 0.371967
3014.04, 0.372221
3015.8, 0.372602
3017.55, 0.372919
3019.31, 0.373173
3021.07, 0.373553
3022.83, 0.373998
3024.59, 0.374315
3026.36, 0.374759
3028.13, 0.375076
3029.9, 0.375457
3031.67, 0.375710
3033.44, 0.375647
3035.22, 0.375774
3037.0, 0.376091
3038.78, 0.376408
3040.56, 0.376599
3042.34, 0.376916
3044.13, 0.377297
3045.92, 0.377487
3047.71, 0.377423
3049.5, 0.377487
3051.3, 0.377614
3053.09, 0.377804
3054.89, 0.378121
3056.69, 0.378375
3058.5, 0.378629
3060.3, 0.378692
3062.11, 0.379010
3063.92, 0.379327
3065.73, 0.379644
3067.55, 0.379644
3069.36, 0.379707
3071.18, 0.380025
3073.0, 0.380342
3074.82, 0.380659
3076.65, 0.381040
3078.48, 0.381420
3080.31, 0.381611
3082.14, 0.381864
3083.97, 0.382309
3085.8, 0.382626
3087.64, 0.383006
3089.48, 0.383387
3091.33, 0.383958
3093.17, 0.384339
3095.02, 0.384783
3096.87, 0.385164
3098.72, 0.385608
3100.57, 0.386242
3102.43, 0.386750
3104.28, 0.387384
3106.14, 0.388018
3108.01, 0.388399
3109.87, 0.388970
3111.74, 0.389478
3113.61, 0.390239
3115.48, 0.390810
3117.35, 0.391318
3119.23, 0.391952
3121.1, 0.392523
3122.98, 0.393348
3124.87, 0.394046
3126.75, 0.394490
3128.64, 0.394934
3130.53, 0.395632
3132.42, 0.396393
3134.31, 0.396901
3136.21, 0.397472
3138.11, 0.398169
3140.01, 0.398931
3141.91, 0.399565
3143.82, 0.400136
3145.73, 0.400707
3147.64, 0.401151
3149.55, 0.401595
3151.46, 0.402293
3153.38, 0.403118
3155.3, 0.403752
3157.22, 0.404323
3159.14, 0.404958
3161.07, 0.405465
3163.0, 0.405973
3164.93, 0.406544
3166.86, 0.407242
3168.8, 0.408003
3170.74, 0.408511
3172.68, 0.409082
3174.62, 0.409653
3176.56, 0.410160
3178.51, 0.410795
3180.46, 0.411366
3182.42, 0.411746
3184.37, 0.412190
3186.33, 0.412571
3188.29, 0.413142
3190.25, 0.413586
3192.21, 0.413967
3194.18, 0.414538
3196.15, 0.415045
3198.12, 0.415616
3200.09, 0.416251
3202.07, 0.417012
3204.05, 0.417646
3206.03, 0.418217
3208.02, 0.418662
3210.0, 0.419359
3211.99, 0.419994
3213.98, 0.420565
3215.98, 0.421199
3217.97, 0.421770
3219.97, 0.422278
3221.97, 0.422849
3223.98, 0.423483
3225.98, 0.424181
3227.99, 0.424689
3230.0, 0.425386
3232.02, 0.425831
3234.03, 0.426402
3236.05, 0.426973
3238.07, 0.427480
3240.1, 0.427924
3242.12, 0.428495
3244.15, 0.428939
3246.18, 0.429320
3248.22, 0.429764
3250.25, 0.430272
3252.29, 0.430843
3254.33, 0.431160
3256.38, 0.431350
3258.43, 0.431731
3260.47, 0.432048
3262.53, 0.432429
3264.58, 0.432683
3266.64, 0.433000
3268.7, 0.433380
3270.76, 0.433761
3272.82, 0.434015
3274.89, 0.434522
3276.96, 0.434966
3279.04, 0.435411
3281.11, 0.435728
3283.19, 0.436108
3285.27, 0.436426
3287.35, 0.436870
3289.44, 0.437314
3291.53, 0.437885
3293.62, 0.438456
3295.71, 0.438836
3297.81, 0.439407
3299.91, 0.439915
3302.01, 0.440359
3304.11, 0.441057
3306.22, 0.441755
3308.33, 0.442326
3310.44, 0.442770
3312.56, 0.443214
3314.68, 0.443658
3316.8, 0.443975
3318.92, 0.444293
3321.05, 0.444800
3323.18, 0.445435
3325.31, 0.445942
3327.44, 0.446259
3329.58, 0.446513
3331.72, 0.446894
3333.86, 0.447465
3336.01, 0.448036
3338.16, 0.448543
3340.31, 0.448987
3342.46, 0.449178
3344.61, 0.449241
3346.77, 0.449178
3348.94, 0.449114
3351.1, 0.449241
3353.27, 0.449114
3355.44, 0.448860
3357.61, 0.448734
3359.79, 0.448670
3361.97, 0.448480
3364.15, 0.448289
3366.33, 0.447972
3368.52, 0.447655
3370.71, 0.447655
3372.9, 0.447909
3375.1, 0.448036
3377.3, 0.448289
3379.5, 0.448734
3381.71, 0.449432
3383.91, 0.450002
3386.12, 0.450510
3388.34, 0.451081
3390.55, 0.451398
3392.77, 0.451462
3394.99, 0.451589
3397.22, 0.451398
3399.45, 0.451081
3401.68, 0.450891
3403.91, 0.450700
3406.15, 0.450193
3408.39, 0.449749
3410.63, 0.449368
3412.87, 0.449051
3415.12, 0.449241
3417.37, 0.449495
3419.63, 0.449876
3421.88, 0.450573
3424.14, 0.451525
3426.41, 0.452477
3428.67, 0.453365
3430.94, 0.454253
3433.21, 0.454888
3435.49, 0.455522
3437.77, 0.456220
3440.05, 0.456791
3442.33, 0.457235
3444.62, 0.457616
3446.91, 0.457869
3449.2, 0.458250
3451.5, 0.458567
3453.8, 0.458821
3456.1, 0.459138
3458.41, 0.459519
3460.72, 0.459582
3463.03, 0.459709
3465.34, 0.459773
3467.66, 0.459646
3469.98, 0.459582
3472.31, 0.459646
3474.63, 0.459709
3476.96, 0.459773
3479.3, 0.459836
3481.64, 0.460026
3483.97, 0.460153
3486.32, 0.460153
3488.66, 0.460090
3491.01, 0.459900
3493.36, 0.459582
3495.72, 0.459329
3498.08, 0.459011
3500.44, 0.458885
3502.81, 0.459265
3505.18, 0.459646
3507.55, 0.460344
3509.92, 0.461168
3512.3, 0.461803
3514.68, 0.462437
3517.06, 0.463008
3519.45, 0.463516
3521.84, 0.463960
3524.24, 0.464214
3526.64, 0.464277
3529.04, 0.464404
3531.44, 0.464594
3533.85, 0.464721
3536.26, 0.464912
3538.67, 0.464975
3541.09, 0.464848
3543.51, 0.464721
3545.93, 0.464531
3548.36, 0.464341
3550.79, 0.464404
3553.22, 0.464404
3555.66, 0.464404
3558.1, 0.464150
3560.54, 0.463897
3562.99, 0.463770
3565.44, 0.463706
3567.9, 0.463516
3570.35, 0.463389
3572.81, 0.463135
3575.28, 0.462945
3577.75, 0.462881
3580.22, 0.462628
3582.69, 0.462501
3585.17, 0.462310
3587.65, 0.462120
3590.14, 0.461866
3592.62, 0.461613
3595.11, 0.461422
3597.61, 0.461232
3600.11, 0.460851
3602.61, 0.460534
3605.11, 0.460153
3607.62, 0.459900
3610.14, 0.459582
3612.65, 0.459329
3615.17, 0.459011
3617.69, 0.458694
3620.22, 0.458504
3622.75, 0.458187
3625.28, 0.457743
3627.82, 0.457362
3630.36, 0.457172
3632.9, 0.456981
3635.45, 0.456664
3638.0, 0.456220
3640.56, 0.455903
3643.12, 0.455649
3645.68, 0.455141
3648.24, 0.454761
3650.81, 0.454507
3653.39, 0.454190
3655.96, 0.453936
3658.54, 0.453492
3661.13, 0.453048
3663.71, 0.452667
3666.3, 0.452286
3668.9, 0.451842
3671.5, 0.451462
3674.1, 0.451144
3676.7, 0.450637
3679.31, 0.450129
3681.93, 0.449749
3684.54, 0.449432
3687.17, 0.448987
3689.79, 0.448480
3692.42, 0.447972
3695.05, 0.447592
3697.69, 0.447274
3700.32, 0.446957
3702.97, 0.446640
3705.61, 0.446196
3708.27, 0.445879
3710.92, 0.445561
3713.58, 0.445117
3716.24, 0.444800
3718.91, 0.444483
3721.58, 0.444166
3724.25, 0.443722
3726.93, 0.443468
3729.61, 0.443341
3732.29, 0.443087
3734.98, 0.442897
3737.67, 0.442580
3740.37, 0.442262
3743.07, 0.442072
3745.78, 0.441691
3748.49, 0.441311
3751.2, 0.440994
3753.91, 0.440803
3756.63, 0.440549
3759.36, 0.440359
3762.09, 0.440105
3764.82, 0.439788
3767.55, 0.439534
3770.29, 0.439281
3773.04, 0.438900
3775.78, 0.438456
3778.54, 0.438202
3781.29, 0.438012
3784.05, 0.437631
3786.82, 0.437314
3789.59, 0.437060
3792.36, 0.436679
3795.13, 0.436235
3797.92, 0.435664
3800.7, 0.435347
3803.49, 0.435093
3806.28, 0.434649
3809.08, 0.434142
3811.88, 0.433507
3814.68, 0.433000
3817.49, 0.432492
3820.31, 0.431921
3823.12, 0.431350
3825.94, 0.430716
3828.77, 0.430081
3831.6, 0.429637
3834.43, 0.429066
3837.27, 0.428305
3840.11, 0.427670
3842.96, 0.427099
3845.81, 0.426338
3848.67, 0.425704
3851.53, 0.424879
3854.39, 0.424118
3857.26, 0.423420
3860.13, 0.422785
3863.01, 0.422087
3865.89, 0.421263
3868.77, 0.420438
3871.66, 0.419677
3874.55, 0.418725
3877.45, 0.417837
3880.35, 0.417012
3883.26, 0.416378
3886.17, 0.415616
3889.09, 0.414665
3892.01, 0.413903
3894.93, 0.413079
3897.86, 0.412127
3900.79, 0.411302
3903.73, 0.410477
3906.67, 0.409716
3909.62, 0.408891
3912.57, 0.408003
3915.52, 0.407178
3918.48, 0.406607
3921.45, 0.405783
3924.42, 0.405021
3927.39, 0.404323
3930.37, 0.403689
3933.35, 0.403055
3936.34, 0.402293
3939.33, 0.401595
3942.32, 0.400961
3945.32, 0.400453
3948.33, 0.399819
3951.34, 0.399248
3954.35, 0.398677
3957.37, 0.398169
3960.39, 0.397662
3963.42, 0.397091
3966.45, 0.396774
3969.49, 0.396520
3972.53, 0.396330
3975.58, 0.396076
3978.63, 0.395822
3981.68, 0.395632
3984.75, 0.395505
3987.81, 0.395505
3990.88, 0.395568
3993.95, 0.395632
3997.03, 0.395822
4000.12, 0.396076
4003.21, 0.396520
4006.3, 0.396964
4009.4, 0.397408
4012.5, 0.397789
4015.61, 0.398296
4018.72, 0.398994
4021.84, 0.399629
4024.96, 0.400200
4028.09, 0.400897
4031.22, 0.401532
4034.36, 0.402166
4037.5, 0.402801
4040.65, 0.403499
4043.8, 0.404070
4046.96, 0.404641
4050.12, 0.405212
4053.29, 0.405783
4056.46, 0.406417
4059.64, 0.407115
4062.82, 0.407622
4066.0, 0.408130
4069.19, 0.408511
4072.39, 0.408955
4075.59, 0.409399
4078.8, 0.409906
4082.01, 0.410224
4085.23, 0.410477
4088.45, 0.410795
4091.68, 0.411175
4094.91, 0.411556
4098.15, 0.411683
4101.39, 0.411810
4104.63, 0.411810
4107.89, 0.411937
4111.14, 0.412000
4114.41, 0.412000
4117.67, 0.412000
4120.95, 0.411937
4124.23, 0.411746
4127.51, 0.411746
4130.8, 0.411746
4134.09, 0.411556
4137.39, 0.411175
4140.7, 0.410985
4144.01, 0.410858
4147.32, 0.410604
4150.64, 0.410287
4153.97, 0.409970
4157.3, 0.409653
4160.64, 0.409272
4163.98, 0.408828
4167.33, 0.408384
4170.68, 0.408067
4174.04, 0.407686
4177.4, 0.407305
4180.77, 0.406861
4184.14, 0.406354
4187.52, 0.405973
4190.91, 0.405529
4194.3, 0.405021
4197.69, 0.404641
4201.1, 0.404260
4204.5, 0.403943
4207.92, 0.403562
4211.34, 0.403118
4214.76, 0.402737
4218.19, 0.402293
4221.62, 0.401786
4225.06, 0.401278
4228.51, 0.400834
4231.96, 0.400390
4235.42, 0.399819
4238.88, 0.399248
4242.35, 0.398931
4245.83, 0.398423
4249.31, 0.397852
4252.79, 0.397408
4256.28, 0.396964
4259.78, 0.396520
4263.29, 0.396139
4266.79, 0.395505
4270.31, 0.394870
4273.83, 0.394299
4277.35, 0.393855
4280.89, 0.393348
4284.42, 0.392840
4287.97, 0.392333
4291.52, 0.391952
4295.07, 0.391635
4298.63, 0.391191
4302.2, 0.390747
4305.78, 0.390239
4309.35, 0.389858
4312.94, 0.389478
4316.53, 0.389034
4320.13, 0.388526
4323.73, 0.387955
4327.34, 0.387574
4330.96, 0.387130
4334.58, 0.386750
4338.21, 0.386242
4341.84, 0.385798
4345.48, 0.385481
4349.12, 0.385100
4352.77, 0.384783
4356.43, 0.384402
4360.1, 0.383958
4363.76, 0.383324
4367.44, 0.382689
4371.12, 0.382372
4374.81, 0.382118
4378.51, 0.381738
4382.21, 0.381357
4385.92, 0.381040
4389.63, 0.380722
4393.35, 0.380405
4397.08, 0.380025
4400.81, 0.379581
4404.55, 0.379263
4408.29, 0.378946
4412.04, 0.378565
4415.8, 0.378248
4419.57, 0.377931
4423.34, 0.377550
4427.12, 0.377170
4430.9, 0.376789
4434.69, 0.376281
4438.49, 0.375901
4442.29, 0.375457
4446.1, 0.374949
4449.92, 0.374505
4453.74, 0.374188
4457.57, 0.373680
4461.41, 0.373109
4465.25, 0.372538
4469.1, 0.372031
4472.95, 0.371587
4476.82, 0.371079
4480.69, 0.370572
4484.56, 0.370064
4488.44, 0.369493
4492.33, 0.368922
4496.23, 0.368478
4500.13, 0.368097
4504.04, 0.367590
4507.96, 0.366955
4511.88, 0.366448
4515.81, 0.365877
4519.75, 0.365369
4523.69, 0.364798
4527.65, 0.364164
4531.6, 0.363593
4535.57, 0.362958
4539.54, 0.362387
4543.52, 0.361816
4547.5, 0.361182
4551.5, 0.360611
4555.5, 0.359786
4559.5, 0.359088
4563.52, 0.358517
4567.54, 0.357820
4571.56, 0.357122
4575.6, 0.356678
4579.64, 0.356170
4583.69, 0.355472
4587.75, 0.354965
4591.81, 0.354711
4595.88, 0.354457
4599.96, 0.354140
4604.04, 0.353823
4608.14, 0.353569
4612.24, 0.353379
4616.34, 0.353252
4620.46, 0.353188
4624.58, 0.353379
4628.71, 0.353505
4632.84, 0.353569
4636.99, 0.353823
4641.14, 0.354140
4645.3, 0.354330
4649.47, 0.354394
4653.64, 0.354394
4657.82, 0.354457
4662.01, 0.354394
4666.21, 0.354267
4670.41, 0.354267
4674.62, 0.354330
4678.84, 0.354203
4683.07, 0.354076
4687.3, 0.353950
4691.54, 0.354013
4695.79, 0.354203
4700.05, 0.354394
4704.31, 0.354520
4708.59, 0.354520
4712.87, 0.354520
4717.15, 0.354457
4721.45, 0.354267
4725.76, 0.353950
4730.07, 0.353696
4734.39, 0.353315
4738.72, 0.352871
4743.05, 0.352300
4747.39, 0.351602
4751.75, 0.350968
4756.1, 0.350206
4760.47, 0.349508
4764.85, 0.348874
4769.23, 0.348113
4773.62, 0.347351
4778.02, 0.346590
4782.43, 0.346146
4786.85, 0.345638
4791.27, 0.345258
4795.7, 0.344750
4800.14, 0.344496
4804.59, 0.344179
4809.05, 0.343862
4813.51, 0.343672
4817.99, 0.343354
4822.47, 0.342974
4826.96, 0.342593
4831.46, 0.342212
4835.96, 0.341705
4840.48, 0.341197
4845.0, 0.340626
4849.54, 0.339992
4854.08, 0.339358
4858.63, 0.338977
4863.18, 0.338533
4867.75, 0.338089
4872.33, 0.337708
4876.91, 0.337391
4881.5, 0.337010
4886.1, 0.336503
4890.71, 0.335995
4895.33, 0.335551
4899.96, 0.334917
4904.59, 0.334346
4909.24, 0.333775
4913.89, 0.333267
4918.55, 0.332759
4923.22, 0.332062
4927.9, 0.331364
4932.59, 0.330793
4937.29, 0.330158
4942.0, 0.329524
4946.71, 0.328763
4951.44, 0.327938
4956.17, 0.327050
4960.91, 0.326098
4965.67, 0.325210
4970.43, 0.324195
4975.2, 0.323116
4979.98, 0.321784
4984.76, 0.320325
4989.56, 0.318802
4994.37, 0.317216
4999.18, 0.315566
5004.01, 0.313980
5008.84, 0.312267
5013.69, 0.310681
5018.54, 0.309285
5023.4, 0.308144
5028.28, 0.307255
5033.16, 0.306431
5038.05, 0.305606
5042.95, 0.305035
5047.86, 0.304718
5052.78, 0.304527
5057.71, 0.304337
5062.65, 0.304273
5067.6, 0.304083
5072.56, 0.303956
5077.53, 0.303766
5082.5, 0.303322
5087.49, 0.302878
5092.49, 0.302180
5097.5, 0.300974
5102.51, 0.299579
5107.54, 0.297993
5112.58, 0.296280
5117.62, 0.294440
5122.68, 0.292537
5127.75, 0.290633
5132.82, 0.288793
5137.91, 0.286953
5143.01, 0.284987
5148.12, 0.283083
5153.23, 0.281370
5158.36, 0.279467
5163.5, 0.277310
5168.65, 0.275153
5173.81, 0.273059
5178.98, 0.270839
5184.15, 0.268745
5189.34, 0.266652
5194.54, 0.264431
5199.75, 0.262147
5204.98, 0.259673
5210.21, 0.256945
5215.45, 0.253963
5220.7, 0.250981
5225.96, 0.247555
5231.23, 0.243622
5236.52, 0.239181
5241.81, 0.234296
5247.12, 0.229030
5252.44, 0.223257
5257.76, 0.216912
5263.1, 0.210060
5268.45, 0.202764
5273.81, 0.195151
5279.18, 0.187348
5284.56, 0.179544
5289.95, 0.171741
5295.36, 0.164445
5300.77, 0.157656
5306.2, 0.151375
5311.63, 0.145666
5317.08, 0.140717
5322.54, 0.136276
5328.01, 0.132406
5333.49, 0.128790
5338.98, 0.125617
5344.49, 0.122826
5350.0, 0.120161
5355.53, 0.117877
5361.07, 0.115593
5366.62, 0.113310
5372.18, 0.111152
5377.75, 0.108868
5383.34, 0.106585
5388.93, 0.104364
5394.54, 0.102270
5400.16, 0.100240
5405.79, 0.0984000
5411.44, 0.0964340
5417.09, 0.0943400
5422.76, 0.0921830
5428.43, 0.0904070
5434.12, 0.0886940
5439.83, 0.0868540
5445.54, 0.0851410
5451.26, 0.0837450
5457.0, 0.0826660
5462.75, 0.0818420
5468.52, 0.0814610
5474.29, 0.0813340
5480.08, 0.0813980
5485.88, 0.0817150
5491.69, 0.0819690
5497.51, 0.0822220
5503.35, 0.0824760
5509.2, 0.0826030
5515.06, 0.0825400
5520.93, 0.0824130
5526.82, 0.0821590
5532.71, 0.0819050
5538.63, 0.0815880
5544.55, 0.0811440
5550.49, 0.0805090
5556.44, 0.0800650
5562.4, 0.0796850
5568.37, 0.0792410
5574.36, 0.0786700
5580.36, 0.0780350
5586.37, 0.0776540
5592.4, 0.0772100
5598.44, 0.0766390
5604.49, 0.0761320
5610.56, 0.0756240
5616.63, 0.0749900
5622.73, 0.0744190
5628.83, 0.0736580
5634.95, 0.0725790
5641.08, 0.0714370
5647.23, 0.0704220
5653.39, 0.0692800
5659.56, 0.0680750
5665.74, 0.0667420
5671.94, 0.0652830
5678.15, 0.0641410
5684.38, 0.0629360
5690.62, 0.0617300
5696.87, 0.0608420
5703.14, 0.0599540
5709.42, 0.0589390
5715.72, 0.0581770
5722.03, 0.0574800
5728.35, 0.0567180
5734.69, 0.0558300
5741.03, 0.0550050
5747.4, 0.0539900
5753.78, 0.0531020
5760.17, 0.0521500
5766.58, 0.0512620
5773.0, 0.0506910
5779.44, 0.0501200
5785.88, 0.0495490
5792.35, 0.0492320
5798.83, 0.0488510
5805.32, 0.0485340
5811.83, 0.0479630
5818.35, 0.0473290
5824.89, 0.0470110
5831.45, 0.0469480
5838.01, 0.0467580
5844.59, 0.0465670
5851.19, 0.0461870
5857.8, 0.0458060
5864.43, 0.0454250
5871.07, 0.0451720
5877.73, 0.0446640
5884.4, 0.0446010
5891.09, 0.0446640
5897.79, 0.0446010
5904.5, 0.0447910
5911.23, 0.0449180
5917.98, 0.0448540
5924.75, 0.0450450
5931.53, 0.0451080
5938.32, 0.0454250
5945.13, 0.0460600
5951.96, 0.0466310
5958.8, 0.0472020
5965.65, 0.0478360
5972.53, 0.0486610
5979.42, 0.0496760
5986.32, 0.0504370
5993.24, 0.0515160
6000.18, 0.0527210
6007.13, 0.0538000
6014.1, 0.0549420
6021.08, 0.0564010
6028.09, 0.0579240
6035.1, 0.0594460
6042.14, 0.0607150
6049.19, 0.0623650
6056.25, 0.0650290
6063.34, 0.0676940
6070.44, 0.0703580
6077.55, 0.0738480
6084.69, 0.0776540
6091.84, 0.0816510
6099.0, 0.0857750
6106.19, 0.0898360
6113.39, 0.0942130
6120.61, 0.0996060
6127.84, 0.104998
6135.09, 0.110328
6142.36, 0.115530
6149.65, 0.120923
6156.95, 0.125998
6164.27, 0.131200
6171.61, 0.136276
6178.97, 0.140590
6186.34, 0.144777
6193.73, 0.149789
6201.14, 0.154167
6208.57, 0.158037
6216.01, 0.161526
6223.47, 0.164762
6230.95, 0.167744
6238.45, 0.170345
6245.97, 0.172565
6253.5, 0.174342
6261.06, 0.175865
6268.63, 0.177197
6276.21, 0.178275
6283.82, 0.179227
6291.45, 0.179925
6299.1, 0.180623
6306.76, 0.181194
6314.44, 0.181955
6322.14, 0.182653
6329.86, 0.183224
6337.6, 0.183160
6345.35, 0.183224
6353.13, 0.184493
6360.92, 0.185318
6368.74, 0.185571
6376.57, 0.186269
6384.43, 0.186967
6392.3, 0.187348
6400.19, 0.187538
6408.1, 0.186459
6416.03, 0.186206
6423.98, 0.187982
6431.95, 0.188870
6439.94, 0.189188
6447.95, 0.189378
6455.98, 0.189188
6464.03, 0.188490
6472.1, 0.187284
6480.19, 0.185889
6488.31, 0.183858
6496.44, 0.182082
6504.59, 0.181574
6512.76, 0.180052
6520.95, 0.177577
6529.16, 0.175484
6537.4, 0.173136
6545.65, 0.170408
6553.92, 0.167617
6562.22, 0.164952
6570.54, 0.161844
6578.88, 0.159433
6587.23, 0.157339
6595.61, 0.154738
6604.02, 0.152454
6612.44, 0.150107
6620.89, 0.147696
6629.35, 0.144650
6637.84, 0.141859
6646.35, 0.140717
6654.88, 0.139575
6663.44, 0.137735
6672.01, 0.135832
6680.61, 0.134055
6689.23, 0.132723
6697.88, 0.131454
6706.54, 0.129741
6715.23, 0.128346
6723.94, 0.127204
6732.67, 0.126125
6741.42, 0.124793
6750.2, 0.123334
6759.0, 0.121938
6767.82, 0.120415
6776.67, 0.118702
6785.54, 0.116609
6794.44, 0.114451
6803.35, 0.112675
6812.29, 0.110391
6821.26, 0.107473
6830.24, 0.104681
6839.25, 0.102144
6848.29, 0.0991620
6857.35, 0.0957360
6866.43, 0.0926900
6875.54, 0.0905330
6884.67, 0.0883130
6893.82, 0.0859660
6903.0, 0.0835550
6912.2, 0.0813980
6921.43, 0.0795580
6930.69, 0.0780350
6939.96, 0.0765120
6949.27, 0.0749900
6958.59, 0.0735940
6967.95, 0.0728960
6977.33, 0.0723890
6986.73, 0.0717540
6996.16, 0.0709930
7005.61, 0.0704220
7015.09, 0.0698510
7024.6, 0.0692170
7034.13, 0.0685190
7043.69, 0.0676300
7053.27, 0.0669330
7062.88, 0.0663620
7072.52, 0.0656000
7082.18, 0.0647120
7091.87, 0.0639510
7101.58, 0.0632530
7111.32, 0.0626180
7121.09, 0.0621740
7130.88, 0.0618570
7140.71, 0.0614130
7150.56, 0.0611590
7160.43, 0.0611590
7170.33, 0.0610960
7180.27, 0.0612230
7190.23, 0.0613500
7200.21, 0.0613500
7210.23, 0.0613500
7220.27, 0.0612230
7230.34, 0.0609050
7240.44, 0.0605250
7250.56, 0.0600170
7260.72, 0.0593830
7270.9, 0.0586210
7281.12, 0.0579870
7291.36, 0.0572890
7301.63, 0.0566550
7311.93, 0.0558300
7322.25, 0.0551320
7332.61, 0.0544340
7343.0, 0.0537360
7353.41, 0.0532290
7363.86, 0.0528480
7374.33, 0.0522770
7384.83, 0.0516430
7395.37, 0.0511350
7405.93, 0.0505640
7416.53, 0.0498030
7427.15, 0.0491680
7437.81, 0.0484710
7448.5, 0.0477090
7459.22, 0.0469480
7469.96, 0.0464400
7480.74, 0.0459960
7491.55, 0.0455520
7502.39, 0.0451080
7513.27, 0.0449180
7524.17, 0.0447910
7535.11, 0.0446010
7546.08, 0.0446640
7557.08, 0.0447910
7568.11, 0.0449180
7579.17, 0.0449810
7590.27, 0.0449180
7601.4, 0.0447910
7612.56, 0.0447910
7623.76, 0.0449180
7634.98, 0.0447270
7646.24, 0.0446640
7657.54, 0.0446640
7668.87, 0.0447270
7680.23, 0.0446640
7691.62, 0.0446640
7703.05, 0.0447910
7714.51, 0.0447270
7726.01, 0.0446640
7737.54, 0.0446640
7749.11, 0.0445370
7760.71, 0.0445370
7772.35, 0.0445370
7784.02, 0.0443470
7795.72, 0.0439660
7807.46, 0.0435850
7819.23, 0.0431410
7831.04, 0.0426340
7842.89, 0.0419990
7854.77, 0.0414920
7866.69, 0.0411110
7878.65, 0.0405400
7890.64, 0.0400330
7902.67, 0.0394620
7914.74, 0.0387640
7926.84, 0.0382560
7938.98, 0.0377490
7951.16, 0.0373050
7963.37, 0.0368600
7975.62, 0.0362260
7987.91, 0.0356550
8000.24, 0.0351480
8012.6, 0.0347030
8025.01, 0.0345130
8037.45, 0.0340060
8049.93, 0.0333710
8062.45, 0.0330540
8075.01, 0.0328000
8087.61, 0.0321020
8100.24, 0.0315950
8112.91, 0.0312770
8125.63, 0.0309600
8138.39, 0.0307060
8151.18, 0.0301990
8164.02, 0.0298180
8176.9, 0.0294380
8189.81, 0.0288670
8202.77, 0.0282960
8215.77, 0.0278520
8228.82, 0.0273440
8241.9, 0.0267730
8255.02, 0.0263290
8268.19, 0.0258850
8281.39, 0.0253770
8294.65, 0.0249970
8307.94, 0.0245530
8321.28, 0.0241720
8334.66, 0.0238550
8348.08, 0.0234740
8361.54, 0.0230930
8375.05, 0.0227760
8388.6, 0.0225220
8402.2, 0.0223320
8415.84, 0.0221420
8429.52, 0.0218240
8443.25, 0.0215710
8457.02, 0.0213800
8470.84, 0.0211270
8484.7, 0.0208730
8498.61, 0.0207460
8512.57, 0.0206190
8526.57, 0.0206190
8540.62, 0.0204290
8554.71, 0.0203650
8568.85, 0.0203020
8583.04, 0.0201750
8597.27, 0.0201110
8611.55, 0.0201750
8625.88, 0.0203020
8640.26, 0.0204290
8654.68, 0.0206190
8669.16, 0.0210000
8683.68, 0.0214440
8698.25, 0.0216980
8712.87, 0.0217610
8727.53, 0.0219510
8742.25, 0.0222050
8757.02, 0.0223320
8771.83, 0.0224590
8786.7, 0.0225860
8801.62, 0.0228400
8816.59, 0.0230300
8831.61, 0.0232200
8846.68, 0.0236640
8861.8, 0.0238550
8876.97, 0.0240450
8892.2, 0.0242990
8907.48, 0.0244260
8922.81, 0.0244260
8938.2, 0.0245530
8953.63, 0.0246790
8969.13, 0.0249330
8984.67, 0.0251230
9000.27, 0.0251230
9015.92, 0.0251870
9031.63, 0.0250600
9047.39, 0.0248700
9063.21, 0.0246790
9079.08, 0.0243620
9095.01, 0.0237910
9111.0, 0.0234740
9127.04, 0.0233470
9143.13, 0.0229660
9159.28, 0.0225860
9175.49, 0.0224590
9191.76, 0.0222050
9208.09, 0.0218240
9224.47, 0.0216340
9240.92, 0.0213800
9257.42, 0.0212530
9273.98, 0.0213170
9290.6, 0.0212530
9307.28, 0.0212530
9324.02, 0.0217610
9340.82, 0.0222050
9357.68, 0.0225860
9374.6, 0.0229660
9391.58, 0.0234740
9408.62, 0.0241080
9425.73, 0.0248060
9442.9, 0.0252500
9460.13, 0.0257580
9477.42, 0.0263290
9494.78, 0.0271540
9512.2, 0.0286760
9529.69, 0.0305160
9547.24, 0.0325460
9564.86, 0.0353380
9582.54, 0.0390810
9600.28, 0.0437760
9618.1, 0.0489780
9635.97, 0.0551320
9653.92, 0.0624920
9671.93, 0.0708030
9690.01, 0.0802560
9708.16, 0.0907870
9726.37, 0.102841
9744.65, 0.116482
9763.0, 0.131645
9781.43, 0.148394
9799.92, 0.166919
9818.48, 0.186777
9837.1, 0.207459
9855.8, 0.228713
9874.58, 0.249966
9893.42, 0.270585
9912.34, 0.291585
9931.33, 0.313156
9950.39, 0.335805
9969.52, 0.359659
9988.74, 0.383704
10008.0, 0.407305
10027.4, 0.429574
10046.8, 0.449685
10066.3, 0.467386
10085.9, 0.483247
10105.6, 0.497648
10125.3, 0.510020
10145.1, 0.520551
10165.0, 0.530131
10185.0, 0.539077
10205.0, 0.546753
10225.2, 0.553288
10245.4, 0.558617
10265.7, 0.562931
10286.0, 0.566484
10306.5, 0.569783
10327.0, 0.573082
10347.6, 0.577523
10368.3, 0.582218
10389.1, 0.585644
10409.9, 0.586532
10430.9, 0.585073
10451.9, 0.581266
10473.0, 0.576318
10494.2, 0.570925
10515.5, 0.565913
10536.9, 0.561409
10558.4, 0.558046
10579.9, 0.555889
10601.5, 0.554493
10623.3, 0.553351
10645.1, 0.552463
10667.0, 0.550306
10689.0, 0.546753
10711.1, 0.542185
10733.2, 0.536856
10755.5, 0.531464
10777.9, 0.526769
10800.3, 0.522264
10822.9, 0.517569
10845.5, 0.512367
10868.2, 0.505642
10891.1, 0.495872
10914.0, 0.483056
10937.0, 0.466751
10960.2, 0.446323
10983.4, 0.421326
11006.7, 0.391444
11030.1, 0.357058
11053.6, 0.319563
11077.3, 0.281180
11101.0, 0.243876
11124.8, 0.209680
11148.7, 0.179925
11172.7, 0.155055
11196.9, 0.135705
11221.1, 0.121430
11245.4, 0.113500
11269.9, 0.113119
11294.4, 0.121303
11319.1, 0.138370
11343.9, 0.162922
11368.8, 0.192613
11393.7, 0.224589
11418.8, 0.256310
11444.0, 0.286319
11469.4, 0.314107
11494.8, 0.339675
11520.3, 0.363085
11546.0, 0.383324
11571.8, 0.398677
11597.7, 0.408130
11623.7, 0.411556
11649.8, 0.408701
11676.0, 0.399184
11702.4, 0.384656
11728.9, 0.367336
11755.5, 0.350650
11782.2, 0.339231
11809.0, 0.336503
11836.0, 0.342212
11863.0, 0.353188
11890.3, 0.365496
11917.6, 0.374949
11945.0, 0.378058
11972.6, 0.375076
12000.4, 0.366511
12028.2, 0.353315
12056.2, 0.337454
12084.3, 0.320451
12112.5, 0.303195
12140.9, 0.286890
12169.4, 0.271537
12198.0, 0.257389
12226.8, 0.244510
12255.7, 0.233344
12284.7, 0.223066
12313.9, 0.214311
12343.2, 0.206508
12372.7, 0.199212
12402.3, 0.192423
12432.0, 0.186015
12461.9, 0.179925
12491.9, 0.174088
12522.1, 0.168505
12552.4, 0.162922
12582.9, 0.157529
12613.5, 0.152644
12644.3, 0.148013
12675.2, 0.143762
12706.3, 0.139765
12737.5, 0.135642
12768.9, 0.132089
12800.4, 0.129043
12832.1, 0.126125
12863.9, 0.123651
12895.9, 0.121113
12928.1, 0.118322
12960.4, 0.115720
12992.9, 0.113310
13025.5, 0.111152
13058.3, 0.108868
13091.3, 0.106331
13124.4, 0.103856
13157.8, 0.102461
13191.2, 0.101002
13224.9, 0.0992250
13258.7, 0.0974490
13292.7, 0.0958630
13326.9, 0.0938960
13361.2, 0.0918660
13395.7, 0.0898360
13430.4, 0.0878050
13465.3, 0.0862190
13500.4, 0.0848870
13535.7, 0.0834280
13571.1, 0.0818420
13606.7, 0.0803830
13642.5, 0.0798120
13678.5, 0.0787960
13714.7, 0.0778450
13751.1, 0.0769570
13787.6, 0.0756880
13824.4, 0.0741650
13861.4, 0.0728330
13898.5, 0.0718180
13935.9, 0.0705490
13973.5, 0.0694700
14011.2, 0.0690260
14049.2, 0.0682650
14087.4, 0.0676940
14125.8, 0.0666790
14164.3, 0.0655370
14203.2, 0.0652830
14242.2, 0.0649020
14281.4, 0.0637600
14320.9, 0.0626180
14360.5, 0.0616670
14400.4, 0.0611590
14440.5, 0.0598270
14480.9, 0.0580510
14521.4, 0.0569720
14562.2, 0.0558930
14603.3, 0.0546880
14644.5, 0.0536730
14686.0, 0.0519600
14727.7, 0.0506280
14769.7, 0.0499300
14811.9, 0.0497390
14854.3, 0.0494220
14897.0, 0.0488510
14939.9, 0.0480900
14983.1, 0.0470110
15026.5, 0.0454250
15070.2, 0.0442200
15114.2, 0.0428880
15158.3, 0.0415550
15202.8, 0.0405400
15247.5, 0.0400330
15292.5, 0.0390810
15337.7, 0.0373050
15383.2, 0.0353380
15429.0, 0.0338790
15475.1, 0.0321020
15521.4, 0.0301360
15568.0, 0.0283590
15614.9, 0.0267730
15662.1, 0.0245530
15709.6, 0.0225860
15757.3, 0.0208090
15805.4, 0.0190960
15853.7, 0.0172570
15902.3, 0.0159880
15951.2, 0.0154170
16000.5, 0.0157340
16050.0, 0.0170660
16099.8, 0.0206820
16150.0, 0.0265830
16200.5, 0.0341320
16251.3, 0.0406670
16302.4, 0.0438390
16353.8, 0.0429510
16405.5, 0.0398420
16457.6, 0.0356550
16510.0, 0.0315310
16562.8, 0.0273440
16615.9, 0.0234740
16669.3, 0.0203020
16723.1, 0.0177640
16777.2, 0.0158610
16831.7, 0.0141480
16886.5, 0.0134500
16941.7, 0.0137670
16997.2, 0.0142750
17053.1, 0.0162410
17109.4, 0.0198580
17166.1, 0.0260120
17223.1, 0.0345770
17280.5, 0.0452350
17338.3, 0.0586210
17396.5, 0.0752440
17455.1, 0.0944670
17514.0, 0.114388
17573.4, 0.134880
17633.2, 0.157529
17693.4, 0.183541
17754.0, 0.212535
17815.0, 0.243178
17876.4, 0.274201
17938.3, 0.302878
18000.5, 0.325971
18063.3, 0.342783
18126.4, 0.354203
18190.0, 0.359786
18254.1, 0.361119
18318.6, 0.357946
18383.5, 0.350270
18449.0, 0.336566
18514.9, 0.316962
18581.2, 0.291395
18648.0, 0.260625
18715.4, 0.226302
18783.2, 0.191725
18851.5, 0.160384
18920.3, 0.135451
18989.6, 0.117941
19059.4, 0.109249
19129.7, 0.111089
19200.6, 0.125871
19272.0, 0.153406
19343.9, 0.192106
19416.3, 0.238229
19489.3, 0.285875
19562.8, 0.330983
19637.0, 0.370128
19711.6, 0.399629
19786.8, 0.416314
19862.6, 0.420184
19939.0, 0.415680
20016.0, 0.410921
20093.6, 0.415807
20171.8, 0.428686
20250.6, 0.442833
20330.0, 0.456410
20410.0, 0.469924
20490.7, 0.482422
20572.0, 0.492509
20654.0, 0.502026
20736.6, 0.509956
20819.9, 0.516427
20903.8, 0.523406
20988.5, 0.527911
21073.8, 0.530258
21159.8, 0.529370
21246.5, 0.525119
21334.0, 0.514397
21422.1, 0.492890
21511.0, 0.464087
21600.7, 0.442516
21691.0, 0.442326
21782.1, 0.458885
21874.0, 0.481661
21966.7, 0.502089
22060.2, 0.513636
22154.5, 0.520551
22249.6, 0.526769
22345.5, 0.533240
22442.2, 0.539965
22539.8, 0.544723
22638.2, 0.546119
22737.5, 0.547143
22837.7, 0.543704
22938.7, 0.535383
23040.7, 0.521074
23143.5, 0.500653
23247.3, 0.476537
23352.1, 0.446732
23457.7, 0.414210
23564.4, 0.381773
23672.0, 0.350949
23780.5, 0.324711
23890.1, 0.301445
24000.7, 0.281235
24112.3, 0.263063
24225.0, 0.247312
24338.7, 0.231773
24453.5, 0.218441
24569.4, 0.207020
24686.4, 0.197977
24804.5, 0.191906
24923.8, 0.191778
25044.2, 0.198571
25165.8, 0.216446
25288.6, 0.244637
25412.5, 0.275758
25537.7, 0.304968
25664.1, 0.324753
25791.8, 0.329678
25920.8, 0.323819
26051.1, 0.314521
26182.6, 0.302124
26315.5, 0.287519
26449.8, 0.272998
26585.4, 0.260898
26722.5, 0.252067
26860.9, 0.244128
27000.8, 0.234872
27142.1, 0.228588
27285.0, 0.223196
27429.4, 0.218186
27575.3, 0.215214
27722.7, 0.212073
27871.8, 0.208719
28022.4, 0.205789
28174.7, 0.204643
28328.7, 0.202775
28484.4, 0.200906
28641.7, 0.197977
28800.9, 0.195897
28961.8, 0.192457
29124.5, 0.189231
29289.0, 0.186513
29455.4, 0.182565
29623.8, 0.178701
29794.0, 0.175984
29966.3, 0.173224
30140.5, 0.171484
30316.7, 0.168215
30495.1, 0.164224
30675.5, 0.162101
30858.1, 0.159426
31042.8, 0.156157
31229.8, 0.153270
31419.1, 0.149576
31610.7, 0.145245
31804.6, 0.141594
32000.9, 0.137815
32199.7, 0.134207
32400.9, 0.132636
32604.8, 0.131489
32811.1, 0.129918
33020.1, 0.128220
33231.8, 0.128093
33446.2, 0.129239
33663.4, 0.132466
33883.4, 0.136584
34106.3, 0.138452
34332.1, 0.137603
34561.0, 0.137391
34792.9, 0.136372
35028.0, 0.133485
35266.3, 0.130428
35507.8, 0.128135
35752.7, 0.125885
36001.0, 0.124611
36252.8, 0.123465
36508.1, 0.120705
36767.0, 0.117945
37029.7, 0.114549
37296.1, 0.111407
37566.3, 0.109114
37840.5, 0.106567
38118.8, 0.105591
38401.2, 0.104274
38687.8, 0.101515
38978.6, 0.0989670
39273.9, 0.0966750
39573.7, 0.0946370
39878.1, 0.0935750
40187.3, 0.0923010
40501.2, 0.0931080
40820.0, 0.0980760
41144.0, 0.110643
41473.2, 0.126692
41807.6, 0.144439
42147.5, 0.160530
42493.0, 0.169488
42844.2, 0.168342
43201.2, 0.162398
43564.3, 0.155817
43933.5, 0.147963
44309.0, 0.142188
44691.0, 0.136627
45079.6, 0.131277
45475.0, 0.127711
45877.5, 0.123338
46287.1, 0.117096
46704.2, 0.112808
47128.7, 0.108520
47561.1, 0.103340
48001.5, 0.0963350
48450.1, 0.0907310
48907.2, 0.0903060
49373.0, 0.108478
49847.7, 0.137603
50331.5, 0.151784
50825.0, 0.149958
51328.2, 0.142868
51841.5, 0.136372
52365.1, 0.130258
52899.4, 0.124187
53444.8, 0.117945
54001.5, 0.111237
54570.1, 0.108180
55150.6, 0.114549
55743.6, 0.129027
56349.5, 0.134631
56968.7, 0.140745
57601.7, 0.146774
58248.9, 0.143717
58910.9, 0.140575
59588.1, 0.135013
60281.0, 0.130046
60990.2, 0.126097
61716.3, 0.122021
62459.8, 0.119941
63221.6, 0.119899
64002.1, 0.119601
64802.1, 0.121045
65622.1, 0.125036
66463.4, 0.130428
67326.6, 0.131192
68212.4, 0.130640
69121.9, 0.130343
70056.0, 0.128475
71015.7, 0.126140
72002.0, 0.126564
73016.3, 0.125927
74059.4, 0.125036
75132.7, 0.121724
76237.6, 0.121342
77375.5, 0.123720
78547.9, 0.122955
79756.3, 0.123465
81002.5, 0.123040
82288.5, 0.119389
83615.7, 0.121045
84986.5, 0.127626
86402.9, 0.132296
87867.4, 0.127753
89382.4, 0.126904
90950.5, 0.128050
92574.6, 0.130768
94257.2, 0.128560
96002.7, 0.127159
97814.1, 0.127711
99695.1, 0.127244
101650.0, 0.124441
103683.0, 0.119516
105799.0, 0.117224
108003.0, 0.116120
110301.0, 0.108775
112699.0, 0.102916
115204.0, 0.0886080
117822.0, 0.100878
120562.0, 0.117606
123433.0, 0.108987
126443.0, 0.102534
129604.0, 0.103510
132926.0, 0.106907
136424.0, 0.108987
140111.0, 0.115271
144003.0, 0.117521
148118.0, 0.118030
152474.0, 0.122021
157095.0, 0.130385
162004.0, 0.135905
167231.0, 0.140533
172805.0, 0.132763
178764.0, 0.138070
185148.0, 0.157813
192005.0, 0.166389
199390.0, 0.164988
207366.0, 0.185410
216006.0, 0.219460
