Database of Origin, USGS Spectral Database
Sample Description, See USGS database for additional info
Date Added,2016-08-10 02:51:36.454883

Data ID,USGS_gro04          
Sample ID, gross_ws483.8641
Mineral Name, gross
Material Class,Nesosilicate

Wavelength
1687.0, 0.707914
1687.55, 0.708832
1688.1, 0.708964
1688.65, 0.709292
1689.2, 0.709292
1689.75, 0.709489
1690.3, 0.709751
1690.85, 0.710670
1691.41, 0.710604
1691.96, 0.710801
1692.51, 0.710933
1693.06, 0.711720
1693.61, 0.711720
1694.17, 0.711983
1694.72, 0.712180
1695.28, 0.712770
1695.83, 0.713230
1696.39, 0.713558
1696.94, 0.713427
1697.5, 0.713820
1698.05, 0.713886
1698.61, 0.713820
1699.17, 0.713624
1699.72, 0.714083
1700.28, 0.714149
1700.84, 0.714542
1701.4, 0.715002
1701.95, 0.715658
1702.51, 0.715199
1703.07, 0.715593
1703.63, 0.715724
1704.19, 0.716380
1704.75, 0.716643
1705.31, 0.717168
1705.88, 0.717365
1706.44, 0.717299
1707.0, 0.716971
1707.56, 0.717365
1708.12, 0.717693
1708.69, 0.718283
1709.25, 0.718087
1709.81, 0.718612
1710.38, 0.718677
1710.94, 0.719268
1711.51, 0.719202
1712.07, 0.719662
1712.64, 0.719530
1713.2, 0.719662
1713.77, 0.719793
1714.34, 0.720187
1714.9, 0.719990
1715.47, 0.720384
1716.04, 0.720909
1716.61, 0.721368
1717.18, 0.721106
1717.74, 0.721499
1718.31, 0.721959
1718.88, 0.722287
1719.45, 0.722025
1720.02, 0.722418
1720.59, 0.722615
1721.17, 0.723140
1721.74, 0.722812
1722.31, 0.723075
1722.88, 0.723009
1723.45, 0.723403
1724.03, 0.723665
1724.6, 0.723993
1725.18, 0.723928
1725.75, 0.724453
1726.33, 0.724453
1726.9, 0.724650
1727.48, 0.724715
1728.05, 0.725306
1728.63, 0.725306
1729.2, 0.726028
1729.78, 0.725766
1730.36, 0.726422
1730.94, 0.726356
1731.51, 0.726356
1732.09, 0.726225
1732.67, 0.726750
1733.25, 0.726881
1733.83, 0.727275
1734.41, 0.727472
1734.99, 0.727931
1735.57, 0.728063
1736.15, 0.728194
1736.73, 0.728391
1737.32, 0.729178
1737.9, 0.729113
1738.48, 0.729441
1739.07, 0.729310
1739.65, 0.729900
1740.23, 0.730032
1740.82, 0.730294
1741.4, 0.730426
1741.99, 0.730688
1742.57, 0.730688
1743.16, 0.731147
1743.74, 0.731082
1744.33, 0.731279
1744.92, 0.731476
1745.51, 0.731804
1746.09, 0.731804
1746.68, 0.732395
1747.27, 0.732920
1747.86, 0.733051
1748.45, 0.732788
1749.04, 0.733445
1749.63, 0.733182
1750.22, 0.733642
1750.81, 0.733838
1751.4, 0.734035
1751.99, 0.734035
1752.59, 0.734429
1753.18, 0.734429
1753.77, 0.734560
1754.37, 0.734626
1754.96, 0.735217
1755.56, 0.735217
1756.15, 0.735479
1756.74, 0.735610
1757.34, 0.736070
1757.94, 0.736332
1758.53, 0.736464
1759.13, 0.736529
1759.73, 0.736989
1760.32, 0.736792
1760.92, 0.736989
1761.52, 0.736989
1762.12, 0.737317
1762.72, 0.737448
1763.32, 0.737776
1763.92, 0.737973
1764.52, 0.738433
1765.12, 0.738367
1765.72, 0.738761
1766.32, 0.738433
1766.92, 0.738761
1767.53, 0.738761
1768.13, 0.738761
1768.73, 0.738892
1769.34, 0.739220
1769.94, 0.738826
1770.55, 0.739023
1771.15, 0.739417
1771.76, 0.739811
1772.36, 0.739614
1772.97, 0.739680
1773.57, 0.739680
1774.18, 0.740205
1774.79, 0.740467
1775.4, 0.740795
1776.0, 0.740533
1776.61, 0.740730
1777.22, 0.740795
1777.83, 0.741058
1778.44, 0.740927
1779.05, 0.740795
1779.66, 0.740992
1780.27, 0.741517
1780.88, 0.741517
1781.5, 0.742108
1782.11, 0.742371
1782.72, 0.742502
1783.33, 0.742436
1783.95, 0.742502
1784.56, 0.742042
1785.18, 0.742042
1785.79, 0.742042
1786.41, 0.742633
1787.02, 0.742568
1787.64, 0.743027
1788.26, 0.742896
1788.87, 0.742961
1789.49, 0.743158
1790.11, 0.743749
1790.73, 0.743618
1791.35, 0.743683
1791.96, 0.743683
1792.58, 0.744208
1793.21, 0.744274
1793.83, 0.744274
1794.45, 0.744274
1795.07, 0.744602
1795.69, 0.744537
1796.31, 0.744865
1796.93, 0.744865
1797.56, 0.744668
1798.18, 0.744537
1798.8, 0.745127
1799.43, 0.745062
1800.05, 0.745455
1800.68, 0.745718
1801.3, 0.745981
1801.93, 0.745587
1802.56, 0.746112
1803.18, 0.746309
1803.81, 0.746309
1804.44, 0.746046
1805.07, 0.746440
1805.7, 0.746571
1806.33, 0.747031
1806.95, 0.747293
1807.58, 0.747424
1808.22, 0.747162
1808.85, 0.747293
1809.48, 0.746965
1810.11, 0.747227
1810.74, 0.747424
1811.38, 0.747818
1812.01, 0.748146
1812.64, 0.748278
1813.28, 0.748409
1813.91, 0.748606
1814.55, 0.748474
1815.18, 0.748737
1815.82, 0.748737
1816.45, 0.749131
1817.09, 0.749065
1817.73, 0.749262
1818.36, 0.749131
1819.0, 0.749525
1819.64, 0.749656
1820.28, 0.749984
1820.92, 0.749984
1821.56, 0.750312
1822.2, 0.750772
1822.84, 0.750509
1823.48, 0.750181
1824.12, 0.750772
1824.76, 0.750837
1825.41, 0.750903
1826.05, 0.751559
1826.69, 0.752019
1827.34, 0.751297
1827.98, 0.751494
1828.63, 0.751756
1829.27, 0.752281
1829.92, 0.752084
1830.56, 0.752281
1831.21, 0.752281
1831.86, 0.752478
1832.5, 0.752478
1833.15, 0.752872
1833.8, 0.752872
1834.45, 0.753069
1835.1, 0.753003
1835.75, 0.753200
1836.4, 0.753463
1837.05, 0.753725
1837.7, 0.753922
1838.35, 0.754250
1839.01, 0.753922
1839.66, 0.754710
1840.31, 0.754644
1840.96, 0.754447
1841.62, 0.754775
1842.27, 0.755103
1842.93, 0.754447
1843.58, 0.754316
1844.24, 0.754578
1844.9, 0.754710
1845.55, 0.754513
1846.21, 0.754907
1846.87, 0.755694
1847.53, 0.756153
1848.18, 0.755760
1848.84, 0.755628
1849.5, 0.755235
1850.16, 0.755432
1850.82, 0.755432
1851.48, 0.755497
1852.14, 0.755235
1852.81, 0.755628
1853.47, 0.755825
1854.13, 0.756482
1854.8, 0.755891
1855.46, 0.755760
1856.12, 0.755628
1856.79, 0.756416
1857.45, 0.756153
1858.12, 0.756088
1858.79, 0.755760
1859.45, 0.756482
1860.12, 0.757007
1860.79, 0.756613
1861.46, 0.756022
1862.12, 0.756022
1862.79, 0.755957
1863.46, 0.756088
1864.13, 0.756153
1864.8, 0.756350
1865.48, 0.756613
1866.15, 0.756679
1866.82, 0.756285
1867.49, 0.756875
1868.16, 0.757204
1868.84, 0.757204
1869.51, 0.757072
1870.19, 0.757401
1870.86, 0.757729
1871.54, 0.757532
1872.21, 0.757072
1872.89, 0.757729
1873.56, 0.757729
1874.24, 0.757532
1874.92, 0.757532
1875.6, 0.757597
1876.28, 0.757401
1876.96, 0.757860
1877.64, 0.757597
1878.32, 0.757401
1879.0, 0.757138
1879.68, 0.757335
1880.36, 0.757335
1881.04, 0.757663
1881.73, 0.757532
1882.41, 0.757729
1883.09, 0.757597
1883.78, 0.757794
1884.46, 0.757794
1885.15, 0.758057
1885.83, 0.758188
1886.52, 0.758057
1887.21, 0.757597
1887.89, 0.757729
1888.58, 0.757729
1889.27, 0.757991
1889.96, 0.758582
1890.65, 0.758713
1891.34, 0.758319
1892.03, 0.758648
1892.72, 0.758582
1893.41, 0.758779
1894.1, 0.758844
1894.79, 0.758516
1895.49, 0.758122
1896.18, 0.758451
1896.87, 0.758385
1897.57, 0.758713
1898.26, 0.758713
1898.96, 0.758779
1899.65, 0.759107
1900.35, 0.759435
1901.05, 0.758976
1901.74, 0.758648
1902.44, 0.758844
1903.14, 0.759041
1903.84, 0.758516
1904.54, 0.758844
1905.24, 0.759501
1905.94, 0.759698
1906.64, 0.759370
1907.34, 0.759370
1908.04, 0.758976
1908.75, 0.759173
1909.45, 0.759041
1910.15, 0.759238
1910.86, 0.758976
1911.56, 0.759501
1912.27, 0.759304
1912.97, 0.759501
1913.68, 0.759632
1914.39, 0.759632
1915.09, 0.759370
1915.8, 0.759632
1916.51, 0.759501
1917.22, 0.759632
1917.93, 0.759435
1918.64, 0.759698
1919.35, 0.760223
1920.06, 0.760748
1920.77, 0.760682
1921.48, 0.760551
1922.19, 0.760091
1922.91, 0.760288
1923.62, 0.760223
1924.33, 0.760551
1925.05, 0.760288
1925.76, 0.760682
1926.48, 0.760551
1927.19, 0.760748
1927.91, 0.760813
1928.63, 0.761076
1929.35, 0.760945
1930.07, 0.761142
1930.78, 0.761076
1931.5, 0.761404
1932.22, 0.761404
1932.94, 0.761732
1933.66, 0.761470
1934.39, 0.761535
1935.11, 0.761470
1935.83, 0.761864
1936.55, 0.761929
1937.28, 0.762126
1938.0, 0.761995
1938.73, 0.762060
1939.45, 0.761798
1940.18, 0.762192
1940.9, 0.762126
1941.63, 0.762323
1942.36, 0.762323
1943.09, 0.762389
1943.81, 0.762060
1944.54, 0.762389
1945.27, 0.762323
1946.0, 0.762389
1946.73, 0.762060
1947.47, 0.762389
1948.2, 0.762454
1948.93, 0.762585
1949.66, 0.762454
1950.4, 0.762848
1951.13, 0.762454
1951.86, 0.762520
1952.6, 0.762585
1953.34, 0.762651
1954.07, 0.762651
1954.81, 0.763045
1955.55, 0.763045
1956.29, 0.763176
1957.02, 0.762782
1957.76, 0.763045
1958.5, 0.762782
1959.24, 0.762782
1959.98, 0.762848
1960.72, 0.763439
1961.47, 0.763439
1962.21, 0.763307
1962.95, 0.763111
1963.7, 0.763176
1964.44, 0.763176
1965.18, 0.763373
1965.93, 0.763045
1966.67, 0.763504
1967.42, 0.763373
1968.17, 0.763373
1968.92, 0.763373
1969.66, 0.763439
1970.41, 0.763439
1971.16, 0.763504
1971.91, 0.763439
1972.66, 0.763833
1973.41, 0.763570
1974.16, 0.763570
1974.92, 0.763570
1975.67, 0.763898
1976.42, 0.763767
1977.18, 0.763833
1977.93, 0.763964
1978.69, 0.764226
1979.44, 0.764161
1980.2, 0.764161
1980.95, 0.763964
1981.71, 0.764161
1982.47, 0.764226
1983.23, 0.764423
1983.99, 0.764292
1984.74, 0.764620
1985.51, 0.764489
1986.27, 0.764555
1987.03, 0.764686
1987.79, 0.764817
1988.55, 0.764686
1989.32, 0.765145
1990.08, 0.765276
1990.84, 0.765276
1991.61, 0.765342
1992.37, 0.765867
1993.14, 0.765801
1993.9, 0.765998
1994.67, 0.765867
1995.44, 0.765867
1996.21, 0.766064
1996.98, 0.766327
1997.75, 0.766327
1998.52, 0.766655
1999.29, 0.766523
2000.06, 0.766589
2000.83, 0.766720
2001.6, 0.767245
2002.38, 0.767245
2003.15, 0.767311
2003.93, 0.767114
2004.7, 0.767508
2005.48, 0.767377
2006.25, 0.767508
2007.03, 0.767245
2007.81, 0.767639
2008.58, 0.767770
2009.36, 0.767902
2010.14, 0.767836
2010.92, 0.768099
2011.7, 0.768164
2012.48, 0.768361
2013.26, 0.768361
2014.05, 0.768689
2014.83, 0.768689
2015.61, 0.768689
2016.4, 0.768755
2017.18, 0.769018
2017.97, 0.768952
2018.75, 0.768952
2019.54, 0.768689
2020.32, 0.769083
2021.11, 0.769214
2021.9, 0.769608
2022.69, 0.769411
2023.48, 0.769411
2024.27, 0.769083
2025.06, 0.769214
2025.85, 0.769214
2026.64, 0.769346
2027.44, 0.769346
2028.23, 0.769674
2029.02, 0.769739
2029.82, 0.769871
2030.61, 0.769477
2031.41, 0.769674
2032.2, 0.770068
2033.0, 0.770330
2033.8, 0.770199
2034.6, 0.770461
2035.4, 0.770199
2036.2, 0.769936
2037.0, 0.769608
2037.8, 0.770199
2038.6, 0.770133
2039.4, 0.770330
2040.2, 0.770199
2041.01, 0.770265
2041.81, 0.770068
2042.61, 0.770133
2043.42, 0.770002
2044.22, 0.770133
2045.03, 0.769936
2045.84, 0.770068
2046.65, 0.770068
2047.46, 0.770265
2048.26, 0.770265
2049.07, 0.770396
2049.88, 0.770199
2050.69, 0.770330
2051.51, 0.770133
2052.32, 0.770199
2053.13, 0.770133
2053.94, 0.770199
2054.76, 0.770265
2055.57, 0.770265
2056.39, 0.769936
2057.2, 0.770068
2058.02, 0.769936
2058.84, 0.770265
2059.66, 0.770068
2060.48, 0.770133
2061.29, 0.770068
2062.11, 0.769739
2062.94, 0.769805
2063.76, 0.770068
2064.58, 0.770133
2065.4, 0.770068
2066.22, 0.769936
2067.05, 0.770133
2067.87, 0.769871
2068.7, 0.769805
2069.52, 0.769871
2070.35, 0.770002
2071.18, 0.769674
2072.0, 0.769739
2072.83, 0.769674
2073.66, 0.770133
2074.49, 0.770002
2075.32, 0.769936
2076.15, 0.769936
2076.98, 0.769936
2077.82, 0.769739
2078.65, 0.769805
2079.48, 0.769805
2080.32, 0.770002
2081.15, 0.769739
2081.99, 0.769805
2082.83, 0.769608
2083.66, 0.769608
2084.5, 0.769739
2085.34, 0.770133
2086.18, 0.770199
2087.02, 0.770199
2087.86, 0.770002
2088.7, 0.770265
2089.54, 0.770396
2090.39, 0.770658
2091.23, 0.770330
2092.07, 0.770593
2092.92, 0.770330
2093.76, 0.770265
2094.61, 0.770396
2095.45, 0.770593
2096.3, 0.770658
2097.15, 0.771052
2098.0, 0.771118
2098.85, 0.771052
2099.7, 0.770855
2100.55, 0.770986
2101.4, 0.770855
2102.25, 0.771118
2103.1, 0.771183
2103.96, 0.771249
2104.81, 0.771183
2105.67, 0.771315
2106.52, 0.771315
2107.38, 0.771512
2108.24, 0.771577
2109.09, 0.771643
2109.95, 0.771577
2110.81, 0.771905
2111.67, 0.772037
2112.53, 0.772233
2113.39, 0.772299
2114.25, 0.772365
2115.12, 0.772168
2115.98, 0.772430
2116.84, 0.772430
2117.71, 0.772299
2118.58, 0.772102
2119.44, 0.772168
2120.31, 0.772168
2121.18, 0.772365
2122.04, 0.772299
2122.91, 0.772365
2123.78, 0.772365
2124.65, 0.772824
2125.52, 0.772759
2126.4, 0.772824
2127.27, 0.772562
2128.14, 0.772496
2129.02, 0.772627
2129.89, 0.772824
2130.77, 0.772627
2131.64, 0.772496
2132.52, 0.772365
2133.4, 0.772562
2134.27, 0.772693
2135.15, 0.772955
2136.03, 0.772496
2136.91, 0.772562
2137.79, 0.772562
2138.68, 0.772955
2139.56, 0.772759
2140.44, 0.772496
2141.33, 0.772627
2142.21, 0.772759
2143.1, 0.772627
2143.99, 0.772627
2144.87, 0.772299
2145.76, 0.772299
2146.65, 0.772168
2147.54, 0.772496
2148.43, 0.772299
2149.32, 0.772299
2150.21, 0.772430
2151.1, 0.772365
2151.99, 0.772037
2152.89, 0.771840
2153.78, 0.771643
2154.68, 0.771840
2155.57, 0.771774
2156.47, 0.771708
2157.37, 0.771577
2158.27, 0.771643
2159.16, 0.771446
2160.06, 0.771512
2160.96, 0.771446
2161.86, 0.771315
2162.77, 0.770986
2163.67, 0.771052
2164.57, 0.770986
2165.48, 0.770986
2166.38, 0.770527
2167.29, 0.770855
2168.2, 0.770724
2169.1, 0.770658
2170.01, 0.770199
2170.92, 0.770068
2171.83, 0.769936
2172.74, 0.770199
2173.65, 0.769871
2174.56, 0.770068
2175.47, 0.769871
2176.39, 0.769739
2177.3, 0.769477
2178.22, 0.769608
2179.13, 0.769477
2180.05, 0.769543
2180.96, 0.769477
2181.88, 0.769346
2182.8, 0.769018
2183.72, 0.769149
2184.64, 0.768952
2185.56, 0.768886
2186.48, 0.768492
2187.41, 0.768624
2188.33, 0.768624
2189.25, 0.768624
2190.18, 0.768427
2191.1, 0.768230
2192.03, 0.768099
2192.96, 0.768230
2193.89, 0.768296
2194.82, 0.768624
2195.74, 0.768164
2196.68, 0.768033
2197.61, 0.767705
2198.54, 0.768099
2199.47, 0.768296
2200.4, 0.768427
2201.34, 0.768099
2202.28, 0.768099
2203.21, 0.767967
2204.15, 0.768230
2205.08, 0.768099
2206.02, 0.768099
2206.96, 0.767967
2207.9, 0.768033
2208.84, 0.767967
2209.78, 0.768296
2210.73, 0.768230
2211.67, 0.768492
2212.61, 0.768361
2213.56, 0.768492
2214.5, 0.768558
2215.45, 0.768689
2216.4, 0.768624
2217.35, 0.768624
2218.3, 0.768492
2219.24, 0.768558
2220.2, 0.768492
2221.15, 0.768755
2222.1, 0.769018
2223.05, 0.769144
2224.0, 0.768828
2224.96, 0.768828
2225.91, 0.768765
2226.87, 0.768891
2227.83, 0.768954
2228.79, 0.769018
2229.74, 0.768702
2230.7, 0.768575
2231.66, 0.768386
2232.63, 0.768702
2233.59, 0.768828
2234.55, 0.769081
2235.51, 0.768575
2236.48, 0.768322
2237.44, 0.768070
2238.41, 0.768638
2239.38, 0.768765
2240.34, 0.768765
2241.31, 0.768386
2242.28, 0.768196
2243.25, 0.767943
2244.22, 0.768133
2245.19, 0.768322
2246.17, 0.768386
2247.14, 0.768702
2248.12, 0.768765
2249.09, 0.768575
2250.07, 0.768259
2251.04, 0.767943
2252.02, 0.767564
2253.0, 0.767880
2253.98, 0.768133
2254.96, 0.767690
2255.94, 0.767880
2256.92, 0.767627
2257.91, 0.767501
2258.89, 0.767311
2259.88, 0.767501
2260.86, 0.767185
2261.85, 0.767248
2262.83, 0.767311
2263.82, 0.767248
2264.81, 0.767122
2265.8, 0.767311
2266.79, 0.767185
2267.78, 0.767058
2268.78, 0.767185
2269.77, 0.767185
2270.76, 0.766742
2271.76, 0.766932
2272.75, 0.766742
2273.75, 0.766553
2274.75, 0.766363
2275.75, 0.766616
2276.75, 0.766869
2277.75, 0.766679
2278.75, 0.766047
2279.75, 0.766426
2280.75, 0.766679
2281.76, 0.766679
2282.76, 0.766426
2283.77, 0.766490
2284.77, 0.765921
2285.78, 0.765984
2286.79, 0.765794
2287.8, 0.765858
2288.81, 0.765226
2289.82, 0.765099
2290.83, 0.765352
2291.84, 0.765226
2292.86, 0.765162
2293.87, 0.765605
2294.89, 0.765478
2295.91, 0.765226
2296.92, 0.765036
2297.94, 0.764720
2298.96, 0.765099
2299.98, 0.764910
2301.0, 0.764151
2302.02, 0.764025
2303.04, 0.764151
2304.07, 0.763898
2305.09, 0.763519
2306.12, 0.763646
2307.15, 0.763646
2308.17, 0.763772
2309.2, 0.763898
2310.23, 0.763582
2311.26, 0.762950
2312.29, 0.763140
2313.32, 0.762950
2314.35, 0.762824
2315.39, 0.763014
2316.42, 0.763077
2317.46, 0.762887
2318.5, 0.762824
2319.53, 0.762698
2320.57, 0.762192
2321.61, 0.761939
2322.65, 0.761939
2323.69, 0.762318
2324.73, 0.762761
2325.78, 0.762382
2326.82, 0.761939
2327.86, 0.761813
2328.91, 0.762002
2329.96, 0.761686
2331.01, 0.761623
2332.05, 0.761434
2333.1, 0.761244
2334.15, 0.761244
2335.21, 0.761181
2336.26, 0.760865
2337.31, 0.760675
2338.36, 0.760675
2339.42, 0.760675
2340.48, 0.760422
2341.53, 0.760296
2342.59, 0.760802
2343.65, 0.760738
2344.71, 0.760233
2345.77, 0.760170
2346.83, 0.759917
2347.9, 0.760170
2348.96, 0.760359
2350.02, 0.760296
2351.09, 0.760170
2352.16, 0.760233
2353.23, 0.760106
2354.29, 0.760170
2355.36, 0.760106
2356.43, 0.759980
2357.51, 0.759854
2358.58, 0.760296
2359.65, 0.760296
2360.73, 0.759980
2361.8, 0.759854
2362.88, 0.760296
2363.96, 0.760233
2365.03, 0.759917
2366.11, 0.759980
2367.19, 0.760170
2368.27, 0.759664
2369.36, 0.759980
2370.44, 0.760170
2371.53, 0.760296
2372.61, 0.759917
2373.7, 0.760043
2374.78, 0.760043
2375.87, 0.760233
2376.96, 0.760233
2378.05, 0.760043
2379.14, 0.759917
2380.24, 0.760296
2381.33, 0.760106
2382.42, 0.760043
2383.52, 0.760043
2384.61, 0.760170
2385.71, 0.760359
2386.81, 0.760422
2387.91, 0.760170
2389.01, 0.760170
2390.11, 0.759727
2391.22, 0.759854
2392.32, 0.759854
2393.42, 0.759980
2394.53, 0.760170
2395.64, 0.760486
2396.74, 0.760106
2397.85, 0.760106
2398.96, 0.759917
2400.07, 0.759917
2401.18, 0.759854
2402.3, 0.759474
2403.41, 0.759411
2404.52, 0.759854
2405.64, 0.759601
2406.76, 0.759601
2407.88, 0.759601
2408.99, 0.759727
2410.11, 0.759538
2411.23, 0.759032
2412.36, 0.758906
2413.48, 0.758969
2414.6, 0.758969
2415.73, 0.759348
2416.85, 0.759222
2417.98, 0.758779
2419.11, 0.758463
2420.24, 0.758337
2421.37, 0.758274
2422.5, 0.758274
2423.64, 0.758084
2424.77, 0.758147
2425.9, 0.757642
2427.04, 0.757389
2428.18, 0.757073
2429.31, 0.756946
2430.45, 0.756820
2431.59, 0.757136
2432.73, 0.757073
2433.88, 0.756504
2435.02, 0.756314
2436.16, 0.756441
2437.31, 0.756188
2438.45, 0.756062
2439.6, 0.755809
2440.75, 0.755556
2441.9, 0.755366
2443.05, 0.755430
2444.2, 0.755366
2445.35, 0.755493
2446.51, 0.755177
2447.67, 0.755050
2448.82, 0.754734
2449.98, 0.754734
2451.14, 0.754229
2452.3, 0.753850
2453.46, 0.753597
2454.62, 0.754039
2455.78, 0.753786
2456.94, 0.753534
2458.11, 0.753470
2459.28, 0.753407
2460.44, 0.753218
2461.61, 0.752902
2462.78, 0.752586
2463.95, 0.752522
2465.12, 0.752396
2466.3, 0.752080
2467.47, 0.752143
2468.65, 0.752080
2469.82, 0.751701
2471.0, 0.752017
2472.18, 0.751764
2473.36, 0.751385
2474.54, 0.751511
2475.72, 0.751448
2476.9, 0.751132
2478.08, 0.751069
2479.27, 0.750816
2480.46, 0.750816
2481.64, 0.750690
2482.83, 0.750374
2484.02, 0.750184
2485.21, 0.750058
2486.4, 0.749994
2487.6, 0.750058
2488.79, 0.749805
2489.99, 0.749552
2491.18, 0.749426
2492.38, 0.749426
2493.58, 0.749046
2494.78, 0.748920
2495.98, 0.748667
2497.18, 0.748351
2498.39, 0.748225
2499.59, 0.748288
2500.8, 0.748288
2502.01, 0.748541
2503.21, 0.748541
2504.42, 0.748098
2505.63, 0.747530
2506.84, 0.747972
2508.06, 0.748035
2509.27, 0.748035
2510.49, 0.747656
2511.7, 0.747403
2512.92, 0.747277
2514.14, 0.747214
2515.36, 0.747403
2516.58, 0.747403
2517.8, 0.747087
2519.03, 0.746834
2520.25, 0.746645
2521.48, 0.746645
2522.7, 0.746771
2523.93, 0.746961
2525.16, 0.746898
2526.39, 0.746898
2527.62, 0.746708
2528.86, 0.746834
2530.09, 0.747024
2531.33, 0.747277
2532.56, 0.747150
2533.8, 0.746708
2535.04, 0.746834
2536.28, 0.747150
2537.52, 0.746518
2538.76, 0.746266
2540.01, 0.746013
2541.25, 0.746771
2542.5, 0.747466
2543.75, 0.747214
2544.99, 0.746392
2546.24, 0.746139
2547.49, 0.746834
2548.75, 0.746645
2550.0, 0.746708
2551.26, 0.747530
2552.51, 0.747909
2553.77, 0.746898
2555.03, 0.745760
2556.29, 0.745697
2557.55, 0.745634
2558.81, 0.746455
2560.08, 0.749299
2561.34, 0.751574
2562.61, 0.751006
2563.88, 0.750310
2565.14, 0.747466
2566.41, 0.745254
2567.68, 0.746013
2568.96, 0.748667
2570.23, 0.747782
2571.51, 0.746266
2572.78, 0.749299
2574.06, 0.748225
2575.34, 0.746392
2576.62, 0.747656
2577.9, 0.745507
2579.18, 0.743927
2580.47, 0.746076
2581.75, 0.746582
2583.04, 0.749426
2584.32, 0.749299
2585.61, 0.745507
2586.9, 0.746961
2588.2, 0.745760
2589.49, 0.743990
2590.78, 0.742410
2592.08, 0.743422
2593.37, 0.752333
2594.67, 0.761181
2595.97, 0.752017
2597.27, 0.742979
2598.57, 0.740198
2599.88, 0.740704
2601.18, 0.742221
2602.49, 0.743106
2603.79, 0.745128
2605.1, 0.748794
2606.41, 0.746392
2607.72, 0.742726
2609.03, 0.741589
2610.35, 0.740198
2611.66, 0.738934
2612.98, 0.739314
2614.3, 0.738492
2615.62, 0.742853
2616.94, 0.745444
2618.26, 0.741146
2619.58, 0.743295
2620.91, 0.742284
2622.23, 0.735901
2623.56, 0.734826
2624.89, 0.736912
2626.22, 0.741589
2627.55, 0.738745
2628.88, 0.739377
2630.21, 0.744054
2631.55, 0.739250
2632.89, 0.736154
2634.22, 0.735585
2635.56, 0.732867
2636.9, 0.732298
2638.25, 0.731982
2639.59, 0.732235
2640.93, 0.732488
2642.28, 0.732551
2643.63, 0.731919
2644.98, 0.733815
2646.33, 0.733246
2647.68, 0.731161
2649.03, 0.730213
2650.39, 0.731224
2651.74, 0.733752
2653.1, 0.733310
2654.46, 0.731856
2655.82, 0.731414
2657.18, 0.729265
2658.54, 0.731287
2659.9, 0.732235
2661.27, 0.731034
2662.64, 0.730276
2664.01, 0.735964
2665.38, 0.741336
2666.74, 0.740451
2668.12, 0.734700
2669.49, 0.739377
2670.87, 0.738871
2672.24, 0.728696
2673.62, 0.726484
2675.0, 0.729012
2676.38, 0.731666
2677.76, 0.730592
2679.15, 0.729328
2680.54, 0.724525
2681.92, 0.722692
2683.31, 0.723324
2684.7, 0.722313
2686.09, 0.721744
2687.48, 0.720417
2688.88, 0.718837
2690.27, 0.717383
2691.67, 0.718205
2693.07, 0.722060
2694.47, 0.721934
2695.87, 0.717320
2697.27, 0.713022
2698.67, 0.710684
2700.08, 0.710937
2701.49, 0.710052
2702.9, 0.706450
2704.31, 0.703669
2705.72, 0.701141
2707.13, 0.698360
2708.54, 0.696401
2709.96, 0.691408
2711.38, 0.679779
2712.8, 0.668150
2714.22, 0.668024
2715.64, 0.671816
2717.06, 0.674913
2718.49, 0.676303
2719.91, 0.679084
2721.34, 0.671753
2722.77, 0.663979
2724.2, 0.659555
2725.63, 0.644640
2727.07, 0.623910
2728.5, 0.606278
2729.94, 0.598251
2731.38, 0.600526
2732.82, 0.606720
2734.26, 0.612850
2735.7, 0.616074
2737.15, 0.621256
2738.59, 0.630799
2740.04, 0.634907
2741.49, 0.628966
2742.94, 0.620055
2744.39, 0.614557
2745.84, 0.611334
2747.3, 0.607036
2748.76, 0.600716
2750.21, 0.592184
2751.67, 0.582767
2753.14, 0.575626
2754.6, 0.576826
2756.06, 0.577395
2757.53, 0.575562
2759.0, 0.577206
2760.46, 0.581061
2761.94, 0.587318
2763.41, 0.591426
2764.88, 0.592753
2766.36, 0.594965
2767.83, 0.596671
2769.31, 0.597493
2770.79, 0.598504
2772.27, 0.597366
2773.76, 0.596102
2775.24, 0.596418
2776.73, 0.597556
2778.22, 0.598441
2779.71, 0.599642
2781.2, 0.601411
2782.69, 0.601980
2784.18, 0.602106
2785.68, 0.604192
2787.18, 0.605772
2788.68, 0.604002
2790.18, 0.602296
2791.68, 0.601727
2793.19, 0.601474
2794.69, 0.601158
2796.2, 0.600842
2797.71, 0.600021
2799.22, 0.599389
2800.73, 0.599705
2802.24, 0.600969
2803.76, 0.600337
2805.28, 0.598188
2806.8, 0.596608
2808.32, 0.595786
2809.84, 0.594838
2811.36, 0.594206
2812.89, 0.593827
2814.42, 0.593827
2815.94, 0.593195
2817.48, 0.592816
2819.01, 0.592942
2820.54, 0.592690
2822.08, 0.591931
2823.61, 0.591236
2825.15, 0.590857
2826.69, 0.590794
2828.23, 0.590414
2829.78, 0.590035
2831.32, 0.589909
2832.87, 0.589909
2834.42, 0.589782
2835.97, 0.589277
2837.52, 0.588834
2839.08, 0.588518
2840.63, 0.587697
2842.19, 0.587128
2843.75, 0.586686
2845.31, 0.586370
2846.87, 0.586180
2848.44, 0.585990
2850.0, 0.585611
2851.57, 0.585106
2853.14, 0.584853
2854.71, 0.584726
2856.28, 0.584031
2857.86, 0.583399
2859.43, 0.582957
2861.01, 0.582514
2862.59, 0.582135
2864.17, 0.581756
2865.76, 0.581314
2867.34, 0.581061
2868.93, 0.580745
2870.52, 0.580745
2872.11, 0.580366
2873.7, 0.579797
2875.29, 0.579481
2876.89, 0.579291
2878.49, 0.578659
2880.08, 0.578343
2881.69, 0.578090
2883.29, 0.577964
2884.89, 0.577711
2886.5, 0.577395
2888.11, 0.577206
2889.72, 0.577206
2891.33, 0.577079
2892.94, 0.576763
2894.56, 0.576510
2896.17, 0.576574
2897.79, 0.576321
2899.42, 0.576384
2901.04, 0.576321
2902.66, 0.576005
2904.29, 0.575942
2905.92, 0.575815
2907.55, 0.575626
2909.18, 0.575499
2910.81, 0.575310
2912.45, 0.575310
2914.08, 0.575246
2915.72, 0.575373
2917.36, 0.575183
2919.01, 0.574867
2920.65, 0.574804
2922.3, 0.575057
2923.94, 0.574930
2925.59, 0.574804
2927.25, 0.574488
2928.9, 0.574235
2930.56, 0.574235
2932.21, 0.574109
2933.87, 0.573919
2935.53, 0.574046
2937.2, 0.573919
2938.86, 0.573856
2940.53, 0.573730
2942.2, 0.573666
2943.87, 0.573350
2945.54, 0.573350
2947.22, 0.573350
2948.89, 0.573161
2950.57, 0.573098
2952.25, 0.573224
2953.93, 0.573224
2955.62, 0.573224
2957.3, 0.573034
2958.99, 0.573098
2960.68, 0.572908
2962.37, 0.572718
2964.07, 0.572466
2965.76, 0.572592
2967.46, 0.572466
2969.16, 0.572402
2970.86, 0.572213
2972.56, 0.572213
2974.27, 0.572150
2975.98, 0.572150
2977.69, 0.572023
2979.4, 0.572150
2981.11, 0.571897
2982.83, 0.571707
2984.54, 0.571454
2986.26, 0.571454
2987.98, 0.571644
2989.71, 0.571581
2991.43, 0.571328
2993.16, 0.571581
2994.89, 0.571518
2996.62, 0.571391
2998.35, 0.571202
3000.09, 0.571138
3001.83, 0.570759
3003.57, 0.570822
3005.31, 0.571075
3007.05, 0.571202
3008.79, 0.570949
3010.54, 0.570886
3012.29, 0.571012
3014.04, 0.571202
3015.8, 0.571202
3017.55, 0.571138
3019.31, 0.570949
3021.07, 0.571012
3022.83, 0.571138
3024.59, 0.571012
3026.36, 0.570822
3028.13, 0.570886
3029.9, 0.571012
3031.67, 0.570949
3033.44, 0.570822
3035.22, 0.570949
3037.0, 0.570949
3038.78, 0.570822
3040.56, 0.570759
3042.34, 0.570633
3044.13, 0.570317
3045.92, 0.570317
3047.71, 0.570380
3049.5, 0.570380
3051.3, 0.570127
3053.09, 0.570064
3054.89, 0.569874
3056.69, 0.569811
3058.5, 0.569622
3060.3, 0.569685
3062.11, 0.569558
3063.92, 0.569495
3065.73, 0.569242
3067.55, 0.569242
3069.36, 0.569179
3071.18, 0.568990
3073.0, 0.568737
3074.82, 0.568484
3076.65, 0.568294
3078.48, 0.568421
3080.31, 0.568358
3082.14, 0.568168
3083.97, 0.567978
3085.8, 0.567852
3087.64, 0.567599
3089.48, 0.567536
3091.33, 0.567473
3093.17, 0.567473
3095.02, 0.567473
3096.87, 0.567346
3098.72, 0.567094
3100.57, 0.567030
3102.43, 0.566904
3104.28, 0.566967
3106.14, 0.566904
3108.01, 0.566778
3109.87, 0.566651
3111.74, 0.566714
3113.61, 0.566651
3115.48, 0.566651
3117.35, 0.566398
3119.23, 0.566462
3121.1, 0.566272
3122.98, 0.566146
3124.87, 0.565956
3126.75, 0.566019
3128.64, 0.565766
3130.53, 0.565577
3132.42, 0.565387
3134.31, 0.565450
3136.21, 0.565387
3138.11, 0.565387
3140.01, 0.565198
3141.91, 0.564945
3143.82, 0.564818
3145.73, 0.564818
3147.64, 0.564502
3149.55, 0.564186
3151.46, 0.563997
3153.38, 0.564123
3155.3, 0.563744
3157.22, 0.563365
3159.14, 0.563175
3161.07, 0.563175
3163.0, 0.562859
3164.93, 0.562733
3166.86, 0.562543
3168.8, 0.562290
3170.74, 0.562164
3172.68, 0.561911
3174.62, 0.561532
3176.56, 0.561342
3178.51, 0.560900
3180.46, 0.560584
3182.42, 0.560394
3184.37, 0.560078
3186.33, 0.559636
3188.29, 0.559320
3190.25, 0.559130
3192.21, 0.558878
3194.18, 0.558246
3196.15, 0.557993
3198.12, 0.557740
3200.09, 0.557550
3202.07, 0.557234
3204.05, 0.556855
3206.03, 0.556476
3208.02, 0.556160
3210.0, 0.555528
3211.99, 0.555149
3213.98, 0.554706
3215.98, 0.554264
3217.97, 0.553822
3219.97, 0.553506
3221.97, 0.553126
3223.98, 0.552747
3225.98, 0.552242
3227.99, 0.551799
3230.0, 0.551357
3232.02, 0.551041
3234.03, 0.550409
3236.05, 0.549903
3238.07, 0.549524
3240.1, 0.549271
3242.12, 0.548892
3244.15, 0.548386
3246.18, 0.547818
3248.22, 0.547312
3250.25, 0.546806
3252.29, 0.546111
3254.33, 0.545479
3256.38, 0.545163
3258.43, 0.544658
3260.47, 0.544342
3262.53, 0.543836
3264.58, 0.543330
3266.64, 0.542762
3268.7, 0.542130
3270.76, 0.541624
3272.82, 0.541182
3274.89, 0.540486
3276.96, 0.539918
3279.04, 0.539475
3281.11, 0.538970
3283.19, 0.538274
3285.27, 0.537769
3287.35, 0.537074
3289.44, 0.536631
3291.53, 0.536062
3293.62, 0.535430
3295.71, 0.534798
3297.81, 0.534103
3299.91, 0.533408
3302.01, 0.532902
3304.11, 0.532144
3306.22, 0.531575
3308.33, 0.530943
3310.44, 0.530438
3312.56, 0.529806
3314.68, 0.529174
3316.8, 0.528289
3318.92, 0.527404
3321.05, 0.526582
3323.18, 0.525950
3325.31, 0.525255
3327.44, 0.524434
3329.58, 0.523549
3331.72, 0.522917
3333.86, 0.522095
3336.01, 0.521084
3338.16, 0.519820
3340.31, 0.518746
3342.46, 0.517292
3344.61, 0.515838
3346.77, 0.514322
3348.94, 0.513058
3351.1, 0.511920
3353.27, 0.511162
3355.44, 0.510403
3357.61, 0.509771
3359.79, 0.509139
3361.97, 0.508697
3364.15, 0.507875
3366.33, 0.507243
3368.52, 0.506548
3370.71, 0.505916
3372.9, 0.505158
3375.1, 0.504462
3377.3, 0.503767
3379.5, 0.503072
3381.71, 0.502250
3383.91, 0.501808
3386.12, 0.501302
3388.34, 0.500797
3390.55, 0.500165
3392.77, 0.499470
3394.99, 0.498648
3397.22, 0.498079
3399.45, 0.497510
3401.68, 0.496752
3403.91, 0.495930
3406.15, 0.495109
3408.39, 0.494287
3410.63, 0.493782
3412.87, 0.493086
3415.12, 0.492581
3417.37, 0.492138
3419.63, 0.491822
3421.88, 0.491443
3424.14, 0.491380
3426.41, 0.491190
3428.67, 0.490938
3430.94, 0.490748
3433.21, 0.490622
3435.49, 0.490432
3437.77, 0.490306
3440.05, 0.490116
3442.33, 0.489863
3444.62, 0.489484
3446.91, 0.489231
3449.2, 0.488978
3451.5, 0.488662
3453.8, 0.488346
3456.1, 0.487904
3458.41, 0.487398
3460.72, 0.487082
3463.03, 0.486450
3465.34, 0.485692
3467.66, 0.484618
3469.98, 0.483670
3472.31, 0.482722
3474.63, 0.482090
3476.96, 0.481458
3479.3, 0.480952
3481.64, 0.480699
3483.97, 0.480636
3486.32, 0.480510
3488.66, 0.480636
3491.01, 0.480636
3493.36, 0.480573
3495.72, 0.480320
3498.08, 0.480130
3500.44, 0.480067
3502.81, 0.480130
3505.18, 0.480257
3507.55, 0.480510
3509.92, 0.480826
3512.3, 0.481268
3514.68, 0.481837
3517.06, 0.482342
3519.45, 0.482658
3521.84, 0.483101
3524.24, 0.483606
3526.64, 0.484049
3529.04, 0.484365
3531.44, 0.484807
3533.85, 0.485060
3536.26, 0.485250
3538.67, 0.485376
3541.09, 0.485439
3543.51, 0.485439
3545.93, 0.485818
3548.36, 0.485945
3550.79, 0.486134
3553.22, 0.486198
3555.66, 0.486387
3558.1, 0.486577
3560.54, 0.486830
3562.99, 0.487019
3565.44, 0.487335
3567.9, 0.487525
3570.35, 0.487714
3572.81, 0.487967
3575.28, 0.488283
3577.75, 0.488536
3580.22, 0.488915
3582.69, 0.489105
3585.17, 0.489547
3587.65, 0.489800
3590.14, 0.490179
3592.62, 0.490685
3595.11, 0.491127
3597.61, 0.491506
3600.11, 0.491822
3602.61, 0.491949
3605.11, 0.492265
3607.62, 0.492644
3610.14, 0.493150
3612.65, 0.493592
3615.17, 0.494098
3617.69, 0.494287
3620.22, 0.494540
3622.75, 0.494856
3625.28, 0.495298
3627.82, 0.495488
3630.36, 0.495804
3632.9, 0.495994
3635.45, 0.496183
3638.0, 0.496310
3640.56, 0.496626
3643.12, 0.496626
3645.68, 0.496752
3648.24, 0.496752
3650.81, 0.496752
3653.39, 0.496689
3655.96, 0.496689
3658.54, 0.496562
3661.13, 0.496436
3663.71, 0.496120
3666.3, 0.495804
3668.9, 0.495488
3671.5, 0.495235
3674.1, 0.494730
3676.7, 0.494477
3679.31, 0.493971
3681.93, 0.493592
3684.54, 0.492960
3687.17, 0.492454
3689.79, 0.491633
3692.42, 0.490938
3695.05, 0.490432
3697.69, 0.489926
3700.32, 0.489168
3702.97, 0.488346
3705.61, 0.487462
3708.27, 0.486830
3710.92, 0.486134
3713.58, 0.485439
3716.24, 0.484491
3718.91, 0.483670
3721.58, 0.482848
3724.25, 0.482153
3726.93, 0.481268
3729.61, 0.480383
3732.29, 0.479625
3734.98, 0.478866
3737.67, 0.477982
3740.37, 0.477350
3743.07, 0.476591
3745.78, 0.475770
3748.49, 0.474885
3751.2, 0.474190
3753.91, 0.473368
3756.63, 0.472546
3759.36, 0.471788
3762.09, 0.471219
3764.82, 0.470524
3767.55, 0.469892
3770.29, 0.469134
3773.04, 0.468438
3775.78, 0.467806
3778.54, 0.467174
3781.29, 0.466669
3784.05, 0.466100
3786.82, 0.465405
3789.59, 0.464836
3792.36, 0.464204
3795.13, 0.463572
3797.92, 0.462877
3800.7, 0.462245
3803.49, 0.461486
3806.28, 0.460918
3809.08, 0.460412
3811.88, 0.459843
3814.68, 0.459148
3817.49, 0.458706
3820.31, 0.458074
3823.12, 0.457505
3825.94, 0.456810
3828.77, 0.456304
3831.6, 0.455735
3834.43, 0.455356
3837.27, 0.454787
3840.11, 0.454282
3842.96, 0.453902
3845.81, 0.453523
3848.67, 0.453081
3851.53, 0.452765
3854.39, 0.452512
3857.26, 0.452196
3860.13, 0.452006
3863.01, 0.451754
3865.89, 0.451438
3868.77, 0.451185
3871.66, 0.450742
3874.55, 0.450426
3877.45, 0.450174
3880.35, 0.449921
3883.26, 0.449605
3886.17, 0.449289
3889.09, 0.448910
3892.01, 0.448594
3894.93, 0.448214
3897.86, 0.447772
3900.79, 0.447393
3903.73, 0.447077
3906.67, 0.446761
3909.62, 0.446445
3912.57, 0.445939
3915.52, 0.445750
3918.48, 0.445181
3921.45, 0.444675
3924.42, 0.444106
3927.39, 0.443664
3930.37, 0.443222
3933.35, 0.442842
3936.34, 0.442274
3939.33, 0.441515
3942.32, 0.440504
3945.32, 0.439430
3948.33, 0.438166
3951.34, 0.436965
3954.35, 0.435638
3957.37, 0.434500
3960.39, 0.433299
3963.42, 0.432288
3966.45, 0.431277
3969.49, 0.430455
3972.53, 0.429697
3975.58, 0.429002
3978.63, 0.428306
3981.68, 0.427801
3984.75, 0.427295
3987.81, 0.427169
3990.88, 0.427106
3993.95, 0.427169
3997.03, 0.427295
4000.12, 0.427738
4003.21, 0.428243
4006.3, 0.428749
4009.4, 0.429191
4012.5, 0.429634
4015.61, 0.430013
4018.72, 0.430329
4021.84, 0.430645
4024.96, 0.430898
4028.09, 0.431087
4031.22, 0.431466
4034.36, 0.431846
4037.5, 0.432478
4040.65, 0.432857
4043.8, 0.433299
4046.96, 0.433868
4050.12, 0.434437
4053.29, 0.434942
4056.46, 0.435511
4059.64, 0.436017
4062.82, 0.436649
4066.0, 0.437218
4069.19, 0.437786
4072.39, 0.438418
4075.59, 0.439050
4078.8, 0.439556
4082.01, 0.440125
4085.23, 0.440630
4088.45, 0.441199
4091.68, 0.441768
4094.91, 0.442210
4098.15, 0.442716
4101.39, 0.443285
4104.63, 0.443727
4107.89, 0.444359
4111.14, 0.444802
4114.41, 0.445307
4117.67, 0.445750
4120.95, 0.445939
4124.23, 0.446192
4127.51, 0.446698
4130.8, 0.447077
4134.09, 0.447393
4137.39, 0.447646
4140.7, 0.447962
4144.01, 0.448088
4147.32, 0.448341
4150.64, 0.448594
4153.97, 0.448846
4157.3, 0.449162
4160.64, 0.449542
4163.98, 0.449605
4167.33, 0.449731
4170.68, 0.450047
4174.04, 0.450426
4177.4, 0.450553
4180.77, 0.450742
4184.14, 0.451058
4187.52, 0.451501
4190.91, 0.451690
4194.3, 0.452070
4197.69, 0.452449
4201.1, 0.453207
4204.5, 0.453966
4207.92, 0.454724
4211.34, 0.455735
4214.76, 0.457126
4218.19, 0.458516
4221.62, 0.459843
4225.06, 0.461170
4228.51, 0.462118
4231.96, 0.462750
4235.42, 0.463256
4238.88, 0.463319
4242.35, 0.463066
4245.83, 0.462308
4249.31, 0.461423
4252.79, 0.460222
4256.28, 0.459717
4259.78, 0.460538
4263.29, 0.461992
4266.79, 0.463130
4270.31, 0.464078
4273.83, 0.464520
4277.35, 0.464962
4280.89, 0.465215
4284.42, 0.465278
4287.97, 0.465215
4291.52, 0.465152
4295.07, 0.464836
4298.63, 0.464583
4302.2, 0.464330
4305.78, 0.464204
4309.35, 0.463888
4312.94, 0.463698
4316.53, 0.463509
4320.13, 0.463382
4323.73, 0.463319
4327.34, 0.463193
4330.96, 0.463193
4334.58, 0.463256
4338.21, 0.463256
4341.84, 0.463446
4345.48, 0.463446
4349.12, 0.463446
4352.77, 0.463572
4356.43, 0.463825
4360.1, 0.463698
4363.76, 0.463698
4367.44, 0.463762
4371.12, 0.463951
4374.81, 0.464014
4378.51, 0.463951
4382.21, 0.463951
4385.92, 0.464141
4389.63, 0.464330
4393.35, 0.464394
4397.08, 0.464457
4400.81, 0.464583
4404.55, 0.464646
4408.29, 0.464773
4412.04, 0.464773
4415.8, 0.464899
4419.57, 0.465026
4423.34, 0.465026
4427.12, 0.465089
4430.9, 0.465215
4434.69, 0.465278
4438.49, 0.465405
4442.29, 0.465405
4446.1, 0.465405
4449.92, 0.465405
4453.74, 0.465531
4457.57, 0.465594
4461.41, 0.465594
4465.25, 0.465594
4469.1, 0.465658
4472.95, 0.465658
4476.82, 0.465658
4480.69, 0.465658
4484.56, 0.465594
4488.44, 0.465531
4492.33, 0.465468
4496.23, 0.465531
4500.13, 0.465468
4504.04, 0.465278
4507.96, 0.465342
4511.88, 0.465278
4515.81, 0.465278
4519.75, 0.465278
4523.69, 0.465152
4527.65, 0.465026
4531.6, 0.465026
4535.57, 0.464962
4539.54, 0.464710
4543.52, 0.464646
4547.5, 0.464646
4551.5, 0.464520
4555.5, 0.464394
4559.5, 0.464330
4563.52, 0.464330
4567.54, 0.464267
4571.56, 0.464078
4575.6, 0.463951
4579.64, 0.463888
4583.69, 0.463698
4587.75, 0.463572
4591.81, 0.463319
4595.88, 0.463130
4599.96, 0.463066
4604.04, 0.462940
4608.14, 0.462750
4612.24, 0.462434
4616.34, 0.462118
4620.46, 0.461866
4624.58, 0.461550
4628.71, 0.461234
4632.84, 0.460791
4636.99, 0.460412
4641.14, 0.460033
4645.3, 0.459527
4649.47, 0.459085
4653.64, 0.458516
4657.82, 0.458010
4662.01, 0.457631
4666.21, 0.457126
4670.41, 0.456936
4674.62, 0.456620
4678.84, 0.456241
4683.07, 0.455798
4687.3, 0.455419
4691.54, 0.455040
4695.79, 0.454661
4700.05, 0.454345
4704.31, 0.453776
4708.59, 0.453523
4712.87, 0.453018
4717.15, 0.452765
4721.45, 0.452070
4725.76, 0.451690
4730.07, 0.451058
4734.39, 0.450742
4738.72, 0.449921
4743.05, 0.449226
4747.39, 0.448530
4751.75, 0.447898
4756.1, 0.447330
4760.47, 0.446508
4764.85, 0.446192
4769.23, 0.445370
4773.62, 0.444865
4778.02, 0.443917
4782.43, 0.443538
4786.85, 0.442653
4791.27, 0.442147
4795.7, 0.441262
4800.14, 0.440630
4804.59, 0.439935
4809.05, 0.439177
4813.51, 0.438482
4817.99, 0.437786
4822.47, 0.437218
4826.96, 0.436459
4831.46, 0.435764
4835.96, 0.435195
4840.48, 0.434500
4845.0, 0.433931
4849.54, 0.433110
4854.08, 0.432604
4858.63, 0.431972
4863.18, 0.431403
4867.75, 0.430834
4872.33, 0.430392
4876.91, 0.429760
4881.5, 0.429191
4886.1, 0.428686
4890.71, 0.428054
4895.33, 0.427422
4899.96, 0.426853
4904.59, 0.426031
4909.24, 0.425589
4913.89, 0.424957
4918.55, 0.424388
4923.22, 0.423630
4927.9, 0.422934
4932.59, 0.422176
4937.29, 0.421544
4942.0, 0.420849
4946.71, 0.420217
4951.44, 0.419458
4956.17, 0.418763
4960.91, 0.417752
4965.67, 0.416741
4970.43, 0.415666
4975.2, 0.414782
4979.98, 0.413581
4984.76, 0.412506
4989.56, 0.411495
4994.37, 0.410421
4999.18, 0.409283
5004.01, 0.408335
5008.84, 0.407261
5013.69, 0.406439
5018.54, 0.405681
5023.4, 0.404733
5028.28, 0.403722
5033.16, 0.403026
5038.05, 0.402268
5042.95, 0.401699
5047.86, 0.401004
5052.78, 0.400372
5057.71, 0.399677
5062.65, 0.399298
5067.6, 0.398729
5072.56, 0.398034
5077.53, 0.397402
5082.5, 0.396833
5087.49, 0.395948
5092.49, 0.394937
5097.5, 0.393989
5102.51, 0.393167
5107.54, 0.392093
5112.58, 0.391145
5117.62, 0.390007
5122.68, 0.388870
5127.75, 0.387732
5132.82, 0.386721
5137.91, 0.385646
5143.01, 0.384825
5148.12, 0.383877
5153.23, 0.382550
5158.36, 0.381222
5163.5, 0.380148
5168.65, 0.379137
5173.81, 0.378189
5178.98, 0.376988
5184.15, 0.375914
5189.34, 0.374839
5194.54, 0.374081
5199.75, 0.373259
5204.98, 0.371995
5210.21, 0.371174
5215.45, 0.369910
5220.7, 0.367634
5225.96, 0.365865
5231.23, 0.364158
5236.52, 0.362326
5241.81, 0.359924
5247.12, 0.357459
5252.44, 0.354615
5257.76, 0.351645
5263.1, 0.348169
5268.45, 0.344503
5273.81, 0.340522
5279.18, 0.336034
5284.56, 0.331358
5289.95, 0.326934
5295.36, 0.321814
5300.77, 0.316695
5306.2, 0.311955
5311.63, 0.307658
5317.08, 0.303613
5322.54, 0.299884
5328.01, 0.296534
5333.49, 0.293438
5338.98, 0.290530
5344.49, 0.288508
5350.0, 0.286549
5355.53, 0.283515
5361.07, 0.280418
5366.62, 0.277890
5372.18, 0.275489
5377.75, 0.273150
5383.34, 0.270812
5388.93, 0.268726
5394.54, 0.266704
5400.16, 0.264871
5405.79, 0.262975
5411.44, 0.261332
5417.09, 0.260447
5422.76, 0.259120
5428.43, 0.255897
5434.12, 0.253369
5439.83, 0.251283
5445.54, 0.249198
5451.26, 0.247238
5457.0, 0.246227
5462.75, 0.246038
5468.52, 0.245216
5474.29, 0.244647
5480.08, 0.244900
5485.88, 0.244521
5491.69, 0.244710
5497.51, 0.244963
5503.35, 0.245153
5509.2, 0.245153
5515.06, 0.245342
5520.93, 0.245342
5526.82, 0.244837
5532.71, 0.243889
5538.63, 0.243004
5544.55, 0.241740
5550.49, 0.240666
5556.44, 0.238959
5562.4, 0.237442
5568.37, 0.236621
5574.36, 0.237063
5580.36, 0.237063
5586.37, 0.236115
5592.4, 0.235862
5598.44, 0.236368
5604.49, 0.236305
5610.56, 0.235989
5616.63, 0.235483
5622.73, 0.234535
5628.83, 0.233650
5634.95, 0.233398
5641.08, 0.232955
5647.23, 0.229985
5653.39, 0.226825
5659.56, 0.223854
5665.74, 0.220947
5671.94, 0.219114
5678.15, 0.216270
5684.38, 0.213047
5690.62, 0.210772
5696.87, 0.208181
5703.14, 0.206222
5709.42, 0.205147
5715.72, 0.202935
5722.03, 0.200344
5728.35, 0.197816
5734.69, 0.195478
5741.03, 0.193266
5747.4, 0.191054
5753.78, 0.187767
5760.17, 0.186503
5766.58, 0.185429
5773.0, 0.181384
5779.44, 0.178287
5785.88, 0.176075
5792.35, 0.174242
5798.83, 0.172852
5805.32, 0.171588
5811.83, 0.170956
5818.35, 0.171398
5824.89, 0.170387
5831.45, 0.168049
5838.01, 0.165963
5844.59, 0.164446
5851.19, 0.163562
5857.8, 0.162930
5864.43, 0.162045
5871.07, 0.160970
5877.73, 0.162234
5884.4, 0.161350
5891.09, 0.159770
5897.79, 0.159390
5904.5, 0.157305
5911.23, 0.156926
5917.98, 0.157368
5924.75, 0.158316
5931.53, 0.161160
5938.32, 0.163688
5945.13, 0.163435
5951.96, 0.164636
5958.8, 0.166974
5965.65, 0.170956
5972.53, 0.173863
5979.42, 0.176202
5986.32, 0.180057
5993.24, 0.182964
6000.18, 0.184734
6007.13, 0.187957
6014.1, 0.191622
6021.08, 0.194214
6028.09, 0.197121
6035.1, 0.201102
6042.14, 0.208118
6049.19, 0.215891
6056.25, 0.216460
6063.34, 0.219178
6070.44, 0.225814
6077.55, 0.230554
6084.69, 0.233777
6091.84, 0.238706
6099.0, 0.244394
6106.19, 0.251662
6113.39, 0.259120
6120.61, 0.262217
6127.84, 0.265061
6135.09, 0.269990
6142.36, 0.274857
6149.65, 0.279028
6156.95, 0.283768
6164.27, 0.286991
6171.61, 0.289140
6178.97, 0.294259
6186.34, 0.298494
6193.73, 0.298367
6201.14, 0.299378
6208.57, 0.301654
6216.01, 0.303550
6223.47, 0.304940
6230.95, 0.306141
6238.45, 0.307152
6245.97, 0.307784
6253.5, 0.308226
6261.06, 0.308669
6268.63, 0.309048
6276.21, 0.308922
6283.82, 0.308669
6291.45, 0.308606
6299.1, 0.308606
6306.76, 0.308795
6314.44, 0.308858
6322.14, 0.308732
6329.86, 0.308669
6337.6, 0.311007
6345.35, 0.312398
6353.13, 0.308732
6360.92, 0.307531
6368.74, 0.308606
6376.57, 0.307089
6384.43, 0.305509
6392.3, 0.304940
6400.19, 0.305572
6408.1, 0.310881
6416.03, 0.312334
6423.98, 0.306646
6431.95, 0.303613
6439.94, 0.301338
6447.95, 0.299631
6455.98, 0.297988
6464.03, 0.296534
6472.1, 0.296155
6480.19, 0.296029
6488.31, 0.296914
6496.44, 0.294070
6504.59, 0.286738
6512.76, 0.283073
6520.95, 0.281303
6529.16, 0.276942
6537.4, 0.273719
6545.65, 0.271823
6553.92, 0.269801
6562.22, 0.267778
6570.54, 0.266894
6578.88, 0.262975
6587.23, 0.259310
6595.61, 0.256086
6604.02, 0.252358
6612.44, 0.249766
6620.89, 0.247807
6629.35, 0.248186
6637.84, 0.247554
6646.35, 0.241803
6654.88, 0.237253
6663.44, 0.235420
6672.01, 0.234346
6680.61, 0.232892
6689.23, 0.229606
6697.88, 0.226951
6706.54, 0.225877
6715.23, 0.224234
6723.94, 0.221769
6732.67, 0.219051
6741.42, 0.216776
6750.2, 0.214880
6759.0, 0.212731
6767.82, 0.211214
6776.67, 0.209698
6785.54, 0.208623
6794.44, 0.205906
6803.35, 0.202240
6812.29, 0.200344
6821.26, 0.199965
6830.24, 0.198638
6839.25, 0.196110
6848.29, 0.194782
6857.35, 0.194972
6866.43, 0.192886
6875.54, 0.188462
6884.67, 0.186061
6893.82, 0.184860
6903.0, 0.184418
6912.2, 0.183722
6921.43, 0.183027
6930.69, 0.182522
6939.96, 0.181953
6949.27, 0.181953
6958.59, 0.182395
6967.95, 0.180942
6977.33, 0.179551
6986.73, 0.179172
6996.16, 0.178603
7005.61, 0.177718
7015.09, 0.177213
7024.6, 0.176581
7034.13, 0.176075
7043.69, 0.176265
7053.27, 0.174874
7062.88, 0.173105
7072.52, 0.172030
7082.18, 0.171398
7091.87, 0.170703
7101.58, 0.170008
7111.32, 0.169439
7121.09, 0.168807
7130.88, 0.167922
7140.71, 0.167606
7150.56, 0.167290
7160.43, 0.167101
7170.33, 0.167038
7180.27, 0.166279
7190.23, 0.165774
7200.21, 0.165774
7210.23, 0.165521
7220.27, 0.164762
7230.34, 0.164383
7240.44, 0.164067
7250.56, 0.164004
7260.72, 0.164257
7270.9, 0.164699
7281.12, 0.165015
7291.36, 0.165205
7301.63, 0.165710
7311.93, 0.166216
7322.25, 0.166785
7332.61, 0.167543
7343.0, 0.167796
7353.41, 0.167480
7363.86, 0.167227
7374.33, 0.166848
7384.83, 0.166216
7395.37, 0.165458
7405.93, 0.164573
7416.53, 0.163435
7427.15, 0.162171
7437.81, 0.160907
7448.5, 0.159833
7459.22, 0.158885
7469.96, 0.157937
7480.74, 0.156926
7491.55, 0.156357
7502.39, 0.155978
7513.27, 0.155788
7524.17, 0.155662
7535.11, 0.155598
7546.08, 0.155535
7557.08, 0.155472
7568.11, 0.155219
7579.17, 0.154903
7590.27, 0.154145
7601.4, 0.153260
7612.56, 0.152502
7623.76, 0.151743
7634.98, 0.150858
7646.24, 0.149974
7657.54, 0.149215
7668.87, 0.148330
7680.23, 0.147319
7691.62, 0.146434
7703.05, 0.145423
7714.51, 0.144222
7726.01, 0.142832
7737.54, 0.141442
7749.11, 0.139798
7760.71, 0.138408
7772.35, 0.137207
7784.02, 0.136006
7795.72, 0.134932
7807.46, 0.134047
7819.23, 0.133352
7831.04, 0.132973
7842.89, 0.132720
7854.77, 0.132467
7866.69, 0.132151
7878.65, 0.132025
7890.64, 0.131835
7902.67, 0.131519
7914.74, 0.131203
7926.84, 0.130950
7938.98, 0.130698
7951.16, 0.130318
7963.37, 0.129750
7975.62, 0.129181
7987.91, 0.128612
8000.24, 0.128043
8012.6, 0.127032
8025.01, 0.126084
8037.45, 0.125199
8049.93, 0.124314
8062.45, 0.123303
8075.01, 0.122229
8087.61, 0.121154
8100.24, 0.120080
8112.91, 0.118753
8125.63, 0.117362
8138.39, 0.115782
8151.18, 0.114202
8164.02, 0.112433
8176.9, 0.110600
8189.81, 0.108704
8202.77, 0.106682
8215.77, 0.104722
8228.82, 0.102890
8241.9, 0.100930
8255.02, 0.0989710
8268.19, 0.0969490
8281.39, 0.0949260
8294.65, 0.0929670
8307.94, 0.0911980
8321.28, 0.0893020
8334.66, 0.0876580
8348.08, 0.0860150
8361.54, 0.0846250
8375.05, 0.0831080
8388.6, 0.0815910
8402.2, 0.0801380
8415.84, 0.0788740
8429.52, 0.0773570
8443.25, 0.0757770
8457.02, 0.0741970
8470.84, 0.0725540
8484.7, 0.0709100
8498.61, 0.0692670
8512.57, 0.0676240
8526.57, 0.0659180
8540.62, 0.0640850
8554.71, 0.0623150
8568.85, 0.0602930
8583.04, 0.0583340
8597.27, 0.0563740
8611.55, 0.0543520
8625.88, 0.0523930
8640.26, 0.0507500
8654.68, 0.0489170
8669.16, 0.0470840
8683.68, 0.0449980
8698.25, 0.0431020
8712.87, 0.0412060
8727.53, 0.0395000
8742.25, 0.0376670
8757.02, 0.0360240
8771.83, 0.0344440
8786.7, 0.0329900
8801.62, 0.0315370
8816.59, 0.0302730
8831.61, 0.0289460
8846.68, 0.0276820
8861.8, 0.0264180
8876.97, 0.0252800
8892.2, 0.0241420
8907.48, 0.0232580
8922.81, 0.0222460
8938.2, 0.0212980
8953.63, 0.0204140
8969.13, 0.0194660
8984.67, 0.0185180
9000.27, 0.0176330
9015.92, 0.0167480
9031.63, 0.0159260
9047.39, 0.0150420
9063.21, 0.0143460
9079.08, 0.0135880
9095.01, 0.0128300
9111.0, 0.0120080
9127.04, 0.0112500
9143.13, 0.0106180
9159.28, 0.0101120
9175.49, 0.00941700
9191.76, 0.00891100
9208.09, 0.00853200
9224.47, 0.00815300
9240.92, 0.00777400
9257.42, 0.00758400
9273.98, 0.00745800
9290.6, 0.00733100
9307.28, 0.00726800
9324.02, 0.00739400
9340.82, 0.00739400
9357.68, 0.00777400
9374.6, 0.00821600
9391.58, 0.00891100
9408.62, 0.00992200
9425.73, 0.0113760
9442.9, 0.0130820
9460.13, 0.0152940
9477.42, 0.0177590
9494.78, 0.0210460
9512.2, 0.0249640
9529.69, 0.0294510
9547.24, 0.0346340
9564.86, 0.0406380
9582.54, 0.0475900
9600.28, 0.0551740
9618.1, 0.0635160
9635.97, 0.0729960
9653.92, 0.0834870
9671.93, 0.0949260
9690.01, 0.107314
9708.16, 0.121154
9726.37, 0.135817
9744.65, 0.150732
9763.0, 0.165774
9781.43, 0.180310
9799.92, 0.194593
9818.48, 0.209571
9837.1, 0.225814
9855.8, 0.242751
9874.58, 0.259815
9893.42, 0.277069
9912.34, 0.294828
9931.33, 0.312903
9950.39, 0.330662
9969.52, 0.347031
9988.74, 0.361251
10008.0, 0.372880
10027.4, 0.381728
10046.8, 0.387606
10066.3, 0.390829
10085.9, 0.391840
10105.6, 0.390955
10125.3, 0.388490
10145.1, 0.384888
10165.0, 0.381033
10185.0, 0.377494
10205.0, 0.374460
10225.2, 0.372374
10245.4, 0.370921
10265.7, 0.370668
10286.0, 0.371110
10306.5, 0.371869
10327.0, 0.373070
10347.6, 0.374144
10368.3, 0.373954
10389.1, 0.372122
10409.9, 0.368898
10430.9, 0.364601
10451.9, 0.359166
10473.0, 0.353604
10494.2, 0.348738
10515.5, 0.344756
10536.9, 0.341533
10558.4, 0.339005
10579.9, 0.336224
10601.5, 0.333190
10623.3, 0.329651
10645.1, 0.325606
10667.0, 0.320993
10689.0, 0.316063
10711.1, 0.311134
10733.2, 0.307152
10755.5, 0.304308
10777.9, 0.302602
10800.3, 0.301338
10822.9, 0.299631
10845.5, 0.296914
10868.2, 0.293627
10891.1, 0.289582
10914.0, 0.284653
10937.0, 0.278459
10960.2, 0.270622
10983.4, 0.260510
11006.7, 0.247238
11030.1, 0.229606
11053.6, 0.208118
11077.3, 0.184607
11101.0, 0.161476
11124.8, 0.140304
11148.7, 0.121534
11172.7, 0.105165
11196.9, 0.0912610
11221.1, 0.0802010
11245.4, 0.0730590
11269.9, 0.0714160
11294.4, 0.0772940
11319.1, 0.0926510
11343.9, 0.116035
11368.8, 0.143654
11393.7, 0.170703
11418.8, 0.194340
11444.0, 0.213742
11469.4, 0.229037
11494.8, 0.240855
11520.3, 0.249514
11546.0, 0.255202
11571.8, 0.258109
11597.7, 0.258678
11623.7, 0.256466
11649.8, 0.251346
11676.0, 0.242814
11702.4, 0.231691
11728.9, 0.220126
11755.5, 0.211594
11782.2, 0.209255
11809.0, 0.213616
11836.0, 0.221706
11863.0, 0.230490
11890.3, 0.237316
11917.6, 0.240602
11945.0, 0.239970
11972.6, 0.235420
12000.4, 0.227710
12028.2, 0.218040
12056.2, 0.207865
12084.3, 0.198069
12112.5, 0.189158
12140.9, 0.181447
12169.4, 0.174558
12198.0, 0.168681
12226.8, 0.163625
12255.7, 0.159264
12284.7, 0.155472
12313.9, 0.152059
12343.2, 0.149342
12372.7, 0.147319
12402.3, 0.145613
12432.0, 0.143906
12461.9, 0.142642
12491.9, 0.141694
12522.1, 0.140873
12552.4, 0.139798
12582.9, 0.138598
12613.5, 0.137650
12644.3, 0.136702
12675.2, 0.135627
12706.3, 0.134616
12737.5, 0.133668
12768.9, 0.132657
12800.4, 0.131393
12832.1, 0.129939
12863.9, 0.128359
12895.9, 0.126463
12928.1, 0.124504
12960.4, 0.121850
12992.9, 0.119006
13025.5, 0.116162
13058.3, 0.112875
13091.3, 0.109652
13124.4, 0.106618
13157.8, 0.104912
13191.2, 0.104975
13224.9, 0.106429
13258.7, 0.108198
13292.7, 0.109842
13326.9, 0.111295
13361.2, 0.113191
13395.7, 0.115719
13430.4, 0.118626
13465.3, 0.121470
13500.4, 0.123809
13535.7, 0.125452
13571.1, 0.126653
13606.7, 0.127601
13642.5, 0.128170
13678.5, 0.128359
13714.7, 0.128486
13751.1, 0.128549
13787.6, 0.128802
13824.4, 0.128928
13861.4, 0.128612
13898.5, 0.127790
13935.9, 0.127095
13973.5, 0.126147
14011.2, 0.124883
14049.2, 0.123998
14087.4, 0.123556
14125.8, 0.122861
14164.3, 0.122039
14203.2, 0.121091
14242.2, 0.119890
14281.4, 0.118247
14320.9, 0.116414
14360.5, 0.114455
14400.4, 0.112433
14440.5, 0.110979
14480.9, 0.109399
14521.4, 0.107503
14562.2, 0.105228
14603.3, 0.103206
14644.5, 0.101689
14686.0, 0.0999190
14727.7, 0.0981500
14769.7, 0.0965700
14811.9, 0.0948630
14854.3, 0.0931570
14897.0, 0.0913870
14939.9, 0.0900600
14983.1, 0.0879110
15026.5, 0.0848780
15070.2, 0.0821600
15114.2, 0.0789370
15158.3, 0.0758400
15202.8, 0.0727430
15247.5, 0.0692670
15292.5, 0.0657910
15337.7, 0.0621260
15383.2, 0.0582070
15429.0, 0.0540360
15475.1, 0.0498020
15521.4, 0.0455670
15568.0, 0.0413330
15614.9, 0.0367190
15662.1, 0.0321060
15709.6, 0.0278710
15757.3, 0.0240160
15805.4, 0.0201610
15853.7, 0.0173800
15902.3, 0.0161790
15951.2, 0.0165580
16000.5, 0.0194660
16050.0, 0.0248380
16099.8, 0.0324850
16150.0, 0.0403850
16200.5, 0.0460100
16251.3, 0.0467680
16302.4, 0.0442400
16353.8, 0.0405110
16405.5, 0.0365300
16457.6, 0.0329270
16510.0, 0.0302100
16562.8, 0.0276180
16615.9, 0.0248380
16669.3, 0.0220570
16723.1, 0.0199710
16777.2, 0.0183280
16831.7, 0.0173800
16886.5, 0.0172540
16941.7, 0.0187700
16997.2, 0.0218040
17053.1, 0.0264180
17109.4, 0.0331800
17166.1, 0.0436710
17223.1, 0.0578280
17280.5, 0.0748920
17338.3, 0.0940420
17396.5, 0.114202
17455.1, 0.133352
17514.0, 0.152059
17573.4, 0.170261
17633.2, 0.189347
17693.4, 0.208560
17754.0, 0.225498
17815.0, 0.239402
17876.4, 0.250335
17938.3, 0.258678
18000.5, 0.264808
18063.3, 0.269232
18126.4, 0.271191
18190.0, 0.268853
18254.1, 0.262786
18318.6, 0.253938
18383.5, 0.241487
18449.0, 0.224297
18514.9, 0.202303
18581.2, 0.175949
18648.0, 0.146940
18715.4, 0.120206
18783.2, 0.0979600
18851.5, 0.0827290
18920.3, 0.0787470
18989.6, 0.0893650
19059.4, 0.114013
19129.7, 0.149089
19200.6, 0.187388
19272.0, 0.224739
19343.9, 0.256150
19416.3, 0.280545
19489.3, 0.300579
19562.8, 0.315178
19637.0, 0.321119
19711.6, 0.319729
19786.8, 0.312018
19862.6, 0.303676
19939.0, 0.301211
20016.0, 0.306710
20093.6, 0.315115
20171.8, 0.321751
20250.6, 0.326491
20330.0, 0.329841
20410.0, 0.332306
20490.7, 0.333822
20572.0, 0.335150
20654.0, 0.335845
20736.6, 0.335339
20819.9, 0.334202
20903.8, 0.333317
20988.5, 0.332495
21073.8, 0.329904
21159.8, 0.322510
21246.5, 0.308479
21334.0, 0.288698
21422.1, 0.274667
21511.0, 0.280987
21600.7, 0.299315
21691.0, 0.314483
21782.1, 0.324090
21874.0, 0.328766
21966.7, 0.330662
22060.2, 0.332748
22154.5, 0.333633
22249.6, 0.334454
22345.5, 0.337046
22442.2, 0.339510
22539.8, 0.340774
22638.2, 0.340206
22737.5, 0.339131
22837.7, 0.338815
22938.7, 0.334960
23040.7, 0.325733
23143.5, 0.311829
23247.3, 0.295018
23352.1, 0.277069
23457.7, 0.259436
23564.4, 0.245974
23672.0, 0.231312
23780.5, 0.219873
23890.1, 0.212289
24000.7, 0.200723
24112.3, 0.188273
24225.0, 0.177023
24338.7, 0.167606
24453.5, 0.158632
24569.4, 0.149089
24686.4, 0.141315
24804.5, 0.138408
