Database of Origin, USGS Spectral Database
Sample Description, See USGS database for additional info
Date Added,2016-08-10 05:15:24.070689

Data ID,USGS_nat04          
Sample ID, natrolite_nmnh83380.15671
Mineral Name, natrolite
Material Class,Tectosilicate

Wavelength
1499.61, 0.416258
1500.04, 0.416793
1500.48, 0.416043
1500.91, 0.415187
1501.35, 0.415026
1501.78, 0.415347
1502.22, 0.415936
1502.65, 0.415615
1503.09, 0.415347
1503.53, 0.415454
1503.96, 0.415669
1504.4, 0.415562
1504.83, 0.415562
1505.27, 0.415669
1505.71, 0.415829
1506.15, 0.415562
1506.58, 0.415294
1507.02, 0.415240
1507.46, 0.415508
1507.9, 0.415401
1508.34, 0.415080
1508.78, 0.414973
1509.21, 0.414812
1509.66, 0.414598
1510.09, 0.414598
1510.53, 0.414705
1510.97, 0.414598
1511.42, 0.414705
1511.86, 0.414651
1512.3, 0.414277
1512.74, 0.414170
1513.18, 0.414598
1513.62, 0.415240
1514.06, 0.415026
1514.51, 0.414866
1514.95, 0.414919
1515.39, 0.415080
1515.83, 0.415347
1516.28, 0.415294
1516.72, 0.415133
1517.16, 0.415401
1517.61, 0.415347
1518.05, 0.414758
1518.5, 0.414705
1518.94, 0.414919
1519.39, 0.414866
1519.83, 0.415080
1520.28, 0.414919
1520.73, 0.415080
1521.17, 0.415294
1521.62, 0.415508
1522.07, 0.415776
1522.51, 0.415615
1522.96, 0.415669
1523.41, 0.415454
1523.85, 0.415401
1524.3, 0.416151
1524.75, 0.416258
1525.2, 0.415669
1525.65, 0.415347
1526.1, 0.415240
1526.55, 0.415187
1527.0, 0.415615
1527.45, 0.415829
1527.9, 0.415829
1528.35, 0.415883
1528.8, 0.416311
1529.25, 0.416258
1529.7, 0.416097
1530.15, 0.415936
1530.6, 0.416204
1531.05, 0.416472
1531.51, 0.416525
1531.96, 0.416365
1532.41, 0.416525
1532.87, 0.416579
1533.32, 0.416739
1533.77, 0.416686
1534.23, 0.416632
1534.68, 0.416686
1535.14, 0.416739
1535.59, 0.417328
1536.05, 0.417864
1536.5, 0.417542
1536.96, 0.416900
1537.41, 0.416793
1537.87, 0.417114
1538.32, 0.417596
1538.78, 0.417382
1539.24, 0.417382
1539.7, 0.417703
1540.15, 0.417542
1540.61, 0.417810
1541.07, 0.418024
1541.53, 0.417864
1541.98, 0.417650
1542.44, 0.417810
1542.9, 0.418453
1543.36, 0.418720
1543.82, 0.418292
1544.28, 0.418238
1544.74, 0.418613
1545.2, 0.418827
1545.66, 0.418774
1546.12, 0.418934
1546.59, 0.418934
1547.05, 0.418827
1547.51, 0.419630
1547.97, 0.420112
1548.43, 0.420005
1548.9, 0.420005
1549.36, 0.420326
1549.82, 0.420594
1550.29, 0.420648
1550.75, 0.420862
1551.21, 0.421183
1551.68, 0.421451
1552.14, 0.421397
1552.61, 0.421344
1553.07, 0.421451
1553.54, 0.421986
1554.0, 0.422414
1554.47, 0.422575
1554.93, 0.422789
1555.4, 0.422736
1555.87, 0.422950
1556.34, 0.423325
1556.8, 0.423325
1557.27, 0.423753
1557.74, 0.424342
1558.21, 0.424609
1558.68, 0.424824
1559.14, 0.424877
1559.61, 0.424824
1560.08, 0.424877
1560.55, 0.425091
1561.02, 0.425573
1561.49, 0.426055
1561.96, 0.426001
1562.43, 0.425948
1562.9, 0.426001
1563.38, 0.425841
1563.85, 0.426001
1564.32, 0.426590
1564.79, 0.427286
1565.26, 0.427608
1565.74, 0.427929
1566.21, 0.427982
1566.68, 0.427661
1567.16, 0.427822
1567.63, 0.428357
1568.1, 0.428518
1568.58, 0.428518
1569.05, 0.428464
1569.53, 0.428785
1570.0, 0.429321
1570.48, 0.429963
1570.96, 0.430017
1571.43, 0.430017
1571.91, 0.430070
1572.39, 0.430070
1572.86, 0.430285
1573.34, 0.430552
1573.82, 0.430606
1574.3, 0.430766
1574.77, 0.430873
1575.25, 0.431195
1575.73, 0.431623
1576.21, 0.431730
1576.69, 0.431837
1577.17, 0.432051
1577.65, 0.432319
1578.13, 0.432640
1578.61, 0.432640
1579.09, 0.432587
1579.57, 0.432747
1580.05, 0.432854
1580.54, 0.432694
1581.02, 0.433068
1581.5, 0.433122
1581.98, 0.433122
1582.47, 0.433443
1582.95, 0.433497
1583.43, 0.433764
1583.92, 0.433872
1584.4, 0.434086
1584.88, 0.434353
1585.37, 0.434514
1585.85, 0.434568
1586.34, 0.434675
1586.82, 0.434996
1587.31, 0.434835
1587.8, 0.434996
1588.28, 0.435424
1588.77, 0.435692
1589.26, 0.435906
1589.74, 0.436174
1590.23, 0.436067
1590.72, 0.436013
1591.21, 0.436174
1591.7, 0.436227
1592.19, 0.436388
1592.67, 0.436656
1593.16, 0.436870
1593.65, 0.437137
1594.14, 0.437137
1594.63, 0.437298
1595.12, 0.437887
1595.61, 0.438155
1596.11, 0.438262
1596.6, 0.438315
1597.09, 0.438208
1597.58, 0.438262
1598.08, 0.438583
1598.57, 0.438958
1599.06, 0.439118
1599.55, 0.439386
1600.05, 0.439440
1600.54, 0.439654
1601.04, 0.440028
1601.53, 0.440350
1602.03, 0.440617
1602.52, 0.440243
1603.02, 0.440350
1603.51, 0.440724
1604.01, 0.441206
1604.5, 0.441474
1605.0, 0.441367
1605.5, 0.441367
1606.0, 0.441474
1606.49, 0.441635
1606.99, 0.441849
1607.49, 0.442170
1607.99, 0.442491
1608.49, 0.442652
1608.99, 0.442759
1609.49, 0.443187
1609.99, 0.443401
1610.49, 0.443669
1610.99, 0.443830
1611.49, 0.443937
1611.99, 0.444258
1612.49, 0.444204
1612.99, 0.444204
1613.49, 0.444740
1614.0, 0.444954
1614.5, 0.444793
1615.0, 0.444954
1615.51, 0.445436
1616.01, 0.445864
1616.51, 0.446239
1617.02, 0.446292
1617.52, 0.446239
1618.03, 0.446292
1618.53, 0.446506
1619.04, 0.446721
1619.54, 0.446828
1620.05, 0.446988
1620.55, 0.447149
1621.06, 0.447417
1621.57, 0.447577
1622.08, 0.447898
1622.58, 0.448113
1623.09, 0.448220
1623.6, 0.448487
1624.11, 0.448755
1624.62, 0.448916
1625.13, 0.448862
1625.64, 0.449183
1626.15, 0.449344
1626.66, 0.449558
1627.17, 0.449826
1627.68, 0.450040
1628.19, 0.450040
1628.7, 0.450308
1629.21, 0.450575
1629.72, 0.450682
1630.24, 0.450950
1630.75, 0.451432
1631.26, 0.451593
1631.78, 0.451646
1632.29, 0.451753
1632.8, 0.452181
1633.32, 0.452449
1633.83, 0.452503
1634.35, 0.452663
1634.86, 0.452824
1635.38, 0.452877
1635.9, 0.453092
1636.41, 0.453252
1636.93, 0.453573
1637.45, 0.453788
1637.96, 0.453788
1638.48, 0.454055
1639.0, 0.454644
1639.52, 0.455287
1640.04, 0.455447
1640.56, 0.455340
1641.08, 0.455501
1641.59, 0.455983
1642.11, 0.456197
1642.63, 0.455983
1643.16, 0.456357
1643.68, 0.456893
1644.2, 0.457375
1644.72, 0.457696
1645.24, 0.457749
1645.76, 0.457910
1646.29, 0.458285
1646.81, 0.458445
1647.33, 0.458445
1647.86, 0.458713
1648.38, 0.459195
1648.9, 0.459516
1649.43, 0.459784
1649.95, 0.460052
1650.48, 0.460212
1651.0, 0.460533
1651.53, 0.461015
1652.06, 0.461336
1652.58, 0.461336
1653.11, 0.461658
1653.64, 0.462140
1654.17, 0.462354
1654.69, 0.462461
1655.22, 0.462621
1655.75, 0.462889
1656.28, 0.463103
1656.81, 0.463424
1657.34, 0.463692
1657.87, 0.464121
1658.4, 0.464335
1658.93, 0.464495
1659.46, 0.464816
1659.99, 0.465084
1660.52, 0.465031
1661.05, 0.465245
1661.59, 0.465620
1662.12, 0.465834
1662.65, 0.466155
1663.19, 0.466262
1663.72, 0.466423
1664.26, 0.467065
1664.79, 0.467547
1665.32, 0.467707
1665.86, 0.467600
1666.39, 0.467654
1666.93, 0.467922
1667.47, 0.468296
1668.0, 0.468564
1668.54, 0.468618
1669.08, 0.468939
1669.61, 0.469421
1670.15, 0.469528
1670.69, 0.469742
1671.23, 0.470063
1671.77, 0.470277
1672.31, 0.470491
1672.85, 0.470706
1673.39, 0.470973
1673.93, 0.471402
1674.47, 0.471455
1675.01, 0.471562
1675.55, 0.471937
1676.09, 0.472472
1676.64, 0.472794
1677.18, 0.473061
1677.72, 0.473008
1678.26, 0.473115
1678.81, 0.473436
1679.35, 0.473918
1679.89, 0.474186
1680.44, 0.474186
1680.98, 0.474132
1681.53, 0.474721
1682.07, 0.475149
1682.62, 0.475310
1683.17, 0.475524
1683.71, 0.475578
1684.26, 0.475578
1684.81, 0.475952
1685.36, 0.476220
1685.9, 0.476488
1686.45, 0.476702
1687.0, 0.476970
1687.55, 0.476970
1688.1, 0.477077
1688.65, 0.477505
1689.2, 0.477826
1689.75, 0.478040
1690.3, 0.478147
1690.85, 0.478201
1691.41, 0.478201
1691.96, 0.478683
1692.51, 0.479004
1693.06, 0.479379
1693.61, 0.479539
1694.17, 0.479593
1694.72, 0.480021
1695.28, 0.480075
1695.83, 0.480128
1696.39, 0.480235
1696.94, 0.480342
1697.5, 0.480610
1698.05, 0.480824
1698.61, 0.480931
1699.17, 0.481092
1699.72, 0.481038
1700.28, 0.481253
1700.84, 0.481627
1701.4, 0.481895
1701.95, 0.481842
1702.51, 0.481842
1703.07, 0.482163
1703.63, 0.482270
1704.19, 0.482430
1704.75, 0.482752
1705.31, 0.482752
1705.88, 0.482538
1706.44, 0.482645
1707.0, 0.482912
1707.56, 0.483073
1708.12, 0.483341
1708.69, 0.483394
1709.25, 0.483287
1709.81, 0.483341
1710.38, 0.483448
1710.94, 0.483448
1711.51, 0.483662
1712.07, 0.483930
1712.64, 0.483822
1713.2, 0.483769
1713.77, 0.483822
1714.34, 0.483769
1714.9, 0.483822
1715.47, 0.483930
1716.04, 0.483930
1716.61, 0.484090
1717.18, 0.483983
1717.74, 0.483715
1718.31, 0.483501
1718.88, 0.483608
1719.45, 0.483555
1720.02, 0.483448
1720.59, 0.483608
1721.17, 0.483662
1721.74, 0.483715
1722.31, 0.483608
1722.88, 0.483341
1723.45, 0.483287
1724.03, 0.483341
1724.6, 0.483126
1725.18, 0.483287
1725.75, 0.483341
1726.33, 0.483341
1726.9, 0.483287
1727.48, 0.483234
1728.05, 0.483180
1728.63, 0.482859
1729.2, 0.482591
1729.78, 0.482484
1730.36, 0.482484
1730.94, 0.482538
1731.51, 0.482752
1732.09, 0.482805
1732.67, 0.482752
1733.25, 0.482912
1733.83, 0.483019
1734.41, 0.483019
1734.99, 0.483019
1735.57, 0.483073
1736.15, 0.483234
1736.73, 0.483341
1737.32, 0.483394
1737.9, 0.483662
1738.48, 0.483662
1739.07, 0.483448
1739.65, 0.483501
1740.23, 0.483715
1740.82, 0.484090
1741.4, 0.484411
1741.99, 0.484465
1742.57, 0.484411
1743.16, 0.484411
1743.74, 0.484465
1744.33, 0.484733
1744.92, 0.484733
1745.51, 0.484840
1746.09, 0.485214
1746.68, 0.485214
1747.27, 0.485054
1747.86, 0.485214
1748.45, 0.485589
1749.04, 0.485803
1749.63, 0.485750
1750.22, 0.485857
1750.81, 0.486017
1751.4, 0.486178
1751.99, 0.486232
1752.59, 0.486339
1753.18, 0.486553
1753.77, 0.486446
1754.37, 0.486499
1754.96, 0.486767
1755.56, 0.486928
1756.15, 0.486874
1756.74, 0.486821
1757.34, 0.486821
1757.94, 0.487088
1758.53, 0.487249
1759.13, 0.486981
1759.73, 0.487249
1760.32, 0.487784
1760.92, 0.487784
1761.52, 0.487356
1762.12, 0.487035
1762.72, 0.487356
1763.32, 0.487249
1763.92, 0.487142
1764.52, 0.487249
1765.12, 0.487142
1765.72, 0.487195
1766.32, 0.487088
1766.92, 0.487463
1767.53, 0.487624
1768.13, 0.487624
1768.73, 0.487731
1769.34, 0.487891
1769.94, 0.488159
1770.55, 0.488213
1771.15, 0.488320
1771.76, 0.488480
1772.36, 0.488855
1772.97, 0.489123
1773.57, 0.489069
1774.18, 0.489551
1774.79, 0.489712
1775.4, 0.489872
1776.0, 0.490568
1776.61, 0.490782
1777.22, 0.490782
1777.83, 0.491050
1778.44, 0.491264
1779.05, 0.491585
1779.66, 0.491960
1780.27, 0.491960
1780.88, 0.492014
1781.5, 0.492442
1782.11, 0.492603
1782.72, 0.492710
1783.33, 0.492763
1783.95, 0.492977
1784.56, 0.493245
1785.18, 0.493459
1785.79, 0.493727
1786.41, 0.493780
1787.02, 0.493673
1787.64, 0.493780
1788.26, 0.494209
1788.87, 0.494530
1789.49, 0.494530
1790.11, 0.494744
1790.73, 0.494744
1791.35, 0.494744
1791.96, 0.494637
1792.58, 0.494851
1793.21, 0.495172
1793.83, 0.495333
1794.45, 0.495547
1795.07, 0.495547
1795.69, 0.495601
1796.31, 0.495761
1796.93, 0.495708
1797.56, 0.495761
1798.18, 0.495815
1798.8, 0.496029
1799.43, 0.496297
1800.05, 0.496136
1800.68, 0.495922
1801.3, 0.495869
1801.93, 0.495922
1802.56, 0.496083
1803.18, 0.496243
1803.81, 0.496190
1804.44, 0.496029
1805.07, 0.496243
1805.7, 0.496350
1806.33, 0.496243
1806.95, 0.496136
1807.58, 0.496136
1808.22, 0.496190
1808.85, 0.496297
1809.48, 0.496190
1810.11, 0.496083
1810.74, 0.496083
1811.38, 0.495922
1812.01, 0.495815
1812.64, 0.495708
1813.28, 0.495761
1813.91, 0.495815
1814.55, 0.495976
1815.18, 0.495708
1815.82, 0.495654
1816.45, 0.496136
1817.09, 0.496297
1817.73, 0.496029
1818.36, 0.496243
1819.0, 0.496511
1819.64, 0.496457
1820.28, 0.496350
1820.92, 0.496618
1821.56, 0.496939
1822.2, 0.497314
1822.84, 0.497421
1823.48, 0.497689
1824.12, 0.498010
1824.76, 0.498171
1825.41, 0.498010
1826.05, 0.497635
1826.69, 0.497956
1827.34, 0.498599
1827.98, 0.498813
1828.63, 0.498920
1829.27, 0.498867
1829.92, 0.498867
1830.56, 0.498867
1831.21, 0.499081
1831.86, 0.499616
1832.5, 0.499777
1833.15, 0.499723
1833.8, 0.499777
1834.45, 0.499509
1835.1, 0.499616
1835.75, 0.499509
1836.4, 0.499456
1837.05, 0.499456
1837.7, 0.499563
1838.35, 0.500152
1839.01, 0.500205
1839.66, 0.499991
1840.31, 0.500259
1840.96, 0.500098
1841.62, 0.499509
1842.27, 0.499563
1842.93, 0.500312
1843.58, 0.500794
1844.24, 0.500794
1844.9, 0.500740
1845.55, 0.500580
1846.21, 0.499937
1846.87, 0.499188
1847.53, 0.499295
1848.18, 0.499402
1848.84, 0.499723
1849.5, 0.499884
1850.16, 0.499884
1850.82, 0.499830
1851.48, 0.499777
1852.14, 0.499295
1852.81, 0.498760
1853.47, 0.498171
1854.13, 0.498171
1854.8, 0.498599
1855.46, 0.498599
1856.12, 0.497903
1856.79, 0.497421
1857.45, 0.497368
1858.12, 0.497153
1858.79, 0.496457
1859.45, 0.495387
1860.12, 0.495280
1860.79, 0.495226
1861.46, 0.495119
1862.12, 0.494798
1862.79, 0.494369
1863.46, 0.493780
1864.13, 0.493138
1864.8, 0.492335
1865.48, 0.491639
1866.15, 0.491264
1866.82, 0.490515
1867.49, 0.489123
1868.16, 0.488373
1868.84, 0.487838
1869.51, 0.486981
1870.19, 0.485589
1870.86, 0.484251
1871.54, 0.483769
1872.21, 0.482645
1872.89, 0.481092
1873.56, 0.480289
1874.24, 0.479700
1874.92, 0.478576
1875.6, 0.477505
1876.28, 0.475899
1876.96, 0.474239
1877.64, 0.473115
1878.32, 0.471776
1879.0, 0.470010
1879.68, 0.468404
1880.36, 0.466904
1881.04, 0.464924
1881.73, 0.462943
1882.41, 0.461015
1883.09, 0.458767
1883.78, 0.456357
1884.46, 0.454216
1885.15, 0.451860
1885.83, 0.449237
1886.52, 0.446614
1887.21, 0.444097
1887.89, 0.441420
1888.58, 0.438529
1889.27, 0.435317
1889.96, 0.432158
1890.65, 0.429267
1891.34, 0.426376
1892.03, 0.423432
1892.72, 0.420434
1893.41, 0.417328
1894.1, 0.414330
1894.79, 0.411279
1895.49, 0.408280
1896.18, 0.405389
1896.87, 0.402284
1897.57, 0.399179
1898.26, 0.396127
1898.96, 0.392861
1899.65, 0.389542
1900.35, 0.386544
1901.05, 0.383599
1901.74, 0.380548
1902.44, 0.377228
1903.14, 0.374070
1903.84, 0.371286
1904.54, 0.368073
1905.24, 0.364808
1905.94, 0.362024
1906.64, 0.359293
1907.34, 0.356938
1908.04, 0.354421
1908.75, 0.351798
1909.45, 0.349282
1910.15, 0.346658
1910.86, 0.344303
1911.56, 0.342054
1912.27, 0.340020
1912.97, 0.337503
1913.68, 0.334933
1914.39, 0.332899
1915.09, 0.330918
1915.8, 0.328723
1916.51, 0.326474
1917.22, 0.324440
1917.93, 0.322191
1918.64, 0.319622
1919.35, 0.316838
1920.06, 0.314107
1920.77, 0.311859
1921.48, 0.309771
1922.19, 0.307201
1922.91, 0.304310
1923.62, 0.301205
1924.33, 0.298313
1925.05, 0.295422
1925.76, 0.292157
1926.48, 0.288516
1927.19, 0.284875
1927.91, 0.281074
1928.63, 0.277327
1929.35, 0.273204
1930.07, 0.268868
1930.78, 0.264424
1931.5, 0.259820
1932.22, 0.255322
1932.94, 0.250450
1933.66, 0.245525
1934.39, 0.240707
1935.11, 0.236049
1935.83, 0.231391
1936.55, 0.227001
1937.28, 0.223039
1938.0, 0.219559
1938.73, 0.216347
1939.45, 0.213670
1940.18, 0.211743
1940.9, 0.210458
1941.63, 0.209815
1942.36, 0.209922
1943.09, 0.210672
1943.81, 0.212117
1944.54, 0.214312
1945.27, 0.217364
1946.0, 0.221165
1946.73, 0.225502
1947.47, 0.230481
1948.2, 0.236049
1948.93, 0.242152
1949.66, 0.248416
1950.4, 0.254734
1951.13, 0.261426
1951.86, 0.268065
1952.6, 0.274436
1953.34, 0.280807
1954.07, 0.287070
1954.81, 0.292853
1955.55, 0.298474
1956.29, 0.303721
1957.02, 0.308432
1957.76, 0.312769
1958.5, 0.316730
1959.24, 0.320103
1959.98, 0.323316
1960.72, 0.325993
1961.47, 0.328348
1962.21, 0.330169
1962.95, 0.331668
1963.7, 0.333113
1964.44, 0.334130
1965.18, 0.334666
1965.93, 0.335094
1966.67, 0.335094
1967.42, 0.334987
1968.17, 0.334826
1968.92, 0.334291
1969.66, 0.333648
1970.41, 0.332845
1971.16, 0.332310
1971.91, 0.331668
1972.66, 0.331132
1973.41, 0.330704
1974.16, 0.330704
1974.92, 0.330811
1975.67, 0.330918
1976.42, 0.331453
1977.18, 0.332417
1977.93, 0.333327
1978.69, 0.334344
1979.44, 0.335790
1980.2, 0.337128
1980.95, 0.338520
1981.71, 0.340073
1982.47, 0.341679
1983.23, 0.342964
1983.99, 0.344249
1984.74, 0.345427
1985.51, 0.346605
1986.27, 0.347836
1987.03, 0.348907
1987.79, 0.349978
1988.55, 0.350995
1989.32, 0.351744
1990.08, 0.352280
1990.84, 0.352815
1991.61, 0.353458
1992.37, 0.353993
1993.14, 0.354475
1993.9, 0.355010
1994.67, 0.355331
1995.44, 0.355760
1996.21, 0.356027
1996.98, 0.356295
1997.75, 0.356563
1998.52, 0.356884
1999.29, 0.357098
2000.06, 0.357205
2000.83, 0.357259
2001.6, 0.357419
2002.38, 0.357580
2003.15, 0.357687
2003.93, 0.357794
2004.7, 0.357901
2005.48, 0.358062
2006.25, 0.358008
2007.03, 0.358062
2007.81, 0.358062
2008.58, 0.358222
2009.36, 0.358490
2010.14, 0.358811
2010.92, 0.359025
2011.7, 0.359240
2012.48, 0.359614
2013.26, 0.360043
2014.05, 0.360471
2014.83, 0.360953
2015.61, 0.361542
2016.4, 0.362345
2017.18, 0.363309
2017.97, 0.364004
2018.75, 0.364540
2019.54, 0.365557
2020.32, 0.366574
2021.11, 0.367485
2021.9, 0.368180
2022.69, 0.369091
2023.48, 0.370215
2024.27, 0.371179
2025.06, 0.371928
2025.85, 0.372892
2026.64, 0.374016
2027.44, 0.374926
2028.23, 0.376051
2029.02, 0.377175
2029.82, 0.378299
2030.61, 0.379316
2031.41, 0.380119
2032.2, 0.381190
2033.0, 0.382314
2033.8, 0.383332
2034.6, 0.384349
2035.4, 0.385473
2036.2, 0.386437
2037.0, 0.387401
2037.8, 0.388471
2038.6, 0.389435
2039.4, 0.390452
2040.2, 0.391309
2041.01, 0.392165
2041.81, 0.393129
2042.61, 0.393986
2043.42, 0.394735
2044.22, 0.395431
2045.03, 0.396181
2045.84, 0.396823
2046.65, 0.397519
2047.46, 0.398215
2048.26, 0.398697
2049.07, 0.399179
2049.88, 0.399768
2050.69, 0.400143
2051.51, 0.400410
2052.32, 0.400839
2053.13, 0.401267
2053.94, 0.401428
2054.76, 0.401428
2055.57, 0.401535
2056.39, 0.401695
2057.2, 0.401909
2058.02, 0.402016
2058.84, 0.402016
2059.66, 0.402016
2060.48, 0.402284
2061.29, 0.402445
2062.11, 0.402552
2062.94, 0.402873
2063.76, 0.403248
2064.58, 0.403569
2065.4, 0.404158
2066.22, 0.404800
2067.05, 0.405443
2067.87, 0.406246
2068.7, 0.407103
2069.52, 0.408066
2070.35, 0.408923
2071.18, 0.409512
2072.0, 0.410261
2072.83, 0.411386
2073.66, 0.412082
2074.49, 0.412831
2075.32, 0.413795
2076.15, 0.414598
2076.98, 0.415347
2077.82, 0.415990
2078.65, 0.416365
2079.48, 0.417007
2080.32, 0.417810
2081.15, 0.418506
2081.99, 0.419095
2082.83, 0.419791
2083.66, 0.420326
2084.5, 0.420808
2085.34, 0.421344
2086.18, 0.422093
2087.02, 0.422843
2087.86, 0.423485
2088.7, 0.424181
2089.54, 0.424931
2090.39, 0.425841
2091.23, 0.426537
2092.07, 0.427286
2092.92, 0.428143
2093.76, 0.428839
2094.61, 0.429588
2095.45, 0.430338
2096.3, 0.431195
2097.15, 0.432105
2098.0, 0.433015
2098.85, 0.434032
2099.7, 0.434942
2100.55, 0.435745
2101.4, 0.436441
2102.25, 0.437298
2103.1, 0.438262
2103.96, 0.439118
2104.81, 0.439707
2105.67, 0.440296
2106.52, 0.440992
2107.38, 0.441795
2108.24, 0.442545
2109.09, 0.443027
2109.95, 0.443669
2110.81, 0.444418
2111.67, 0.444900
2112.53, 0.445275
2113.39, 0.445650
2114.25, 0.445971
2115.12, 0.446399
2115.98, 0.446935
2116.84, 0.447310
2117.71, 0.447470
2118.58, 0.447845
2119.44, 0.448220
2120.31, 0.448434
2121.18, 0.448648
2122.04, 0.448755
2122.91, 0.448702
2123.78, 0.448809
2124.65, 0.449023
2125.52, 0.448969
2126.4, 0.449023
2127.27, 0.449237
2128.14, 0.449344
2129.02, 0.449237
2129.89, 0.449344
2130.77, 0.449505
2131.64, 0.449505
2132.52, 0.449505
2133.4, 0.449290
2134.27, 0.449130
2135.15, 0.449130
2136.03, 0.449130
2136.91, 0.448862
2137.79, 0.448648
2138.68, 0.448702
2139.56, 0.448541
2140.44, 0.448166
2141.33, 0.447845
2142.21, 0.447684
2143.1, 0.447470
2143.99, 0.447256
2144.87, 0.447095
2145.76, 0.446774
2146.65, 0.446506
2147.54, 0.446185
2148.43, 0.445918
2149.32, 0.445543
2150.21, 0.445382
2151.1, 0.445275
2151.99, 0.444900
2152.89, 0.444633
2153.78, 0.444633
2154.68, 0.444204
2155.57, 0.443776
2156.47, 0.443348
2157.37, 0.443080
2158.27, 0.442973
2159.16, 0.442705
2160.06, 0.442438
2160.96, 0.442170
2161.86, 0.441742
2162.77, 0.441527
2163.67, 0.441367
2164.57, 0.441206
2165.48, 0.440992
2166.38, 0.440885
2167.29, 0.440778
2168.2, 0.440617
2169.1, 0.440457
2170.01, 0.440189
2170.92, 0.440028
2171.83, 0.440028
2172.74, 0.439975
2173.65, 0.439868
2174.56, 0.439814
2175.47, 0.439493
2176.39, 0.439332
2177.3, 0.439332
2178.22, 0.439279
2179.13, 0.439225
2180.05, 0.439118
2180.96, 0.438958
2181.88, 0.438797
2182.8, 0.438690
2183.72, 0.438476
2184.64, 0.438155
2185.56, 0.437887
2186.48, 0.437566
2187.41, 0.437191
2188.33, 0.436977
2189.25, 0.436923
2190.18, 0.436656
2191.1, 0.436334
2192.03, 0.436067
2192.96, 0.435852
2193.89, 0.435745
2194.82, 0.435638
2195.74, 0.435692
2196.68, 0.435692
2197.61, 0.435692
2198.54, 0.435799
2199.47, 0.435906
2200.4, 0.436327
2201.34, 0.436748
2202.28, 0.436853
2203.21, 0.437326
2204.15, 0.437642
2205.08, 0.438326
2206.02, 0.439273
2206.96, 0.439746
2207.9, 0.440272
2208.84, 0.440956
2209.78, 0.441956
2210.73, 0.442798
2211.67, 0.443534
2212.61, 0.444113
2213.56, 0.444586
2214.5, 0.445270
2215.45, 0.446059
2216.4, 0.446848
2217.35, 0.447322
2218.3, 0.447795
2219.24, 0.448637
2220.2, 0.449479
2221.15, 0.450110
2222.1, 0.450320
2223.05, 0.450741
2224.0, 0.451425
2224.96, 0.452109
2225.91, 0.452635
2226.87, 0.453056
2227.83, 0.453477
2228.79, 0.454213
2229.74, 0.454634
2230.7, 0.454845
2231.66, 0.455318
2232.63, 0.455739
2233.59, 0.455897
2234.55, 0.456423
2235.51, 0.456896
2236.48, 0.457054
2237.44, 0.457265
2238.41, 0.457843
2239.38, 0.458369
2240.34, 0.458738
2241.31, 0.458685
2242.28, 0.458843
2243.25, 0.459159
2244.22, 0.459422
2245.19, 0.459474
2246.17, 0.459685
2247.14, 0.459790
2248.12, 0.460211
2249.09, 0.460737
2250.07, 0.460789
2251.04, 0.460684
2252.02, 0.460737
2253.0, 0.461052
2253.98, 0.461368
2254.96, 0.461210
2255.94, 0.460737
2256.92, 0.460579
2257.91, 0.460737
2258.89, 0.460684
2259.88, 0.460842
2260.86, 0.460737
2261.85, 0.460842
2262.83, 0.460947
2263.82, 0.460789
2264.81, 0.460526
2265.8, 0.460368
2266.79, 0.460474
2267.78, 0.460263
2268.78, 0.460105
2269.77, 0.459948
2270.76, 0.459632
2271.76, 0.459159
2272.75, 0.458948
2273.75, 0.458790
2274.75, 0.458843
2275.75, 0.458738
2276.75, 0.458632
2277.75, 0.458738
2278.75, 0.458790
2279.75, 0.458790
2280.75, 0.458632
2281.76, 0.458685
2282.76, 0.458369
2283.77, 0.458159
2284.77, 0.458054
2285.78, 0.458264
2286.79, 0.458317
2287.8, 0.458054
2288.81, 0.457738
2289.82, 0.457633
2290.83, 0.457633
2291.84, 0.457580
2292.86, 0.457422
2293.87, 0.457159
2294.89, 0.456896
2295.91, 0.456633
2296.92, 0.456423
2297.94, 0.455844
2298.96, 0.455529
2299.98, 0.455423
2301.0, 0.454792
2302.02, 0.454476
2303.04, 0.454424
2304.07, 0.454108
2305.09, 0.453530
2306.12, 0.453109
2307.15, 0.452425
2308.17, 0.451846
2309.2, 0.451320
2310.23, 0.450583
2311.26, 0.450110
2312.29, 0.449374
2313.32, 0.448532
2314.35, 0.447795
2315.39, 0.446954
2316.42, 0.446533
2317.46, 0.446112
2318.5, 0.445691
2319.53, 0.444902
2320.57, 0.444060
2321.61, 0.443218
2322.65, 0.442324
2323.69, 0.441325
2324.73, 0.440641
2325.78, 0.439904
2326.82, 0.438852
2327.86, 0.437747
2328.91, 0.437116
2329.96, 0.436327
2331.01, 0.435117
2332.05, 0.434170
2333.1, 0.433433
2334.15, 0.432434
2335.21, 0.431329
2336.26, 0.430119
2337.31, 0.428962
2338.36, 0.427699
2339.42, 0.426594
2340.48, 0.425700
2341.53, 0.424701
2342.59, 0.423438
2343.65, 0.422333
2344.71, 0.421176
2345.77, 0.419808
2346.83, 0.418282
2347.9, 0.416967
2348.96, 0.415494
2350.02, 0.414021
2351.09, 0.412653
2352.16, 0.411233
2353.23, 0.409970
2354.29, 0.408655
2355.36, 0.407182
2356.43, 0.405446
2357.51, 0.403921
2358.58, 0.402658
2359.65, 0.401027
2360.73, 0.399502
2361.8, 0.398029
2362.88, 0.396398
2363.96, 0.394346
2365.03, 0.392031
2366.11, 0.390085
2367.19, 0.388244
2368.27, 0.386192
2369.36, 0.384298
2370.44, 0.382246
2371.53, 0.380142
2372.61, 0.377669
2373.7, 0.375407
2374.78, 0.373408
2375.87, 0.371514
2376.96, 0.369252
2378.05, 0.366885
2379.14, 0.364518
2380.24, 0.361835
2381.33, 0.359204
2382.42, 0.356889
2383.52, 0.354417
2384.61, 0.351839
2385.71, 0.349051
2386.81, 0.346421
2387.91, 0.343895
2389.01, 0.341423
2390.11, 0.338845
2391.22, 0.336636
2392.32, 0.334110
2393.42, 0.331427
2394.53, 0.328850
2395.64, 0.326377
2396.74, 0.324115
2397.85, 0.322063
2398.96, 0.319696
2400.07, 0.317644
2401.18, 0.315750
2402.3, 0.314172
2403.41, 0.312489
2404.52, 0.310805
2405.64, 0.309174
2406.76, 0.307596
2407.88, 0.306281
2408.99, 0.304598
2410.11, 0.302756
2411.23, 0.301546
2412.36, 0.300179
2413.48, 0.298443
2414.6, 0.296654
2415.73, 0.295233
2416.85, 0.293760
2417.98, 0.292130
2419.11, 0.290709
2420.24, 0.289236
2421.37, 0.287290
2422.5, 0.285606
2423.64, 0.283870
2424.77, 0.282239
2425.9, 0.280977
2427.04, 0.279819
2428.18, 0.278609
2429.31, 0.277610
2430.45, 0.276716
2431.59, 0.275874
2432.73, 0.274980
2433.88, 0.274453
2435.02, 0.274296
2436.16, 0.274243
2437.31, 0.274033
2438.45, 0.273980
2439.6, 0.274033
2440.75, 0.273927
2441.9, 0.273927
2443.05, 0.273927
2444.2, 0.273507
2445.35, 0.273086
2446.51, 0.272823
2447.67, 0.272612
2448.82, 0.272560
2449.98, 0.272191
2451.14, 0.271613
2452.3, 0.270929
2453.46, 0.270245
2454.62, 0.269561
2455.78, 0.268982
2456.94, 0.268667
2458.11, 0.268141
2459.28, 0.267457
2460.44, 0.267141
2461.61, 0.267088
2462.78, 0.266773
2463.95, 0.266720
2465.12, 0.266931
2466.3, 0.266878
2467.47, 0.266983
2468.65, 0.267509
2469.82, 0.268193
2471.0, 0.268772
2472.18, 0.269456
2473.36, 0.270245
2474.54, 0.271034
2475.72, 0.272086
2476.9, 0.272875
2478.08, 0.273454
2479.27, 0.274033
2480.46, 0.274822
2481.64, 0.275506
2482.83, 0.276190
2484.02, 0.276453
2485.21, 0.277031
2486.4, 0.277610
2487.6, 0.278136
2488.79, 0.278609
2489.99, 0.279188
2491.18, 0.279451
2492.38, 0.279767
2493.58, 0.279925
2494.78, 0.280082
2495.98, 0.280135
2497.18, 0.279977
2498.39, 0.279819
2499.59, 0.279609
2500.8, 0.279136
2502.01, 0.278978
2503.21, 0.278767
2504.42, 0.278294
2505.63, 0.277768
2506.84, 0.277347
2508.06, 0.276821
2509.27, 0.276347
2510.49, 0.275874
2511.7, 0.275453
2512.92, 0.274822
2514.14, 0.273980
2515.36, 0.273296
2516.58, 0.272875
2517.8, 0.272612
2519.03, 0.272244
2520.25, 0.271771
2521.48, 0.271402
2522.7, 0.270771
2523.93, 0.270403
2525.16, 0.270192
2526.39, 0.269877
2527.62, 0.269508
2528.86, 0.269088
2530.09, 0.268614
2531.33, 0.268035
2532.56, 0.267667
2533.8, 0.267772
2535.04, 0.267036
2536.28, 0.266352
2537.52, 0.266773
2538.76, 0.267194
2540.01, 0.266983
2541.25, 0.266194
2542.5, 0.264984
2543.75, 0.265089
2544.99, 0.265668
2546.24, 0.265458
2547.49, 0.264668
2548.75, 0.264932
2550.0, 0.264879
2551.26, 0.264037
2552.51, 0.263353
2553.77, 0.264195
2555.03, 0.264774
2556.29, 0.264405
2557.55, 0.263827
2558.81, 0.262564
2560.08, 0.259671
2561.34, 0.257251
2562.61, 0.256777
2563.88, 0.256777
2565.14, 0.258040
2566.41, 0.259408
2567.68, 0.258303
2568.96, 0.255462
2570.23, 0.255094
2571.51, 0.255357
2572.78, 0.251674
2574.06, 0.251411
2575.34, 0.251885
2576.62, 0.250201
2577.9, 0.250938
2579.18, 0.251201
2580.47, 0.248991
2581.75, 0.248044
2583.04, 0.244835
2584.32, 0.244362
2585.61, 0.246466
2586.9, 0.245730
2588.2, 0.246571
2589.49, 0.248308
2590.78, 0.249833
2592.08, 0.248991
2593.37, 0.241995
2594.67, 0.236471
2595.97, 0.243625
2597.27, 0.251411
2598.57, 0.254463
2599.88, 0.254515
2601.18, 0.253410
2602.49, 0.252937
2603.79, 0.251148
2605.1, 0.248623
2606.41, 0.250622
2607.72, 0.253516
2609.03, 0.254252
2610.35, 0.255304
2611.66, 0.255883
2612.98, 0.255304
2614.3, 0.255147
2615.62, 0.251517
2616.94, 0.249254
2618.26, 0.251464
2619.58, 0.249097
2620.91, 0.249570
2622.23, 0.253516
2623.56, 0.254042
2624.89, 0.251622
2626.22, 0.247571
2627.55, 0.248623
2628.88, 0.247203
2630.21, 0.243205
2631.55, 0.245782
2632.89, 0.247098
2634.22, 0.246624
2635.56, 0.247466
2636.9, 0.247361
2638.25, 0.246782
2639.59, 0.245835
2640.93, 0.244572
2642.28, 0.243625
2643.63, 0.243099
2644.98, 0.241153
2646.33, 0.240679
2647.68, 0.241153
2649.03, 0.240837
2650.39, 0.239206
2651.74, 0.236418
2653.1, 0.235629
2654.46, 0.235261
2655.82, 0.234261
2657.18, 0.234209
2658.54, 0.231684
2659.9, 0.229737
2661.27, 0.228948
2662.64, 0.227738
2664.01, 0.222267
2665.38, 0.217006
2666.74, 0.215954
2668.12, 0.217848
2669.49, 0.212797
2670.87, 0.211009
2672.24, 0.216059
2673.62, 0.216164
2675.0, 0.212429
2676.38, 0.208431
2677.76, 0.207537
2679.15, 0.207063
2680.54, 0.208484
2681.92, 0.207589
2683.31, 0.205117
2684.7, 0.203381
2686.09, 0.201539
2687.48, 0.199961
2688.88, 0.198436
2690.27, 0.196594
2691.67, 0.193280
2693.07, 0.187967
2694.47, 0.185073
2695.87, 0.184337
2697.27, 0.183337
2698.67, 0.180917
2700.08, 0.177130
2701.49, 0.173342
2702.9, 0.171080
2704.31, 0.168028
2705.72, 0.164399
2707.13, 0.160085
2708.54, 0.154508
2709.96, 0.148669
2711.38, 0.145565
2712.8, 0.144618
2714.22, 0.141672
2715.64, 0.137674
2717.06, 0.133097
2718.49, 0.127731
2719.91, 0.121050
2721.34, 0.117841
2722.77, 0.115105
2724.2, 0.110265
2725.63, 0.107477
2727.07, 0.105005
2728.5, 0.101585
2729.94, 0.0977970
2731.38, 0.0941670
2732.82, 0.0904320
2734.26, 0.0862760
2735.7, 0.0833300
2737.15, 0.0805950
2738.59, 0.0764390
2740.04, 0.0731240
2741.49, 0.0713360
2742.94, 0.0700210
2744.39, 0.0682320
2745.84, 0.0660750
2747.3, 0.0638130
2748.76, 0.0616030
2750.21, 0.0592890
2751.67, 0.0571320
2753.14, 0.0549220
2754.6, 0.0519760
2756.06, 0.0500820
2757.53, 0.0493460
2759.0, 0.0478200
2760.46, 0.0458210
2761.94, 0.0435590
2763.41, 0.0418230
2764.88, 0.0406660
2766.36, 0.0394030
2767.83, 0.0380350
2769.31, 0.0365620
2770.79, 0.0349310
2772.27, 0.0339320
2773.76, 0.0331950
2775.24, 0.0320910
2776.73, 0.0307230
2778.22, 0.0298280
2779.71, 0.0289340
2781.2, 0.0279870
2782.69, 0.0271980
2784.18, 0.0264620
2785.68, 0.0257780
2787.18, 0.0251990
2788.68, 0.0248830
2790.18, 0.0248830
2791.68, 0.0245680
2793.19, 0.0243050
2794.69, 0.0241470
2796.2, 0.0239360
2797.71, 0.0236210
2799.22, 0.0233580
2800.73, 0.0229370
2802.24, 0.0222530
2803.76, 0.0219370
2805.28, 0.0219370
2806.8, 0.0216220
2808.32, 0.0212010
2809.84, 0.0207800
2811.36, 0.0203070
2812.89, 0.0198860
2814.42, 0.0194120
2815.94, 0.0187810
2817.48, 0.0184130
2819.01, 0.0180970
2820.54, 0.0178870
2822.08, 0.0177810
2823.61, 0.0178340
2825.15, 0.0178870
2826.69, 0.0180970
2828.23, 0.0182020
2829.78, 0.0185700
2831.32, 0.0188860
2832.87, 0.0190440
2834.42, 0.0194120
2835.97, 0.0198330
2837.52, 0.0200960
2839.08, 0.0205170
2840.63, 0.0209900
2842.19, 0.0215690
2843.75, 0.0221480
2845.31, 0.0225160
2846.87, 0.0229370
2848.44, 0.0237260
2850.0, 0.0245150
2851.57, 0.0250410
2853.14, 0.0255670
2854.71, 0.0261460
2856.28, 0.0268300
2857.86, 0.0275140
2859.43, 0.0280920
2861.01, 0.0284080
2862.59, 0.0287760
2864.17, 0.0290920
2865.76, 0.0294600
2867.34, 0.0296710
2868.93, 0.0298810
2870.52, 0.0299860
2872.11, 0.0299860
2873.7, 0.0300920
2875.29, 0.0301970
2876.89, 0.0300920
2878.49, 0.0297760
2880.08, 0.0298280
2881.69, 0.0299860
2883.29, 0.0297760
2884.89, 0.0294600
2886.5, 0.0292500
2888.11, 0.0290390
2889.72, 0.0289340
2891.33, 0.0289870
2892.94, 0.0288290
2894.56, 0.0285130
2896.17, 0.0284080
2897.79, 0.0282500
2899.42, 0.0279350
2901.04, 0.0275660
2902.66, 0.0274610
2904.29, 0.0273030
2905.92, 0.0270930
2907.55, 0.0268300
2909.18, 0.0265670
2910.81, 0.0263560
2912.45, 0.0261990
2914.08, 0.0259880
2915.72, 0.0256720
2917.36, 0.0255150
2919.01, 0.0254620
2920.65, 0.0253040
2922.3, 0.0251460
2923.94, 0.0249890
2925.59, 0.0250410
2927.25, 0.0250410
2928.9, 0.0251460
2930.56, 0.0251990
2932.21, 0.0250410
2933.87, 0.0250410
2935.53, 0.0252520
2937.2, 0.0253570
2938.86, 0.0253570
2940.53, 0.0253570
2942.2, 0.0254090
2943.87, 0.0255670
2945.54, 0.0257250
2947.22, 0.0259360
2948.89, 0.0263560
2950.57, 0.0266190
2952.25, 0.0267250
2953.93, 0.0268820
2955.62, 0.0270930
2957.3, 0.0271980
2958.99, 0.0271450
2960.68, 0.0271980
2962.37, 0.0273030
2964.07, 0.0273030
2965.76, 0.0273030
2967.46, 0.0273030
2969.16, 0.0272510
2970.86, 0.0270400
2972.56, 0.0268820
2974.27, 0.0268820
2975.98, 0.0266720
2977.69, 0.0264620
2979.4, 0.0262510
2981.11, 0.0261460
2982.83, 0.0259360
2984.54, 0.0256200
2986.26, 0.0253570
2987.98, 0.0252520
2989.71, 0.0249890
2991.43, 0.0246200
2993.16, 0.0242520
2994.89, 0.0241470
2996.62, 0.0241990
2998.35, 0.0239890
3000.09, 0.0237790
3001.83, 0.0237260
3003.57, 0.0238840
3005.31, 0.0240420
3007.05, 0.0242520
3008.79, 0.0246200
3010.54, 0.0249890
3012.29, 0.0254620
3014.04, 0.0259360
3015.8, 0.0264090
3017.55, 0.0269880
3019.31, 0.0275140
3021.07, 0.0281450
3022.83, 0.0287240
3024.59, 0.0293550
3026.36, 0.0300390
3028.13, 0.0307230
3029.9, 0.0311960
3031.67, 0.0316700
3033.44, 0.0321960
3035.22, 0.0326690
3037.0, 0.0331430
3038.78, 0.0335110
3040.56, 0.0336160
3042.34, 0.0336160
3044.13, 0.0337210
3045.92, 0.0339320
3047.71, 0.0340370
3049.5, 0.0340900
3051.3, 0.0339320
3053.09, 0.0337210
3054.89, 0.0335110
3056.69, 0.0333010
3058.5, 0.0331430
3060.3, 0.0328800
3062.11, 0.0327220
3063.92, 0.0325640
3065.73, 0.0323010
3067.55, 0.0320380
3069.36, 0.0317220
3071.18, 0.0315120
3073.0, 0.0313540
3074.82, 0.0311440
3076.65, 0.0309330
3078.48, 0.0307230
3080.31, 0.0303550
3082.14, 0.0299340
3083.97, 0.0298810
3085.8, 0.0299340
3087.64, 0.0299860
3089.48, 0.0300390
3091.33, 0.0301970
3093.17, 0.0305120
3095.02, 0.0308810
3096.87, 0.0311440
3098.72, 0.0314590
3100.57, 0.0318800
3102.43, 0.0321960
3104.28, 0.0325110
3106.14, 0.0328270
3108.01, 0.0333010
3109.87, 0.0338790
3111.74, 0.0343000
3113.61, 0.0347210
3115.48, 0.0351420
3117.35, 0.0355630
3119.23, 0.0359840
3121.1, 0.0364570
3122.98, 0.0369830
3124.87, 0.0374040
3126.75, 0.0378250
3128.64, 0.0382980
3130.53, 0.0389300
3132.42, 0.0393500
3134.31, 0.0397190
3136.21, 0.0402970
3138.11, 0.0407710
3140.01, 0.0411390
3141.91, 0.0416130
3143.82, 0.0421390
3145.73, 0.0426650
3147.64, 0.0432430
3149.55, 0.0437170
3151.46, 0.0442960
3153.38, 0.0448740
3155.3, 0.0454530
3157.22, 0.0460320
3159.14, 0.0466630
3161.07, 0.0471890
3163.0, 0.0477680
3164.93, 0.0483990
3166.86, 0.0490830
3168.8, 0.0496620
3170.74, 0.0503450
3172.68, 0.0510290
3174.62, 0.0516610
3176.56, 0.0522920
3178.51, 0.0529230
3180.46, 0.0536070
3182.42, 0.0543960
3184.37, 0.0552380
3186.33, 0.0560270
3188.29, 0.0568160
3190.25, 0.0575530
3192.21, 0.0584470
3194.18, 0.0592360
3196.15, 0.0600250
3198.12, 0.0609720
3200.09, 0.0618140
3202.07, 0.0626560
3204.05, 0.0634450
3206.03, 0.0642340
3208.02, 0.0651280
3210.0, 0.0660220
3211.99, 0.0668120
3213.98, 0.0676010
3215.98, 0.0683900
3217.97, 0.0690740
3219.97, 0.0696520
3221.97, 0.0703360
3223.98, 0.0710200
3225.98, 0.0716510
3227.99, 0.0721780
3230.0, 0.0727560
3232.02, 0.0732300
3234.03, 0.0736510
3236.05, 0.0740190
3238.07, 0.0744400
3240.1, 0.0749660
3242.12, 0.0753870
3244.15, 0.0755970
3246.18, 0.0758070
3248.22, 0.0761760
3250.25, 0.0765970
3252.29, 0.0769650
3254.33, 0.0771750
3256.38, 0.0775440
3258.43, 0.0779120
3260.47, 0.0781750
3262.53, 0.0783330
3264.58, 0.0787530
3266.64, 0.0790690
3268.7, 0.0793320
3270.76, 0.0797530
3272.82, 0.0802790
3274.89, 0.0807530
3276.96, 0.0813310
3279.04, 0.0818570
3281.11, 0.0823310
3283.19, 0.0829620
3285.27, 0.0836460
3287.35, 0.0843300
3289.44, 0.0850140
3291.53, 0.0858030
3293.62, 0.0866970
3295.71, 0.0875920
3297.81, 0.0885910
3299.91, 0.0896960
3302.01, 0.0907480
3304.11, 0.0919050
3306.22, 0.0932210
3308.33, 0.0944310
3310.44, 0.0956400
3312.56, 0.0969030
3314.68, 0.0982180
3316.8, 0.0994810
3318.92, 0.100743
3321.05, 0.102059
3323.18, 0.103532
3325.31, 0.104952
3327.44, 0.106425
3329.58, 0.107898
3331.72, 0.109266
3333.86, 0.110686
3336.01, 0.111949
3338.16, 0.113264
3340.31, 0.114684
3342.46, 0.116000
3344.61, 0.117367
3346.77, 0.118840
3348.94, 0.120156
3351.1, 0.121366
3353.27, 0.122576
3355.44, 0.123943
3357.61, 0.125206
3359.79, 0.126469
3361.97, 0.127678
3364.15, 0.128941
3366.33, 0.130151
3368.52, 0.131414
3370.71, 0.132624
3372.9, 0.133834
3375.1, 0.135096
3377.3, 0.136411
3379.5, 0.137674
3381.71, 0.138884
3383.91, 0.140094
3386.12, 0.141356
3388.34, 0.142566
3390.55, 0.143776
3392.77, 0.145039
3394.99, 0.146407
3397.22, 0.147722
3399.45, 0.149090
3401.68, 0.150352
3403.91, 0.151562
3406.15, 0.152825
3408.39, 0.154035
3410.63, 0.155245
3412.87, 0.156507
3415.12, 0.157928
3417.37, 0.159348
3419.63, 0.160769
3421.88, 0.162031
3424.14, 0.163189
3426.41, 0.164399
3428.67, 0.165609
3430.94, 0.166818
3433.21, 0.168239
3435.49, 0.169501
3437.77, 0.170711
3440.05, 0.171974
3442.33, 0.173131
3444.62, 0.174236
3446.91, 0.175551
3449.2, 0.176761
3451.5, 0.177919
3453.8, 0.179076
3456.1, 0.180233
3458.41, 0.181391
3460.72, 0.182601
3463.03, 0.183811
3465.34, 0.184915
3467.66, 0.186020
3469.98, 0.187230
3472.31, 0.188440
3474.63, 0.189440
3476.96, 0.190597
3479.3, 0.191912
3481.64, 0.193122
3483.97, 0.194332
3486.32, 0.195437
3488.66, 0.196542
3491.01, 0.197699
3493.36, 0.198962
3495.72, 0.200172
3498.08, 0.201382
3500.44, 0.202539
3502.81, 0.203749
3505.18, 0.205117
3507.55, 0.206379
3509.92, 0.207484
3512.3, 0.208694
3514.68, 0.209957
3517.06, 0.211272
3519.45, 0.212692
3521.84, 0.213955
3524.24, 0.215112
3526.64, 0.216375
3529.04, 0.217795
3531.44, 0.219058
3533.85, 0.220163
3536.26, 0.221425
3538.67, 0.222793
3541.09, 0.224108
3543.51, 0.225213
3545.93, 0.226528
3548.36, 0.227791
3550.79, 0.228948
3553.22, 0.230158
3555.66, 0.231368
3558.1, 0.232525
3560.54, 0.233683
3562.99, 0.234893
3565.44, 0.236050
3567.9, 0.237207
3570.35, 0.238417
3572.81, 0.239522
3575.28, 0.240627
3577.75, 0.241784
3580.22, 0.242836
3582.69, 0.243783
3585.17, 0.244783
3587.65, 0.245782
3590.14, 0.246940
3592.62, 0.247939
3595.11, 0.248781
3597.61, 0.249623
3600.11, 0.250622
3602.61, 0.251464
3605.11, 0.252358
3607.62, 0.253147
3610.14, 0.253884
3612.65, 0.254673
3615.17, 0.255462
3617.69, 0.256304
3620.22, 0.257040
3622.75, 0.257724
3625.28, 0.258461
3627.82, 0.259302
3630.36, 0.259934
3632.9, 0.260618
3635.45, 0.261354
3638.0, 0.261986
3640.56, 0.262512
3643.12, 0.263143
3645.68, 0.263774
3648.24, 0.264353
3650.81, 0.265037
3653.39, 0.265773
3655.96, 0.266299
3658.54, 0.267036
3661.13, 0.267772
3663.71, 0.268404
3666.3, 0.268982
3668.9, 0.269719
3671.5, 0.270403
3674.1, 0.270981
3676.7, 0.271613
3679.31, 0.272244
3681.93, 0.272875
3684.54, 0.273507
3687.17, 0.274243
3689.79, 0.274927
3692.42, 0.275611
3695.05, 0.276400
3697.69, 0.277294
3700.32, 0.278136
3702.97, 0.278873
3705.61, 0.279662
3708.27, 0.280503
3710.92, 0.281187
3713.58, 0.281924
3716.24, 0.282713
3718.91, 0.283555
3721.58, 0.284291
3724.25, 0.285133
3726.93, 0.285869
3729.61, 0.286553
3732.29, 0.287290
3734.98, 0.288026
3737.67, 0.288815
3740.37, 0.289604
3743.07, 0.290236
3745.78, 0.290762
3748.49, 0.291341
3751.2, 0.292024
3753.91, 0.292708
3756.63, 0.293392
3759.36, 0.294076
3762.09, 0.294707
3764.82, 0.295286
3767.55, 0.295865
3770.29, 0.296391
3773.04, 0.296812
3775.78, 0.297180
3778.54, 0.297496
3781.29, 0.297811
3784.05, 0.298074
3786.82, 0.298337
3789.59, 0.298758
3792.36, 0.299126
3795.13, 0.299652
3797.92, 0.300284
3800.7, 0.300968
3803.49, 0.301704
3806.28, 0.302335
3809.08, 0.302967
3811.88, 0.303703
3814.68, 0.304335
3817.49, 0.304966
3820.31, 0.305597
3823.12, 0.305965
3825.94, 0.306281
3828.77, 0.306544
3831.6, 0.306702
3834.43, 0.306860
3837.27, 0.307175
3840.11, 0.307859
3842.96, 0.308596
3845.81, 0.309332
3848.67, 0.309911
3851.53, 0.310542
3854.39, 0.311068
3857.26, 0.311437
3860.13, 0.311910
3863.01, 0.312331
3865.89, 0.312910
3868.77, 0.313541
3871.66, 0.314277
3874.55, 0.315066
3877.45, 0.315803
3880.35, 0.316487
3883.26, 0.317066
3886.17, 0.317592
3889.09, 0.317960
3892.01, 0.318276
3894.93, 0.318591
3897.86, 0.318854
3900.79, 0.319065
3903.73, 0.319328
3906.67, 0.319486
3909.62, 0.319591
3912.57, 0.319696
3915.52, 0.319749
3918.48, 0.319801
3921.45, 0.319801
3924.42, 0.319749
3927.39, 0.319749
3930.37, 0.319643
3933.35, 0.319380
3936.34, 0.319223
3939.33, 0.319012
3942.32, 0.318644
3945.32, 0.318381
3948.33, 0.317960
3951.34, 0.317539
3954.35, 0.317118
3957.37, 0.316697
3960.39, 0.316224
3963.42, 0.316013
3966.45, 0.315856
3969.49, 0.315750
3972.53, 0.315593
3975.58, 0.315540
3978.63, 0.315540
3981.68, 0.315382
3984.75, 0.315119
3987.81, 0.314909
3990.88, 0.314593
3993.95, 0.314172
3997.03, 0.313751
4000.12, 0.313330
4003.21, 0.312962
4006.3, 0.312594
4009.4, 0.312015
4012.5, 0.311384
4015.61, 0.310805
4018.72, 0.310227
4021.84, 0.309595
4024.96, 0.308911
4028.09, 0.308070
4031.22, 0.307333
4034.36, 0.306597
4037.5, 0.305860
4040.65, 0.305071
4043.8, 0.304335
4046.96, 0.303651
4050.12, 0.303019
4053.29, 0.302441
4056.46, 0.301862
4059.64, 0.301283
4062.82, 0.300705
4066.0, 0.300126
4069.19, 0.299442
4072.39, 0.298600
4075.59, 0.297706
4078.8, 0.296706
4082.01, 0.295707
4085.23, 0.294497
4088.45, 0.293340
4091.68, 0.292130
4094.91, 0.290814
4098.15, 0.289499
4101.39, 0.288079
4104.63, 0.286711
4107.89, 0.285396
4111.14, 0.283923
4114.41, 0.282345
4117.67, 0.280872
4120.95, 0.279451
4124.23, 0.278083
4127.51, 0.276768
4130.8, 0.275558
4134.09, 0.274453
4137.39, 0.273243
4140.7, 0.272034
4144.01, 0.270718
4147.32, 0.269403
4150.64, 0.268035
4153.97, 0.266562
4157.3, 0.265037
4160.64, 0.263722
4163.98, 0.262406
4167.33, 0.261039
4170.68, 0.259618
4174.04, 0.258408
4177.4, 0.257251
4180.77, 0.256199
4184.14, 0.255094
4187.52, 0.253884
4190.91, 0.252621
4194.3, 0.251306
4197.69, 0.249991
4201.1, 0.248518
4204.5, 0.246887
4207.92, 0.245204
4211.34, 0.243415
4214.76, 0.241574
4218.19, 0.239680
4221.62, 0.237733
4225.06, 0.235734
4228.51, 0.233840
4231.96, 0.232157
4235.42, 0.230684
4238.88, 0.229211
4242.35, 0.227791
4245.83, 0.226265
4249.31, 0.224897
4252.79, 0.223687
4256.28, 0.222162
4259.78, 0.220163
4263.29, 0.217900
4266.79, 0.215638
4270.31, 0.213481
4273.83, 0.211535
4277.35, 0.209694
4280.89, 0.207800
4284.42, 0.205853
4287.97, 0.204012
4291.52, 0.202276
4295.07, 0.200487
4298.63, 0.198751
4302.2, 0.197120
4305.78, 0.195542
4309.35, 0.193964
4312.94, 0.192438
4316.53, 0.190860
4320.13, 0.189229
4323.73, 0.187546
4327.34, 0.185810
4330.96, 0.183863
4334.58, 0.181812
4338.21, 0.179865
4341.84, 0.177919
4345.48, 0.175814
4349.12, 0.173763
4352.77, 0.171711
4356.43, 0.169712
4360.1, 0.167818
4363.76, 0.166135
4367.44, 0.164504
4371.12, 0.162978
4374.81, 0.161716
4378.51, 0.160611
4382.21, 0.159716
4385.92, 0.158980
4389.63, 0.158401
4393.35, 0.157823
4397.08, 0.157349
4400.81, 0.157033
4404.55, 0.156823
4408.29, 0.156718
4412.04, 0.156613
4415.8, 0.156560
4419.57, 0.156613
4423.34, 0.156876
4427.12, 0.157244
4430.9, 0.157560
4434.69, 0.157823
4438.49, 0.158138
4442.29, 0.158559
4446.1, 0.159033
4449.92, 0.159506
4453.74, 0.159822
4457.57, 0.160190
4461.41, 0.160506
4465.25, 0.160769
4469.1, 0.161084
4472.95, 0.161189
4476.82, 0.161295
4480.69, 0.161400
4484.56, 0.161295
4488.44, 0.161137
4492.33, 0.160874
4496.23, 0.160506
4500.13, 0.160085
4504.04, 0.159611
4507.96, 0.159190
4511.88, 0.158612
4515.81, 0.158033
4519.75, 0.157454
4523.69, 0.157033
4527.65, 0.156507
4531.6, 0.155823
4535.57, 0.155245
4539.54, 0.154824
4543.52, 0.154298
4547.5, 0.153719
4551.5, 0.153088
4555.5, 0.152614
4559.5, 0.152088
4563.52, 0.151562
4567.54, 0.150931
4571.56, 0.150194
4575.6, 0.149458
4579.64, 0.148669
4583.69, 0.147775
4587.75, 0.146722
4591.81, 0.145618
4595.88, 0.144355
4599.96, 0.142882
4604.04, 0.141462
4608.14, 0.139883
4612.24, 0.138042
4616.34, 0.136096
4620.46, 0.134097
4624.58, 0.132150
4628.71, 0.130151
4632.84, 0.128047
4636.99, 0.125942
4641.14, 0.123996
4645.3, 0.122207
4649.47, 0.120629
4653.64, 0.119261
4657.82, 0.118051
4662.01, 0.117157
4666.21, 0.116578
4670.41, 0.116263
4674.62, 0.116315
4678.84, 0.116631
4683.07, 0.117367
4687.3, 0.118367
4691.54, 0.119577
4695.79, 0.120997
4700.05, 0.122523
4704.31, 0.124259
4708.59, 0.126258
4712.87, 0.128257
4717.15, 0.130204
4721.45, 0.132203
4725.76, 0.134254
4730.07, 0.136254
4734.39, 0.138253
4738.72, 0.140304
4743.05, 0.142251
4747.39, 0.144145
4751.75, 0.146039
4756.1, 0.147827
4760.47, 0.149563
4764.85, 0.151141
4769.23, 0.152614
4773.62, 0.154035
4778.02, 0.155297
4782.43, 0.156507
4786.85, 0.157560
4791.27, 0.158559
4795.7, 0.159453
4800.14, 0.160295
4804.59, 0.161084
4809.05, 0.161768
4813.51, 0.162452
4817.99, 0.163083
4822.47, 0.163767
4826.96, 0.164399
4831.46, 0.164925
4835.96, 0.165398
4840.48, 0.165819
4845.0, 0.166345
4849.54, 0.166924
4854.08, 0.167502
4858.63, 0.168134
4863.18, 0.168818
4867.75, 0.169607
4872.33, 0.170501
4876.91, 0.171343
4881.5, 0.172184
4886.1, 0.173079
4890.71, 0.173920
4895.33, 0.174815
4899.96, 0.175920
4904.59, 0.177024
4909.24, 0.177971
4913.89, 0.178866
4918.55, 0.179760
4923.22, 0.180549
4927.9, 0.181286
4932.59, 0.181969
4937.29, 0.182548
4942.0, 0.182969
4946.71, 0.183232
4951.44, 0.183232
4956.17, 0.183022
4960.91, 0.182969
4965.67, 0.182864
4970.43, 0.182653
4975.2, 0.182496
4979.98, 0.182443
4984.76, 0.182496
4989.56, 0.182496
4994.37, 0.182496
4999.18, 0.182285
5004.01, 0.181969
5008.84, 0.181654
5013.69, 0.181180
5018.54, 0.180496
5023.4, 0.180128
5028.28, 0.179813
5033.16, 0.179497
5038.05, 0.179392
5042.95, 0.179392
5047.86, 0.179760
5052.78, 0.180391
5057.71, 0.181128
5062.65, 0.181864
5067.6, 0.182653
5072.56, 0.183442
5077.53, 0.183969
5082.5, 0.184495
5087.49, 0.185389
5092.49, 0.186231
5097.5, 0.186915
5102.51, 0.187493
5107.54, 0.188072
5112.58, 0.188545
5117.62, 0.189071
5122.68, 0.189650
5127.75, 0.190176
5132.82, 0.190808
5137.91, 0.191334
5143.01, 0.191386
5148.12, 0.191334
5153.23, 0.191965
5158.36, 0.192175
5163.5, 0.192070
5168.65, 0.191807
5173.81, 0.191754
5178.98, 0.191649
5184.15, 0.191649
5189.34, 0.191597
5194.54, 0.191439
5199.75, 0.191176
5204.98, 0.191544
5210.21, 0.191228
5215.45, 0.191597
5220.7, 0.192807
5225.96, 0.193280
5231.23, 0.193333
5236.52, 0.193070
5241.81, 0.192859
5247.12, 0.192438
5252.44, 0.191597
5257.76, 0.190650
5263.1, 0.189598
5268.45, 0.188545
5273.81, 0.187283
5279.18, 0.186231
5284.56, 0.185126
5289.95, 0.183390
5295.36, 0.182338
5300.77, 0.181496
5306.2, 0.180076
5311.63, 0.178655
5317.08, 0.177077
5322.54, 0.175446
5328.01, 0.173763
5333.49, 0.172237
5338.98, 0.170554
5344.49, 0.168134
5350.0, 0.165714
5355.53, 0.164872
5361.07, 0.164135
5366.62, 0.162820
5372.18, 0.161137
5377.75, 0.159716
5383.34, 0.158559
5388.93, 0.157665
5394.54, 0.156823
5400.16, 0.156192
5405.79, 0.155455
5411.44, 0.154561
5417.09, 0.152457
5422.76, 0.150773
5428.43, 0.151562
5434.12, 0.151404
5439.83, 0.150089
5445.54, 0.148669
5451.26, 0.147354
5457.0, 0.145355
5462.75, 0.142724
5468.52, 0.141409
5474.29, 0.140041
5480.08, 0.138410
5485.88, 0.137779
5491.69, 0.136622
5497.51, 0.135254
5503.35, 0.133991
5509.2, 0.133044
5515.06, 0.131887
5520.93, 0.130572
5526.82, 0.129783
5532.71, 0.129309
5538.63, 0.128573
5544.55, 0.127678
5550.49, 0.126521
5556.44, 0.125995
5562.4, 0.125942
5568.37, 0.125469
5574.36, 0.123680
5580.36, 0.122576
5586.37, 0.123470
5592.4, 0.123786
5598.44, 0.122996
5604.49, 0.122155
5610.56, 0.121576
5616.63, 0.120734
5622.73, 0.120366
5628.83, 0.119314
5634.95, 0.117210
5641.08, 0.114632
5647.23, 0.114474
5653.39, 0.113948
5659.56, 0.113106
5665.74, 0.112212
5671.94, 0.109687
5678.15, 0.107951
5684.38, 0.106951
5690.62, 0.105005
5696.87, 0.103795
5703.14, 0.102006
5709.42, 0.0993760
5715.72, 0.0983230
5722.03, 0.0977970
5728.35, 0.0970610
5734.69, 0.0959560
5741.03, 0.0946410
5747.4, 0.0930630
5753.78, 0.0925890
5760.17, 0.0902750
5766.58, 0.0874340
5773.0, 0.0883280
5779.44, 0.0886440
5785.88, 0.0880650
5792.35, 0.0871710
5798.83, 0.0860130
5805.32, 0.0850140
5811.83, 0.0833830
5818.35, 0.0803840
5824.89, 0.0791220
5831.45, 0.0793850
5838.01, 0.0792800
5844.59, 0.0785960
5851.19, 0.0771750
5857.8, 0.0752810
5864.43, 0.0735450
5871.07, 0.0720200
5877.73, 0.0681790
5884.4, 0.0662850
5891.09, 0.0653390
5897.79, 0.0630760
5904.5, 0.0624450
5911.23, 0.0607090
5917.98, 0.0581310
5924.75, 0.0553430
5931.53, 0.0514500
5938.32, 0.0480310
5945.13, 0.0466100
5951.96, 0.0442430
5958.8, 0.0414020
5965.65, 0.0379830
5972.53, 0.0353520
5979.42, 0.0336160
5986.32, 0.0320380
5993.24, 0.0314590
6000.18, 0.0316170
6007.13, 0.0310910
6014.1, 0.0303550
6021.08, 0.0300920
6028.09, 0.0298810
6035.1, 0.0291970
6042.14, 0.0275140
6049.19, 0.0259360
6056.25, 0.0267250
6063.34, 0.0276190
6070.44, 0.0281450
6077.55, 0.0294600
6084.69, 0.0311960
6091.84, 0.0324060
6099.0, 0.0332480
6106.19, 0.0335110
6113.39, 0.0338270
6120.61, 0.0355100
6127.84, 0.0372460
6135.09, 0.0384560
6142.36, 0.0398240
6149.65, 0.0412970
6156.95, 0.0425070
6164.27, 0.0441900
6171.61, 0.0457690
6178.97, 0.0460840
6186.34, 0.0465050
6193.73, 0.0479780
6201.14, 0.0486090
6208.57, 0.0484520
6216.01, 0.0480310
6223.47, 0.0475050
6230.95, 0.0467680
6238.45, 0.0459260
6245.97, 0.0450320
6253.5, 0.0441380
6261.06, 0.0432960
6268.63, 0.0428230
6276.21, 0.0425590
6283.82, 0.0426650
6291.45, 0.0430330
6299.1, 0.0438750
6306.76, 0.0448740
6314.44, 0.0461370
6322.14, 0.0476620
6329.86, 0.0492930
6337.6, 0.0500300
6345.35, 0.0512400
6353.13, 0.0540810
6360.92, 0.0559220
6368.74, 0.0567640
6376.57, 0.0587100
6384.43, 0.0605510
6392.3, 0.0619190
6400.19, 0.0625500
6408.1, 0.0610770
6416.03, 0.0611300
6423.98, 0.0643390
6431.95, 0.0662850
6439.94, 0.0677580
6447.95, 0.0686530
6455.98, 0.0694420
6464.03, 0.0699150
6472.1, 0.0696000
6480.19, 0.0690740
6488.31, 0.0680220
6496.44, 0.0686530
6504.59, 0.0714940
6512.76, 0.0723880
6520.95, 0.0720200
6529.16, 0.0731770
6537.4, 0.0738080
6545.65, 0.0735980
6553.92, 0.0733880
6562.22, 0.0732820
6570.54, 0.0722300
6578.88, 0.0729670
6587.23, 0.0738080
6595.61, 0.0741240
6604.02, 0.0747550
6612.44, 0.0747030
6620.89, 0.0742820
6629.35, 0.0722300
6637.84, 0.0708100
6646.35, 0.0728610
6654.88, 0.0742820
6663.44, 0.0735980
6672.01, 0.0724410
6680.61, 0.0715990
6689.23, 0.0721250
6697.88, 0.0723350
6706.54, 0.0711780
6715.23, 0.0707050
6723.94, 0.0709680
6732.67, 0.0712830
6741.42, 0.0711780
6750.2, 0.0708100
6759.0, 0.0705470
6767.82, 0.0698630
6776.67, 0.0688630
6785.54, 0.0676530
6794.44, 0.0675480
6803.35, 0.0683900
6812.29, 0.0682850
6821.26, 0.0671800
6830.24, 0.0667590
6839.25, 0.0668640
6848.29, 0.0658120
6857.35, 0.0636020
6866.43, 0.0629190
6875.54, 0.0642340
6884.67, 0.0643920
6893.82, 0.0639180
6903.0, 0.0631290
6912.2, 0.0628130
6921.43, 0.0626030
6930.69, 0.0621290
6939.96, 0.0616030
6949.27, 0.0606040
6958.59, 0.0591310
6967.95, 0.0591830
6977.33, 0.0593940
6986.73, 0.0588150
6996.16, 0.0583420
7005.61, 0.0581310
7015.09, 0.0575530
7024.6, 0.0569210
7034.13, 0.0561320
7043.69, 0.0547640
7053.27, 0.0546070
7062.88, 0.0547640
7072.52, 0.0543440
7082.18, 0.0537120
7091.87, 0.0530810
7101.58, 0.0525550
7111.32, 0.0519240
7121.09, 0.0514500
7130.88, 0.0510290
7140.71, 0.0502400
7150.56, 0.0496090
7160.43, 0.0490830
7170.33, 0.0484520
7180.27, 0.0483460
7190.23, 0.0479780
7200.21, 0.0471360
7210.23, 0.0465580
7220.27, 0.0464520
7230.34, 0.0458740
7240.44, 0.0452420
7250.56, 0.0446640
7260.72, 0.0440850
7270.9, 0.0432960
7281.12, 0.0426650
7291.36, 0.0423490
7301.63, 0.0418230
7311.93, 0.0411920
7322.25, 0.0405080
7332.61, 0.0397710
7343.0, 0.0392450
7353.41, 0.0387720
7363.86, 0.0383510
7374.33, 0.0378250
7384.83, 0.0372460
7395.37, 0.0366670
7405.93, 0.0361410
7416.53, 0.0356150
7427.15, 0.0351420
7437.81, 0.0346160
7448.5, 0.0339840
7459.22, 0.0331950
7469.96, 0.0325640
7480.74, 0.0320910
7491.55, 0.0315650
7502.39, 0.0309330
7513.27, 0.0303550
7524.17, 0.0297230
7535.11, 0.0290390
7546.08, 0.0284080
7557.08, 0.0278290
7568.11, 0.0271450
7579.17, 0.0265140
7590.27, 0.0259360
7601.4, 0.0252520
7612.56, 0.0246200
7623.76, 0.0239890
7634.98, 0.0234100
7646.24, 0.0227790
7657.54, 0.0221480
7668.87, 0.0214640
7680.23, 0.0209380
7691.62, 0.0204120
7703.05, 0.0198330
7714.51, 0.0192540
7726.01, 0.0186230
7737.54, 0.0179920
7749.11, 0.0174660
7760.71, 0.0169920
7772.35, 0.0164140
7784.02, 0.0159400
7795.72, 0.0154140
7807.46, 0.0148350
7819.23, 0.0143090
7831.04, 0.0137830
7842.89, 0.0132040
7854.77, 0.0127310
7866.69, 0.0123100
7878.65, 0.0118890
7890.64, 0.0114160
7902.67, 0.0109420
7914.74, 0.0104690
7926.84, 0.0100480
7938.98, 0.00962700
7951.16, 0.00910100
7963.37, 0.00862800
7975.62, 0.00820700
7987.91, 0.00778600
8000.24, 0.00736500
8012.6, 0.00704900
8025.01, 0.00673400
8037.45, 0.00626000
8049.93, 0.00589200
8062.45, 0.00552400
8075.01, 0.00520800
8087.61, 0.00484000
8100.24, 0.00452400
8112.91, 0.00431400
8125.63, 0.00410300
8138.39, 0.00389300
8151.18, 0.00357700
8164.02, 0.00336700
8176.9, 0.00320900
8189.81, 0.00305100
8202.77, 0.00284100
8215.77, 0.00263000
8228.82, 0.00252500
8241.9, 0.00247300
8255.02, 0.00242000
8268.19, 0.00226200
8281.39, 0.00221000
8294.65, 0.00210400
8307.94, 0.00215700
8321.28, 0.00215700
8334.66, 0.00221000
8348.08, 0.00226200
8361.54, 0.00242000
8375.05, 0.00252500
8388.6, 0.00257800
8402.2, 0.00278800
8415.84, 0.00310400
8429.52, 0.00341900
8443.25, 0.00389300
8457.02, 0.00436600
8470.84, 0.00489300
8484.7, 0.00531300
8498.61, 0.00594500
8512.57, 0.00699700
8526.57, 0.00810200
8540.62, 0.00920600
8554.71, 0.0106270
8568.85, 0.0121520
8583.04, 0.0139940
8597.27, 0.0162030
8611.55, 0.0186230
8625.88, 0.0213590
8640.26, 0.0246200
8654.68, 0.0281450
8669.16, 0.0318280
8683.68, 0.0359840
8698.25, 0.0407180
8712.87, 0.0457160
8727.53, 0.0508190
8742.25, 0.0561850
8757.02, 0.0616560
8771.83, 0.0670750
8786.7, 0.0724930
8801.62, 0.0778070
8816.59, 0.0828040
8831.61, 0.0874340
8846.68, 0.0915900
8861.8, 0.0950090
8876.97, 0.0976400
8892.2, 0.0994810
8907.48, 0.100375
8922.81, 0.100270
8938.2, 0.0992180
8953.63, 0.0975870
8969.13, 0.0955350
8984.67, 0.0930630
9000.27, 0.0901690
9015.92, 0.0871180
9031.63, 0.0841190
9047.39, 0.0812260
9063.21, 0.0785430
9079.08, 0.0763340
9095.01, 0.0743870
9111.0, 0.0728090
9127.04, 0.0716510
9143.13, 0.0711250
9159.28, 0.0713360
9175.49, 0.0720720
9191.76, 0.0729140
9208.09, 0.0741240
9224.47, 0.0756500
9240.92, 0.0773330
9257.42, 0.0788590
9273.98, 0.0800690
9290.6, 0.0806470
9307.28, 0.0807530
9324.02, 0.0807530
9340.82, 0.0810160
9357.68, 0.0817520
9374.6, 0.0826990
9391.58, 0.0837510
9408.62, 0.0849090
9425.73, 0.0859610
9442.9, 0.0866450
9460.13, 0.0870130
9477.42, 0.0875390
9494.78, 0.0881700
9512.2, 0.0886960
9529.69, 0.0889590
9547.24, 0.0884860
9564.86, 0.0869600
9582.54, 0.0850660
9600.28, 0.0834880
9618.1, 0.0826990
9635.97, 0.0831200
9653.92, 0.0841190
9671.93, 0.0845400
9690.01, 0.0843820
9708.16, 0.0848560
9726.37, 0.0874340
9744.65, 0.0929050
9763.0, 0.100428
9781.43, 0.108161
9799.92, 0.114158
9818.48, 0.117262
9837.1, 0.117578
9855.8, 0.115474
9874.58, 0.111265
9893.42, 0.106057
9912.34, 0.100638
9931.33, 0.0956930
9950.39, 0.0918530
9969.52, 0.0899060
9988.74, 0.0904320
10008.0, 0.0928520
10027.4, 0.0966930
10046.8, 0.102795
10066.3, 0.110949
10085.9, 0.118683
10105.6, 0.123154
10125.3, 0.122944
10145.1, 0.118420
10165.0, 0.111265
10185.0, 0.103269
10205.0, 0.0954300
10225.2, 0.0883810
10245.4, 0.0831730
10265.7, 0.0804370
10286.0, 0.0809630
10306.5, 0.0848030
10327.0, 0.0904850
10347.6, 0.0957980
10368.3, 0.0991650
10389.1, 0.100165
10409.9, 0.0995330
10430.9, 0.0981660
10451.9, 0.0965350
10473.0, 0.0945880
10494.2, 0.0920110
10515.5, 0.0888540
10536.9, 0.0852770
10558.4, 0.0814360
10579.9, 0.0777540
10601.5, 0.0748610
10623.3, 0.0734400
10645.1, 0.0743870
10667.0, 0.0776490
10689.0, 0.0813840
10711.1, 0.0840670
10733.2, 0.0851720
10755.5, 0.0850660
10777.9, 0.0841720
10800.3, 0.0830150
10822.9, 0.0823310
10845.5, 0.0821200
10868.2, 0.0822780
10891.1, 0.0826460
10914.0, 0.0831730
10937.0, 0.0836460
10960.2, 0.0842770
10983.4, 0.0848560
11006.7, 0.0853820
11030.1, 0.0859610
11053.6, 0.0864340
11077.3, 0.0868020
11101.0, 0.0871710
11124.8, 0.0875920
11148.7, 0.0880120
11172.7, 0.0883280
11196.9, 0.0885380
11221.1, 0.0886960
11245.4, 0.0886440
11269.9, 0.0886440
11294.4, 0.0885380
11319.1, 0.0882230
11343.9, 0.0881180
11368.8, 0.0882230
11393.7, 0.0883810
11418.8, 0.0886960
11444.0, 0.0888540
11469.4, 0.0889590
11494.8, 0.0891170
11520.3, 0.0891700
11546.0, 0.0891700
11571.8, 0.0892220
11597.7, 0.0894850
11623.7, 0.0896430
11649.8, 0.0895910
11676.0, 0.0895380
11702.4, 0.0895910
11728.9, 0.0894850
11755.5, 0.0893800
11782.2, 0.0891700
11809.0, 0.0887490
11836.0, 0.0883810
11863.0, 0.0881180
11890.3, 0.0876970
11917.6, 0.0871180
11945.0, 0.0865390
11972.6, 0.0860130
12000.4, 0.0854350
12028.2, 0.0847510
12056.2, 0.0840670
12084.3, 0.0831730
12112.5, 0.0823310
12140.9, 0.0813840
12169.4, 0.0806470
12198.0, 0.0798580
12226.8, 0.0789110
12255.7, 0.0780170
12284.7, 0.0770170
12313.9, 0.0758600
12343.2, 0.0745970
12372.7, 0.0732300
12402.3, 0.0718090
12432.0, 0.0702310
12461.9, 0.0686000
12491.9, 0.0670750
12522.1, 0.0656540
12552.4, 0.0643920
12582.9, 0.0629190
12613.5, 0.0612350
12644.3, 0.0596040
12675.2, 0.0578680
12706.3, 0.0560270
12737.5, 0.0541860
12768.9, 0.0523440
12800.4, 0.0508190
12832.1, 0.0492930
12863.9, 0.0475570
12895.9, 0.0459260
12928.1, 0.0443480
12960.4, 0.0425070
12992.9, 0.0405080
13025.5, 0.0388240
13058.3, 0.0372460
13091.3, 0.0356150
13124.4, 0.0339320
13157.8, 0.0323010
13191.2, 0.0306700
13224.9, 0.0290390
13258.7, 0.0274610
13292.7, 0.0256720
13326.9, 0.0237790
13361.2, 0.0220950
13395.7, 0.0202010
13430.4, 0.0185700
13465.3, 0.0174660
13500.4, 0.0167290
13535.7, 0.0168870
13571.1, 0.0180970
13606.7, 0.0202540
13642.5, 0.0226740
13678.5, 0.0250410
13714.7, 0.0276190
13751.1, 0.0301440
13787.6, 0.0326170
13824.4, 0.0344580
13861.4, 0.0354050
13898.5, 0.0357210
13935.9, 0.0354570
13973.5, 0.0346680
14011.2, 0.0333530
14049.2, 0.0315120
14087.4, 0.0298810
14125.8, 0.0288820
14164.3, 0.0287240
14203.2, 0.0290920
14242.2, 0.0298810
14281.4, 0.0310380
14320.9, 0.0321960
14360.5, 0.0336690
14400.4, 0.0352470
14440.5, 0.0360890
14480.9, 0.0361940
14521.4, 0.0355630
14562.2, 0.0345110
14603.3, 0.0333530
14644.5, 0.0320910
14686.0, 0.0310910
14727.7, 0.0306700
14769.7, 0.0307750
14811.9, 0.0312490
14854.3, 0.0317220
14897.0, 0.0321960
14939.9, 0.0326690
14983.1, 0.0328270
15026.5, 0.0330900
15070.2, 0.0334580
15114.2, 0.0336160
15158.3, 0.0337210
15202.8, 0.0343530
15247.5, 0.0350370
15292.5, 0.0358780
15337.7, 0.0372460
15383.2, 0.0388240
15429.0, 0.0405080
15475.1, 0.0421390
15521.4, 0.0434010
15568.0, 0.0440850
15614.9, 0.0444010
15662.1, 0.0447160
15709.6, 0.0446110
15757.3, 0.0446640
15805.4, 0.0452420
15853.7, 0.0459260
15902.3, 0.0461890
15951.2, 0.0460840
16000.5, 0.0459260
16050.0, 0.0452950
16099.8, 0.0445060
16150.0, 0.0439270
16200.5, 0.0431380
16251.3, 0.0418230
16302.4, 0.0406130
16353.8, 0.0398240
16405.5, 0.0395080
16457.6, 0.0396130
16510.0, 0.0399820
16562.8, 0.0407180
16615.9, 0.0408230
16669.3, 0.0407180
16723.1, 0.0408230
16777.2, 0.0400340
16831.7, 0.0388770
16886.5, 0.0381930
16941.7, 0.0373510
16997.2, 0.0368780
17053.1, 0.0365620
17109.4, 0.0360890
17166.1, 0.0357730
17223.1, 0.0356150
17280.5, 0.0358260
17338.3, 0.0361410
17396.5, 0.0361410
17455.1, 0.0359840
17514.0, 0.0358780
17573.4, 0.0357730
17633.2, 0.0354050
17693.4, 0.0349840
17754.0, 0.0348790
17815.0, 0.0344580
17876.4, 0.0337740
17938.3, 0.0339840
18000.5, 0.0340900
18063.3, 0.0334580
18126.4, 0.0331430
18190.0, 0.0331430
18254.1, 0.0335110
18318.6, 0.0340370
18383.5, 0.0341950
18449.0, 0.0339320
18514.9, 0.0338270
18581.2, 0.0340900
18648.0, 0.0341420
18715.4, 0.0340900
18783.2, 0.0334060
18851.5, 0.0327740
18920.3, 0.0334060
18989.6, 0.0337210
19059.4, 0.0337210
19129.7, 0.0340370
19200.6, 0.0347210
19272.0, 0.0355630
19343.9, 0.0374570
19416.3, 0.0390870
19489.3, 0.0405080
19562.8, 0.0426120
19637.0, 0.0440330
19711.6, 0.0451900
19786.8, 0.0474520
19862.6, 0.0497670
19939.0, 0.0511870
20016.0, 0.0521870
20093.6, 0.0538700
20171.8, 0.0556590
20250.6, 0.0561850
20330.0, 0.0562900
20410.0, 0.0558170
20490.7, 0.0544490
20572.0, 0.0530280
20654.0, 0.0513980
20736.6, 0.0482940
20819.9, 0.0461370
20903.8, 0.0458210
20988.5, 0.0445060
21073.8, 0.0419280
21159.8, 0.0404550
21246.5, 0.0396130
21334.0, 0.0390870
21422.1, 0.0385610
21511.0, 0.0382460
21600.7, 0.0393500
21691.0, 0.0416130
21782.1, 0.0453480
21874.0, 0.0507140
21966.7, 0.0575530
22060.2, 0.0650760
22154.5, 0.0733880
22249.6, 0.0812790
22345.5, 0.0872760
22442.2, 0.0908530
22539.8, 0.0926420
22638.2, 0.0919580
22737.5, 0.0906950
22837.7, 0.0911160
22938.7, 0.0925890
23040.7, 0.0952720
23143.5, 0.0981130
23247.3, 0.101059
23352.1, 0.103479
23457.7, 0.104373
23564.4, 0.102059
23672.0, 0.101723
23780.5, 0.100660
23890.1, 0.0973050
24000.7, 0.0931670
24112.3, 0.0903710
24225.0, 0.0887490
24338.7, 0.0842190
24453.5, 0.0798570
24569.4, 0.0777320
24686.4, 0.0763340
24804.5, 0.0742090
24923.8, 0.0732020
25044.2, 0.0723640
25165.8, 0.0713570
25288.6, 0.0714130
25412.5, 0.0710210
25537.7, 0.0693440
25664.1, 0.0682250
25791.8, 0.0678340
25920.8, 0.0668270
26051.1, 0.0654850
26182.6, 0.0636400
26315.5, 0.0617940
26449.8, 0.0617380
26585.4, 0.0619620
26722.5, 0.0617380
26860.9, 0.0622980
27000.8, 0.0635840
27142.1, 0.0653170
27285.0, 0.0678340
27429.4, 0.0698470
27575.3, 0.0719160
27722.7, 0.0732580
27871.8, 0.0732580
28022.4, 0.0723640
28174.7, 0.0713010
28328.7, 0.0704060
28484.4, 0.0701830
28641.7, 0.0718600
28800.9, 0.0755510
28961.8, 0.0787950
29124.5, 0.0795780
29289.0, 0.0790740
29455.4, 0.0781800
29623.8, 0.0773970
29794.0, 0.0765580
29966.3, 0.0771730
30140.5, 0.0789620
30316.7, 0.0820940
30495.1, 0.0855610
30675.5, 0.0886930
30858.1, 0.0902030
31042.8, 0.0915450
31229.8, 0.0933900
31419.1, 0.0953480
31610.7, 0.0976960
31804.6, 0.0999330
32000.9, 0.100045
32199.7, 0.101275
32400.9, 0.101499
32604.8, 0.0998770
32811.1, 0.0981440
33020.1, 0.0957390
33231.8, 0.0933340
33446.2, 0.0910980
33663.4, 0.0895320
33883.4, 0.0883010
34106.3, 0.0864000
34332.1, 0.0840510
34561.0, 0.0832130
34792.9, 0.0833240
35028.0, 0.0842750
35266.3, 0.0855050
35507.8, 0.0853380
35752.7, 0.0855050
36001.0, 0.0878540
36252.8, 0.0920480
36508.1, 0.0959630
36767.0, 0.0983120
37029.7, 0.0986470
37296.1, 0.0998770
37566.3, 0.0997660
37840.5, 0.0988710
38118.8, 0.0979760
38401.2, 0.0971370
38687.8, 0.0980320
38978.6, 0.0980320
39273.9, 0.0979760
39573.7, 0.0982000
39878.1, 0.0963540
40187.3, 0.0936700
40501.2, 0.0912650
40820.0, 0.0892520
41144.0, 0.0891400
41473.2, 0.0907060
41807.6, 0.0929990
42147.5, 0.0928870
42493.0, 0.0931670
42844.2, 0.0950680
43201.2, 0.0952920
43564.3, 0.0928870
43933.5, 0.0897000
44309.0, 0.0868470
44691.0, 0.0825410
45079.6, 0.0784590
45475.0, 0.0763340
45877.5, 0.0753830
46287.1, 0.0730910
46704.2, 0.0710770
47128.7, 0.0690080
47561.1, 0.0652060
48001.5, 0.0619060
48450.1, 0.0646460
48907.2, 0.0666600
49373.0, 0.0681690
49847.7, 0.0702940
50331.5, 0.0702390
50825.0, 0.0708540
51328.2, 0.0712450
51841.5, 0.0699590
52365.1, 0.0675540
52899.4, 0.0630250
53444.8, 0.0606200
54001.5, 0.0636400
54570.1, 0.0688400
55150.6, 0.0731470
55743.6, 0.0778440
56349.5, 0.0811430
56968.7, 0.0806960
57601.7, 0.0770050
58248.9, 0.0733140
58910.9, 0.0714130
59588.1, 0.0696230
60281.0, 0.0691760
60990.2, 0.0695670
61716.3, 0.0700150
62459.8, 0.0695120
63221.6, 0.0701270
64002.1, 0.0710210
64802.1, 0.0691200
65622.1, 0.0674980
66463.4, 0.0667710
67326.6, 0.0649820
68212.4, 0.0654290
69121.9, 0.0668830
70056.0, 0.0690080
71015.7, 0.0701270
72002.0, 0.0680580
73016.3, 0.0653170
74059.4, 0.0693440
75132.7, 0.0718040
76237.6, 0.0703500
77375.5, 0.0695120
78547.9, 0.0696790
79756.3, 0.0738730
81002.5, 0.0785710
82288.5, 0.0813110
83615.7, 0.0804160
84986.5, 0.0777880
86402.9, 0.0749920
87867.4, 0.0772850
89382.4, 0.0800810
90950.5, 0.0794100
92574.6, 0.0804720
94257.2, 0.0886370
96002.7, 0.0995980
97814.1, 0.102729
99695.1, 0.0987590
101650.0, 0.0946210
103683.0, 0.0969690
105799.0, 0.0966340
108003.0, 0.0981440
110301.0, 0.103624
112699.0, 0.106532
115204.0, 0.112404
117822.0, 0.114921
120562.0, 0.112236
123433.0, 0.101947
126443.0, 0.0898670
129604.0, 0.0878540
132926.0, 0.0872390
136424.0, 0.0916570
140111.0, 0.100716
144003.0, 0.107762
148118.0, 0.119394
152474.0, 0.129628
157095.0, 0.130970
162004.0, 0.140477
167231.0, 0.145902
172805.0, 0.145454
178764.0, 0.159379
185148.0, 0.168159
192005.0, 0.174422
199390.0, 0.172465
207366.0, 0.171738
216006.0, 0.156806
