Database of Origin, USGS Spectral Database
Sample Description, See USGS database for additional info
Date Added,2016-08-10 05:38:21.920896

Data ID,USGS_sil02          
Sample ID, sillimanite_hs186.20584
Mineral Name, sillimanite
Material Class,Nesosilicate

Wavelength
1558.21, 0.591368
1558.68, 0.590836
1559.14, 0.589998
1559.61, 0.591368
1560.08, 0.591977
1560.55, 0.591444
1561.02, 0.591901
1561.49, 0.593651
1561.96, 0.593347
1562.43, 0.592053
1562.9, 0.592205
1563.38, 0.593575
1563.85, 0.594488
1564.32, 0.595021
1564.79, 0.595097
1565.26, 0.595402
1565.74, 0.595706
1566.21, 0.595934
1566.68, 0.595934
1567.16, 0.597000
1567.63, 0.596771
1568.1, 0.596467
1568.58, 0.597913
1569.05, 0.598522
1569.53, 0.598369
1570.0, 0.598750
1570.48, 0.598522
1570.96, 0.597913
1571.43, 0.598369
1571.91, 0.599511
1572.39, 0.599587
1572.86, 0.599130
1573.34, 0.599587
1573.82, 0.599968
1574.3, 0.599968
1574.77, 0.600881
1575.25, 0.601337
1575.73, 0.601870
1576.21, 0.602327
1576.69, 0.602327
1577.17, 0.602403
1577.65, 0.603240
1578.13, 0.603773
1578.61, 0.603544
1579.09, 0.603544
1579.57, 0.603696
1580.05, 0.604229
1580.54, 0.604610
1581.02, 0.604610
1581.5, 0.605066
1581.98, 0.605979
1582.47, 0.606740
1582.95, 0.606284
1583.43, 0.606512
1583.92, 0.606969
1584.4, 0.607121
1584.88, 0.607501
1585.37, 0.607273
1585.85, 0.607197
1586.34, 0.607654
1586.82, 0.607882
1587.31, 0.607730
1587.8, 0.607882
1588.28, 0.608643
1588.77, 0.608262
1589.26, 0.608415
1589.74, 0.608719
1590.23, 0.609480
1590.72, 0.610089
1591.21, 0.610621
1591.7, 0.610850
1592.19, 0.610850
1592.67, 0.610698
1593.16, 0.611611
1593.65, 0.612296
1594.14, 0.612296
1594.63, 0.612220
1595.12, 0.612372
1595.61, 0.612752
1596.11, 0.613361
1596.6, 0.613285
1597.09, 0.614274
1597.58, 0.614807
1598.08, 0.614807
1598.57, 0.614426
1599.06, 0.614426
1599.55, 0.614883
1600.05, 0.615263
1600.54, 0.615111
1601.04, 0.615111
1601.53, 0.615568
1602.03, 0.615948
1602.52, 0.615796
1603.02, 0.616481
1603.51, 0.616938
1604.01, 0.616786
1604.5, 0.616329
1605.0, 0.617394
1605.5, 0.617851
1606.0, 0.618688
1606.49, 0.619069
1606.99, 0.618688
1607.49, 0.618003
1607.99, 0.618688
1608.49, 0.618992
1608.99, 0.619753
1609.49, 0.620514
1609.99, 0.620286
1610.49, 0.620134
1610.99, 0.620819
1611.49, 0.621047
1611.99, 0.620743
1612.49, 0.621047
1612.99, 0.621960
1613.49, 0.622036
1614.0, 0.621960
1614.5, 0.622189
1615.0, 0.623254
1615.51, 0.624015
1616.01, 0.623482
1616.51, 0.623330
1617.02, 0.624167
1617.52, 0.624700
1618.03, 0.624167
1618.53, 0.624243
1619.04, 0.624624
1619.54, 0.624852
1620.05, 0.625613
1620.55, 0.625309
1621.06, 0.624928
1621.57, 0.625080
1622.08, 0.625385
1622.58, 0.626146
1623.09, 0.626983
1623.6, 0.626907
1624.11, 0.626526
1624.62, 0.626602
1625.13, 0.626831
1625.64, 0.627135
1626.15, 0.627592
1626.66, 0.628048
1627.17, 0.628200
1627.68, 0.627744
1628.19, 0.628429
1628.7, 0.629037
1629.21, 0.628809
1629.72, 0.629190
1630.24, 0.629799
1630.75, 0.629799
1631.26, 0.629799
1631.78, 0.629951
1632.29, 0.630027
1632.8, 0.630560
1633.32, 0.631473
1633.83, 0.631320
1634.35, 0.631168
1634.86, 0.631473
1635.38, 0.631929
1635.9, 0.631777
1636.41, 0.631549
1636.93, 0.632158
1637.45, 0.632614
1637.96, 0.632310
1638.48, 0.632614
1639.0, 0.633908
1639.52, 0.633984
1640.04, 0.633451
1640.56, 0.633375
1641.08, 0.633451
1641.59, 0.633756
1642.11, 0.634060
1642.63, 0.634517
1643.16, 0.634669
1643.68, 0.634517
1644.2, 0.634897
1644.72, 0.635202
1645.24, 0.635125
1645.76, 0.635125
1646.29, 0.635278
1646.81, 0.635202
1647.33, 0.635506
1647.86, 0.636267
1648.38, 0.636039
1648.9, 0.635886
1649.43, 0.636343
1649.95, 0.636495
1650.48, 0.636724
1651.0, 0.637332
1651.53, 0.637485
1652.06, 0.637180
1652.58, 0.637713
1653.11, 0.638398
1653.64, 0.638322
1654.17, 0.638017
1654.69, 0.638246
1655.22, 0.638778
1655.75, 0.638778
1656.28, 0.639387
1656.81, 0.639691
1657.34, 0.639767
1657.87, 0.639615
1658.4, 0.639767
1658.93, 0.640224
1659.46, 0.640605
1659.99, 0.640452
1660.52, 0.640224
1661.05, 0.640300
1661.59, 0.640605
1662.12, 0.640605
1662.65, 0.640909
1663.19, 0.641594
1663.72, 0.642203
1664.26, 0.642203
1664.79, 0.641822
1665.32, 0.641822
1665.86, 0.642051
1666.39, 0.642431
1666.93, 0.642811
1667.47, 0.643192
1668.0, 0.643344
1668.54, 0.642888
1669.08, 0.643040
1669.61, 0.643268
1670.15, 0.643192
1670.69, 0.643801
1671.23, 0.644105
1671.77, 0.643953
1672.31, 0.644105
1672.85, 0.644638
1673.39, 0.644790
1673.93, 0.644714
1674.47, 0.645018
1675.01, 0.645095
1675.55, 0.645247
1676.09, 0.645171
1676.64, 0.645323
1677.18, 0.646084
1677.72, 0.645779
1678.26, 0.646236
1678.81, 0.646693
1679.35, 0.646236
1679.89, 0.646312
1680.44, 0.646616
1680.98, 0.646997
1681.53, 0.647454
1682.07, 0.647606
1682.62, 0.647606
1683.17, 0.647454
1683.71, 0.647758
1684.26, 0.647834
1684.81, 0.647834
1685.36, 0.648367
1685.9, 0.648747
1686.45, 0.648899
1687.0, 0.648899
1687.55, 0.648595
1688.1, 0.648595
1688.65, 0.649432
1689.2, 0.649737
1689.75, 0.649889
1690.3, 0.650345
1690.85, 0.650726
1691.41, 0.650269
1691.96, 0.650117
1692.51, 0.650345
1693.06, 0.650498
1693.61, 0.650574
1694.17, 0.651487
1694.72, 0.651791
1695.28, 0.651411
1695.83, 0.651487
1696.39, 0.651639
1696.94, 0.652020
1697.5, 0.652096
1698.05, 0.652400
1698.61, 0.652476
1699.17, 0.653085
1699.72, 0.653313
1700.28, 0.652552
1700.84, 0.652857
1701.4, 0.653161
1701.95, 0.653389
1702.51, 0.653389
1703.07, 0.653389
1703.63, 0.653542
1704.19, 0.653542
1704.75, 0.653770
1705.31, 0.654379
1705.88, 0.654150
1706.44, 0.653846
1707.0, 0.654607
1707.56, 0.655216
1708.12, 0.655140
1708.69, 0.654987
1709.25, 0.654835
1709.81, 0.655292
1710.38, 0.655596
1710.94, 0.655672
1711.51, 0.655520
1712.07, 0.655672
1712.64, 0.656281
1713.2, 0.656585
1713.77, 0.656738
1714.34, 0.656509
1714.9, 0.656129
1715.47, 0.656433
1716.04, 0.657194
1716.61, 0.657575
1717.18, 0.657423
1717.74, 0.657727
1718.31, 0.657803
1718.88, 0.657651
1719.45, 0.657955
1720.02, 0.658260
1720.59, 0.658564
1721.17, 0.658792
1721.74, 0.658260
1722.31, 0.658184
1722.88, 0.658108
1723.45, 0.657879
1724.03, 0.658488
1724.6, 0.659401
1725.18, 0.659249
1725.75, 0.659325
1726.33, 0.659325
1726.9, 0.659553
1727.48, 0.659629
1728.05, 0.659477
1728.63, 0.659477
1729.2, 0.660010
1729.78, 0.660162
1730.36, 0.660238
1730.94, 0.660314
1731.51, 0.660999
1732.09, 0.661151
1732.67, 0.660923
1733.25, 0.660999
1733.83, 0.660923
1734.41, 0.661228
1734.99, 0.661760
1735.57, 0.661760
1736.15, 0.661456
1736.73, 0.661760
1737.32, 0.661989
1737.9, 0.661684
1738.48, 0.661684
1739.07, 0.662141
1739.65, 0.662521
1740.23, 0.662902
1740.82, 0.663206
1741.4, 0.663054
1741.99, 0.663282
1742.57, 0.663358
1743.16, 0.663511
1743.74, 0.663511
1744.33, 0.663511
1744.92, 0.663967
1745.51, 0.663815
1746.09, 0.663358
1746.68, 0.663739
1747.27, 0.664119
1747.86, 0.664271
1748.45, 0.664424
1749.04, 0.664424
1749.63, 0.664728
1750.22, 0.664880
1750.81, 0.664880
1751.4, 0.665033
1751.99, 0.665261
1752.59, 0.665413
1753.18, 0.665717
1753.77, 0.665565
1754.37, 0.666098
1754.96, 0.666174
1755.56, 0.666174
1756.15, 0.666250
1756.74, 0.666478
1757.34, 0.666478
1757.94, 0.666250
1758.53, 0.666707
1759.13, 0.666859
1759.73, 0.667087
1760.32, 0.667239
1760.92, 0.667087
1761.52, 0.667011
1762.12, 0.666935
1762.72, 0.667087
1763.32, 0.667468
1763.92, 0.667924
1764.52, 0.668153
1765.12, 0.668077
1765.72, 0.668305
1766.32, 0.668381
1766.92, 0.668914
1767.53, 0.668837
1768.13, 0.668457
1768.73, 0.668381
1769.34, 0.668837
1769.94, 0.668914
1770.55, 0.668990
1771.15, 0.669370
1771.76, 0.669446
1772.36, 0.669522
1772.97, 0.669599
1773.57, 0.669446
1774.18, 0.669751
1774.79, 0.669751
1775.4, 0.669675
1776.0, 0.669751
1776.61, 0.669903
1777.22, 0.670283
1777.83, 0.670283
1778.44, 0.669903
1779.05, 0.670131
1779.66, 0.669979
1780.27, 0.670359
1780.88, 0.670740
1781.5, 0.670892
1782.11, 0.670664
1782.72, 0.670664
1783.33, 0.670816
1783.95, 0.670740
1784.56, 0.670740
1785.18, 0.671044
1785.79, 0.671273
1786.41, 0.671729
1787.02, 0.671881
1787.64, 0.671958
1788.26, 0.672110
1788.87, 0.672338
1789.49, 0.672338
1790.11, 0.672262
1790.73, 0.672186
1791.35, 0.671805
1791.96, 0.671653
1792.58, 0.672414
1793.21, 0.673023
1793.83, 0.672871
1794.45, 0.672642
1795.07, 0.672795
1795.69, 0.673251
1796.31, 0.673403
1796.93, 0.673251
1797.56, 0.673327
1798.18, 0.673480
1798.8, 0.673632
1799.43, 0.673403
1800.05, 0.673327
1800.68, 0.673403
1801.3, 0.673708
1801.93, 0.674012
1802.56, 0.674164
1803.18, 0.673936
1803.81, 0.673860
1804.44, 0.673708
1805.07, 0.674164
1805.7, 0.674849
1806.33, 0.674697
1806.95, 0.674393
1807.58, 0.674393
1808.22, 0.674393
1808.85, 0.674393
1809.48, 0.674545
1810.11, 0.674925
1810.74, 0.675230
1811.38, 0.675306
1812.01, 0.675763
1812.64, 0.675534
1813.28, 0.675230
1813.91, 0.675458
1814.55, 0.675610
1815.18, 0.675763
1815.82, 0.675610
1816.45, 0.675763
1817.09, 0.675915
1817.73, 0.675915
1818.36, 0.675991
1819.0, 0.675915
1819.64, 0.676676
1820.28, 0.677513
1820.92, 0.677361
1821.56, 0.677513
1822.2, 0.677208
1822.84, 0.677437
1823.48, 0.677361
1824.12, 0.677284
1824.76, 0.677741
1825.41, 0.678578
1826.05, 0.678806
1826.69, 0.677969
1827.34, 0.677741
1827.98, 0.678046
1828.63, 0.678350
1829.27, 0.678350
1829.92, 0.678654
1830.56, 0.679339
1831.21, 0.679187
1831.86, 0.678883
1832.5, 0.679187
1833.15, 0.678959
1833.8, 0.679187
1834.45, 0.680100
1835.1, 0.680176
1835.75, 0.680481
1836.4, 0.680633
1837.05, 0.680709
1837.7, 0.681394
1838.35, 0.680328
1839.01, 0.680405
1839.66, 0.681546
1840.31, 0.680709
1840.96, 0.680861
1841.62, 0.682003
1842.27, 0.681318
1842.93, 0.680481
1843.58, 0.680405
1844.24, 0.680481
1844.9, 0.680861
1845.55, 0.681166
1846.21, 0.682231
1846.87, 0.683372
1847.53, 0.683220
1848.18, 0.682840
1848.84, 0.681774
1849.5, 0.681927
1850.16, 0.682003
1850.82, 0.681927
1851.48, 0.682155
1852.14, 0.682688
1852.81, 0.683220
1853.47, 0.684286
1854.13, 0.683601
1854.8, 0.682459
1855.46, 0.682764
1856.12, 0.683981
1856.79, 0.684210
1857.45, 0.682688
1858.12, 0.682231
1858.79, 0.683449
1859.45, 0.684590
1860.12, 0.684057
1860.79, 0.683220
1861.46, 0.682992
1862.12, 0.683601
1862.79, 0.683372
1863.46, 0.683449
1864.13, 0.683525
1864.8, 0.683144
1865.48, 0.683144
1866.15, 0.683372
1866.82, 0.684133
1867.49, 0.685199
1868.16, 0.684438
1868.84, 0.683677
1869.51, 0.683677
1870.19, 0.684818
1870.86, 0.685960
1871.54, 0.684514
1872.21, 0.684742
1872.89, 0.685808
1873.56, 0.684666
1874.24, 0.684210
1874.92, 0.684438
1875.6, 0.683753
1876.28, 0.684133
1876.96, 0.684666
1877.64, 0.683525
1878.32, 0.683220
1879.0, 0.682992
1879.68, 0.682916
1880.36, 0.682840
1881.04, 0.682764
1881.73, 0.682459
1882.41, 0.682612
1883.09, 0.683068
1883.78, 0.683601
1884.46, 0.683296
1885.15, 0.683068
1885.83, 0.682840
1886.52, 0.682688
1887.21, 0.682459
1887.89, 0.682155
1888.58, 0.682307
1889.27, 0.682459
1889.96, 0.682840
1890.65, 0.682459
1891.34, 0.682155
1892.03, 0.682003
1892.72, 0.681850
1893.41, 0.681622
1894.1, 0.681394
1894.79, 0.681394
1895.49, 0.680937
1896.18, 0.680481
1896.87, 0.680328
1897.57, 0.680252
1898.26, 0.680100
1898.96, 0.680405
1899.65, 0.680481
1900.35, 0.679491
1901.05, 0.678730
1901.74, 0.679035
1902.44, 0.679644
1903.14, 0.678959
1903.84, 0.678122
1904.54, 0.678883
1905.24, 0.678806
1905.94, 0.678046
1906.64, 0.678046
1907.34, 0.677132
1908.04, 0.676295
1908.75, 0.676371
1909.45, 0.676447
1910.15, 0.676295
1910.86, 0.676752
1911.56, 0.676980
1912.27, 0.676828
1912.97, 0.677437
1913.68, 0.677437
1914.39, 0.676828
1915.09, 0.676524
1915.8, 0.676600
1916.51, 0.676828
1917.22, 0.676904
1917.93, 0.676828
1918.64, 0.677208
1919.35, 0.677893
1920.06, 0.678502
1920.77, 0.677969
1921.48, 0.677284
1922.19, 0.677208
1922.91, 0.677132
1923.62, 0.677817
1924.33, 0.677969
1925.05, 0.677817
1925.76, 0.677969
1926.48, 0.678350
1927.19, 0.678502
1927.91, 0.678883
1928.63, 0.679035
1929.35, 0.678806
1930.07, 0.679339
1930.78, 0.679720
1931.5, 0.679644
1932.22, 0.679644
1932.94, 0.680024
1933.66, 0.680252
1934.39, 0.680100
1935.11, 0.680024
1935.83, 0.680937
1936.55, 0.681013
1937.28, 0.680785
1938.0, 0.680937
1938.73, 0.681470
1939.45, 0.682003
1940.18, 0.681774
1940.9, 0.681470
1941.63, 0.681394
1942.36, 0.681622
1943.09, 0.681622
1943.81, 0.681470
1944.54, 0.681927
1945.27, 0.682079
1946.0, 0.682383
1946.73, 0.682688
1947.47, 0.682612
1948.2, 0.682535
1948.93, 0.682764
1949.66, 0.682916
1950.4, 0.682916
1951.13, 0.682916
1951.86, 0.683068
1952.6, 0.683220
1953.34, 0.683601
1954.07, 0.683372
1954.81, 0.683449
1955.55, 0.683677
1956.29, 0.683829
1957.02, 0.683677
1957.76, 0.683753
1958.5, 0.683905
1959.24, 0.684286
1959.98, 0.684286
1960.72, 0.684133
1961.47, 0.684286
1962.21, 0.684590
1962.95, 0.684666
1963.7, 0.684666
1964.44, 0.684666
1965.18, 0.684742
1965.93, 0.684742
1966.67, 0.684590
1967.42, 0.684666
1968.17, 0.685199
1968.92, 0.684895
1969.66, 0.684818
1970.41, 0.685199
1971.16, 0.685503
1971.91, 0.685655
1972.66, 0.685427
1973.41, 0.685503
1974.16, 0.685808
1974.92, 0.685579
1975.67, 0.685732
1976.42, 0.685960
1977.18, 0.686036
1977.93, 0.686112
1978.69, 0.686264
1979.44, 0.686264
1980.2, 0.686416
1980.95, 0.686569
1981.71, 0.686493
1982.47, 0.686645
1983.23, 0.686949
1983.99, 0.687025
1984.74, 0.686949
1985.51, 0.687025
1986.27, 0.687330
1987.03, 0.687330
1987.79, 0.687558
1988.55, 0.687862
1989.32, 0.687862
1990.08, 0.688014
1990.84, 0.688319
1991.61, 0.688091
1992.37, 0.687710
1993.14, 0.687786
1993.9, 0.688167
1994.67, 0.688243
1995.44, 0.688243
1996.21, 0.688395
1996.98, 0.688547
1997.75, 0.688699
1998.52, 0.689004
1999.29, 0.689080
2000.06, 0.688852
2000.83, 0.688699
2001.6, 0.688852
2002.38, 0.688852
2003.15, 0.688928
2003.93, 0.689004
2004.7, 0.689232
2005.48, 0.689537
2006.25, 0.689384
2007.03, 0.689537
2007.81, 0.689841
2008.58, 0.690069
2009.36, 0.690069
2010.14, 0.690069
2010.92, 0.689993
2011.7, 0.689993
2012.48, 0.690145
2013.26, 0.690221
2014.05, 0.689993
2014.83, 0.690145
2015.61, 0.690602
2016.4, 0.690450
2017.18, 0.690221
2017.97, 0.690298
2018.75, 0.690298
2019.54, 0.690754
2020.32, 0.691211
2021.11, 0.691059
2021.9, 0.691135
2022.69, 0.691591
2023.48, 0.691819
2024.27, 0.691211
2025.06, 0.690982
2025.85, 0.690982
2026.64, 0.691287
2027.44, 0.691515
2028.23, 0.691819
2029.02, 0.692048
2029.82, 0.692048
2030.61, 0.691896
2031.41, 0.691972
2032.2, 0.692200
2033.0, 0.692200
2033.8, 0.692200
2034.6, 0.692504
2035.4, 0.692581
2036.2, 0.692504
2037.0, 0.692504
2037.8, 0.692733
2038.6, 0.692885
2039.4, 0.693037
2040.2, 0.693113
2041.01, 0.692885
2041.81, 0.692733
2042.61, 0.692733
2043.42, 0.692961
2044.22, 0.693265
2045.03, 0.693341
2045.84, 0.692885
2046.65, 0.692657
2047.46, 0.692733
2048.26, 0.692961
2049.07, 0.692809
2049.88, 0.692504
2050.69, 0.692428
2051.51, 0.692657
2052.32, 0.692733
2053.13, 0.692657
2053.94, 0.692657
2054.76, 0.692504
2055.57, 0.692200
2056.39, 0.692276
2057.2, 0.692428
2058.02, 0.692200
2058.84, 0.691972
2059.66, 0.691819
2060.48, 0.691819
2061.29, 0.691896
2062.11, 0.691896
2062.94, 0.691819
2063.76, 0.691515
2064.58, 0.691287
2065.4, 0.691515
2066.22, 0.691515
2067.05, 0.691211
2067.87, 0.690830
2068.7, 0.690982
2069.52, 0.691135
2070.35, 0.691363
2071.18, 0.691211
2072.0, 0.690982
2072.83, 0.690754
2073.66, 0.690602
2074.49, 0.690830
2075.32, 0.691135
2076.15, 0.690678
2076.98, 0.690374
2077.82, 0.690069
2078.65, 0.690221
2079.48, 0.690145
2080.32, 0.689993
2081.15, 0.689765
2081.99, 0.689765
2082.83, 0.689917
2083.66, 0.690145
2084.5, 0.689917
2085.34, 0.689613
2086.18, 0.689689
2087.02, 0.689841
2087.86, 0.690069
2088.7, 0.690145
2089.54, 0.689993
2090.39, 0.690298
2091.23, 0.689841
2092.07, 0.689613
2092.92, 0.689765
2093.76, 0.689993
2094.61, 0.689917
2095.45, 0.689460
2096.3, 0.689689
2097.15, 0.689765
2098.0, 0.689460
2098.85, 0.689613
2099.7, 0.689689
2100.55, 0.689537
2101.4, 0.689537
2102.25, 0.689613
2103.1, 0.689765
2103.96, 0.689460
2104.81, 0.688775
2105.67, 0.688547
2106.52, 0.688319
2107.38, 0.688091
2108.24, 0.687786
2109.09, 0.687482
2109.95, 0.687482
2110.81, 0.687558
2111.67, 0.687330
2112.53, 0.687101
2113.39, 0.686873
2114.25, 0.686645
2115.12, 0.686416
2115.98, 0.686112
2116.84, 0.685960
2117.71, 0.686112
2118.58, 0.686112
2119.44, 0.686264
2120.31, 0.685808
2121.18, 0.685655
2122.04, 0.685503
2122.91, 0.685275
2123.78, 0.684970
2124.65, 0.684438
2125.52, 0.684133
2126.4, 0.683905
2127.27, 0.683753
2128.14, 0.683525
2129.02, 0.683296
2129.89, 0.682916
2130.77, 0.682383
2131.64, 0.682231
2132.52, 0.682079
2133.4, 0.681698
2134.27, 0.681242
2135.15, 0.680633
2136.03, 0.680328
2136.91, 0.680024
2137.79, 0.679720
2138.68, 0.679263
2139.56, 0.678274
2140.44, 0.677589
2141.33, 0.676980
2142.21, 0.676295
2143.1, 0.675686
2143.99, 0.675002
2144.87, 0.674088
2145.76, 0.673327
2146.65, 0.672262
2147.54, 0.670968
2148.43, 0.669675
2149.32, 0.668229
2150.21, 0.666935
2151.1, 0.665794
2151.99, 0.664043
2152.89, 0.662369
2153.78, 0.660771
2154.68, 0.659325
2155.57, 0.657651
2156.47, 0.655901
2157.37, 0.654455
2158.27, 0.652780
2159.16, 0.650345
2160.06, 0.647225
2160.96, 0.643496
2161.86, 0.639844
2162.77, 0.636267
2163.67, 0.633071
2164.57, 0.630483
2165.48, 0.628200
2166.38, 0.626222
2167.29, 0.624852
2168.2, 0.624395
2169.1, 0.625156
2170.01, 0.626755
2170.92, 0.628809
2171.83, 0.630636
2172.74, 0.632005
2173.65, 0.633147
2174.56, 0.633756
2175.47, 0.634212
2176.39, 0.634593
2177.3, 0.634973
2178.22, 0.634897
2179.13, 0.634288
2180.05, 0.634060
2180.96, 0.633756
2181.88, 0.633071
2182.8, 0.632234
2183.72, 0.631320
2184.64, 0.630255
2185.56, 0.629342
2186.48, 0.628657
2187.41, 0.627668
2188.33, 0.626450
2189.25, 0.625994
2190.18, 0.625461
2191.1, 0.624776
2192.03, 0.624243
2192.96, 0.623863
2193.89, 0.623558
2194.82, 0.623102
2195.74, 0.623026
2196.68, 0.623102
2197.61, 0.623102
2198.54, 0.623254
2199.47, 0.622950
2200.4, 0.622569
2201.34, 0.622112
2202.28, 0.621732
2203.21, 0.621580
2204.15, 0.620895
2205.08, 0.619982
2206.02, 0.619753
2206.96, 0.619525
2207.9, 0.619525
2208.84, 0.620895
2209.78, 0.623711
2210.73, 0.627668
2211.67, 0.631777
2212.61, 0.635886
2213.56, 0.639920
2214.5, 0.643344
2215.45, 0.646693
2216.4, 0.649508
2217.35, 0.651943
2218.3, 0.653922
2219.24, 0.655520
2220.2, 0.656890
2221.15, 0.657803
2222.1, 0.658869
2223.05, 0.659858
2224.0, 0.660619
2224.96, 0.661151
2225.91, 0.661989
2226.87, 0.662902
2227.83, 0.663054
2228.79, 0.663054
2229.74, 0.663739
2230.7, 0.664348
2231.66, 0.664500
2232.63, 0.664880
2233.59, 0.665261
2234.55, 0.665565
2235.51, 0.665717
2236.48, 0.665717
2237.44, 0.665946
2238.41, 0.666174
2239.38, 0.666022
2240.34, 0.665946
2241.31, 0.666326
2242.28, 0.666707
2243.25, 0.666859
2244.22, 0.666859
2245.19, 0.666783
2246.17, 0.667087
2247.14, 0.667087
2248.12, 0.667087
2249.09, 0.667239
2250.07, 0.667163
2251.04, 0.667163
2252.02, 0.666950
2253.0, 0.667306
2253.98, 0.667306
2254.96, 0.666950
2255.94, 0.666451
2256.92, 0.666522
2257.91, 0.666807
2258.89, 0.666736
2259.88, 0.667163
2260.86, 0.667733
2261.85, 0.667306
2262.83, 0.666736
2263.82, 0.666665
2264.81, 0.666736
2265.8, 0.666879
2266.79, 0.666451
2267.78, 0.666522
2268.78, 0.666380
2269.77, 0.666380
2270.76, 0.666451
2271.76, 0.666024
2272.75, 0.665597
2273.75, 0.665241
2274.75, 0.664671
2275.75, 0.664742
2276.75, 0.664671
2277.75, 0.664315
2278.75, 0.664101
2279.75, 0.663745
2280.75, 0.662962
2281.76, 0.662392
2282.76, 0.662178
2283.77, 0.662178
2284.77, 0.661822
2285.78, 0.661252
2286.79, 0.660398
2287.8, 0.659970
2288.81, 0.660113
2289.82, 0.659970
2290.83, 0.659187
2291.84, 0.659045
2292.86, 0.658831
2293.87, 0.657905
2294.89, 0.657478
2295.91, 0.657051
2296.92, 0.656125
2297.94, 0.655626
2298.96, 0.654558
2299.98, 0.654131
2301.0, 0.653561
2302.02, 0.653276
2303.04, 0.652706
2304.07, 0.652208
2305.09, 0.650855
2306.12, 0.649502
2307.15, 0.648789
2308.17, 0.648362
2309.2, 0.647935
2310.23, 0.647579
2311.26, 0.646510
2312.29, 0.645442
2313.32, 0.644801
2314.35, 0.644231
2315.39, 0.643092
2316.42, 0.642593
2317.46, 0.641953
2318.5, 0.641739
2319.53, 0.641169
2320.57, 0.640742
2321.61, 0.641027
2322.65, 0.640955
2323.69, 0.640599
2324.73, 0.640528
2325.78, 0.640671
2326.82, 0.640315
2327.86, 0.640386
2328.91, 0.640742
2329.96, 0.640671
2331.01, 0.640528
2332.05, 0.640742
2333.1, 0.641383
2334.15, 0.641240
2335.21, 0.641312
2336.26, 0.641169
2337.31, 0.640813
2338.36, 0.640243
2339.42, 0.639816
2340.48, 0.639816
2341.53, 0.639674
2342.59, 0.639033
2343.65, 0.638890
2344.71, 0.638890
2345.77, 0.638534
2346.83, 0.638249
2347.9, 0.638320
2348.96, 0.637822
2350.02, 0.637395
2351.09, 0.637466
2352.16, 0.637822
2353.23, 0.638036
2354.29, 0.638392
2355.36, 0.638178
2356.43, 0.638249
2357.51, 0.638036
2358.58, 0.638178
2359.65, 0.637822
2360.73, 0.638320
2361.8, 0.638677
2362.88, 0.638819
2363.96, 0.638249
2365.03, 0.638107
2366.11, 0.637964
2367.19, 0.637893
2368.27, 0.638178
2369.36, 0.638320
2370.44, 0.638036
2371.53, 0.637679
2372.61, 0.637252
2373.7, 0.636825
2374.78, 0.636113
2375.87, 0.635543
2376.96, 0.634190
2378.05, 0.633834
2379.14, 0.633762
2380.24, 0.632908
2381.33, 0.632053
2382.42, 0.632124
2383.52, 0.631911
2384.61, 0.631270
2385.71, 0.630486
2386.81, 0.630059
2387.91, 0.630059
2389.01, 0.630415
2390.11, 0.630344
2391.22, 0.630486
2392.32, 0.630273
2393.42, 0.630059
2394.53, 0.629703
2395.64, 0.630202
2396.74, 0.630415
2397.85, 0.630629
2398.96, 0.630273
2400.07, 0.630344
2401.18, 0.630273
2402.3, 0.630130
2403.41, 0.629917
2404.52, 0.629632
2405.64, 0.629347
2406.76, 0.629276
2407.88, 0.628777
2408.99, 0.628350
2410.11, 0.627709
2411.23, 0.627424
2412.36, 0.626712
2413.48, 0.626213
2414.6, 0.625857
2415.73, 0.625501
2416.85, 0.625003
2417.98, 0.624433
2419.11, 0.623863
2420.24, 0.623009
2421.37, 0.622154
2422.5, 0.621584
2423.64, 0.620943
2424.77, 0.620374
2425.9, 0.619661
2427.04, 0.619305
2428.18, 0.618664
2429.31, 0.617311
2430.45, 0.616599
2431.59, 0.616386
2432.73, 0.615958
2433.88, 0.615887
2435.02, 0.615745
2436.16, 0.615388
2437.31, 0.614819
2438.45, 0.614534
2439.6, 0.614534
2440.75, 0.614819
2441.9, 0.614463
2443.05, 0.613822
2444.2, 0.613822
2445.35, 0.614249
2446.51, 0.613750
2447.67, 0.613893
2448.82, 0.614391
2449.98, 0.614676
2451.14, 0.614391
2452.3, 0.614106
2453.46, 0.613822
2454.62, 0.613964
2455.78, 0.613822
2456.94, 0.613893
2458.11, 0.613608
2459.28, 0.613608
2460.44, 0.613822
2461.61, 0.613964
2462.78, 0.613750
2463.95, 0.613893
2465.12, 0.613822
2466.3, 0.613466
2467.47, 0.613252
2468.65, 0.613466
2469.82, 0.613109
2471.0, 0.612825
2472.18, 0.612611
2473.36, 0.612255
2474.54, 0.611828
2475.72, 0.611400
2476.9, 0.611115
2478.08, 0.610546
2479.27, 0.609477
2480.46, 0.608836
2481.64, 0.608552
2482.83, 0.608552
2484.02, 0.608267
2485.21, 0.607626
2486.4, 0.607056
2487.6, 0.606486
2488.79, 0.606273
2489.99, 0.606486
2491.18, 0.606344
2492.38, 0.605988
2493.58, 0.605632
2494.78, 0.605845
2495.98, 0.605632
2497.18, 0.605560
2498.39, 0.605276
2499.59, 0.605133
2500.8, 0.605133
2502.01, 0.605133
2503.21, 0.604777
2504.42, 0.604350
2505.63, 0.603709
2506.84, 0.603638
2508.06, 0.603495
2509.27, 0.602997
2510.49, 0.602854
2511.7, 0.603424
2512.92, 0.603566
2514.14, 0.603851
2515.36, 0.604279
2516.58, 0.604421
2517.8, 0.603994
2519.03, 0.603994
2520.25, 0.604279
2521.48, 0.604848
2522.7, 0.604919
2523.93, 0.604777
2525.16, 0.604919
2526.39, 0.605276
2527.62, 0.605133
2528.86, 0.604919
2530.09, 0.605347
2531.33, 0.606059
2532.56, 0.605845
2533.8, 0.604777
2535.04, 0.604919
2536.28, 0.605133
2537.52, 0.603922
2538.76, 0.602997
2540.01, 0.602356
2541.25, 0.602641
2542.5, 0.603068
2543.75, 0.601786
2544.99, 0.600362
2546.24, 0.599792
2547.49, 0.600077
2548.75, 0.599222
2550.0, 0.598937
2551.26, 0.599863
2552.51, 0.600504
2553.77, 0.599222
2555.03, 0.597442
2556.29, 0.596943
2557.55, 0.596373
2558.81, 0.596943
2560.08, 0.600290
2561.34, 0.603068
2562.61, 0.602000
2563.88, 0.600646
2565.14, 0.597299
2566.41, 0.593952
2567.68, 0.594023
2568.96, 0.596730
2570.23, 0.595163
2571.51, 0.592599
2572.78, 0.596587
2574.06, 0.595733
2575.34, 0.593454
2576.62, 0.595733
2577.9, 0.593382
2579.18, 0.591246
2580.47, 0.593311
2581.75, 0.593097
2583.04, 0.595804
2584.32, 0.595305
2585.61, 0.590035
2586.9, 0.591032
2588.2, 0.589038
2589.49, 0.586545
2590.78, 0.583697
2592.08, 0.583768
2593.37, 0.592457
2594.67, 0.601287
2595.97, 0.589323
2597.27, 0.578142
2598.57, 0.574296
2599.88, 0.574367
2601.18, 0.576005
2602.49, 0.576860
2603.79, 0.578427
2605.1, 0.581774
2606.41, 0.578640
2607.72, 0.574011
2609.03, 0.572373
2610.35, 0.570735
2611.66, 0.569168
2612.98, 0.569952
2614.3, 0.569809
2615.62, 0.575151
2616.94, 0.578569
2618.26, 0.573014
2619.58, 0.574795
2620.91, 0.573940
2622.23, 0.566462
2623.56, 0.564539
2624.89, 0.565892
2626.22, 0.570664
2627.55, 0.566961
2628.88, 0.566747
2630.21, 0.571163
2631.55, 0.564895
2632.89, 0.560978
2634.22, 0.560124
2635.56, 0.555851
2636.9, 0.554142
2638.25, 0.552931
2639.59, 0.552076
2640.93, 0.551079
2642.28, 0.550367
2643.63, 0.548373
2644.98, 0.548943
2646.33, 0.546877
2647.68, 0.543174
2649.03, 0.540682
2650.39, 0.540112
2651.74, 0.541322
2653.1, 0.539115
2654.46, 0.535127
2655.82, 0.532563
2657.18, 0.527578
2658.54, 0.527008
2659.9, 0.525583
2661.27, 0.521453
2662.64, 0.517322
2664.01, 0.519245
2665.38, 0.520954
2666.74, 0.516396
2668.12, 0.506711
2669.49, 0.507209
2670.87, 0.503008
2672.24, 0.487838
2673.62, 0.480645
2675.0, 0.477939
2676.38, 0.474948
2677.76, 0.467470
2679.15, 0.458782
2680.54, 0.446532
2681.92, 0.436989
2683.31, 0.428870
2684.7, 0.417618
2686.09, 0.405938
2687.48, 0.391980
2688.88, 0.376597
2690.27, 0.359861
2691.67, 0.343979
2693.07, 0.329237
2694.47, 0.311077
2695.87, 0.290353
2697.27, 0.270626
2698.67, 0.252252
2700.08, 0.236513
2701.49, 0.221984
2702.9, 0.208667
2704.31, 0.198767
2705.72, 0.191859
2707.13, 0.187159
2708.54, 0.185022
2709.96, 0.184239
2711.38, 0.182387
2712.8, 0.178684
2714.22, 0.176975
2715.64, 0.175693
2717.06, 0.174126
2718.49, 0.171562
2719.91, 0.169141
2721.34, 0.165651
2722.77, 0.165865
2724.2, 0.170281
2725.63, 0.171705
2727.07, 0.171634
2728.5, 0.172702
2729.94, 0.173628
2731.38, 0.174055
2732.82, 0.174625
2734.26, 0.175835
2735.7, 0.174981
2737.15, 0.173770
2738.59, 0.175622
2740.04, 0.177189
2741.49, 0.176120
2742.94, 0.174411
2744.39, 0.173841
2745.84, 0.173841
2747.3, 0.173272
2748.76, 0.172488
2750.21, 0.171562
2751.67, 0.170993
2753.14, 0.170494
2754.6, 0.171847
2756.06, 0.171562
2757.53, 0.168429
2759.0, 0.165936
2760.46, 0.164939
2761.94, 0.168002
2763.41, 0.174767
2764.88, 0.182815
2766.36, 0.191574
2767.83, 0.199693
2769.31, 0.206316
2770.79, 0.212227
2772.27, 0.216429
2773.76, 0.219919
2775.24, 0.223765
2776.73, 0.227254
2778.22, 0.229676
2779.71, 0.232168
2781.2, 0.234590
2782.69, 0.236441
2784.18, 0.238435
2785.68, 0.241711
2787.18, 0.244987
2788.68, 0.246412
2790.18, 0.247480
2791.68, 0.249474
2793.19, 0.251967
2794.69, 0.254388
2796.2, 0.256525
2797.71, 0.258447
2799.22, 0.260299
2800.73, 0.262649
2802.24, 0.265569
2803.76, 0.267350
2805.28, 0.267278
2806.8, 0.267278
2808.32, 0.268062
2809.84, 0.268703
2811.36, 0.269130
2812.89, 0.269771
2814.42, 0.270697
2815.94, 0.271409
2817.48, 0.271836
2819.01, 0.272691
2820.54, 0.273261
2822.08, 0.273403
2823.61, 0.273546
2825.15, 0.274044
2826.69, 0.274614
2828.23, 0.274899
2829.78, 0.274970
2831.32, 0.275397
2832.87, 0.275967
2834.42, 0.276394
2835.97, 0.276679
2837.52, 0.277106
2839.08, 0.277462
2840.63, 0.277534
2842.19, 0.277890
2843.75, 0.278175
2845.31, 0.278388
2846.87, 0.278887
2848.44, 0.279172
2850.0, 0.279243
2851.57, 0.279243
2853.14, 0.279599
2854.71, 0.279813
2856.28, 0.279813
2857.86, 0.279813
2859.43, 0.280026
2861.01, 0.280311
2862.59, 0.280454
2864.17, 0.280311
2865.76, 0.280240
2867.34, 0.280382
2868.93, 0.280240
2870.52, 0.280169
2872.11, 0.279955
2873.7, 0.279741
2875.29, 0.279670
2876.89, 0.279884
2878.49, 0.280026
2880.08, 0.280240
2881.69, 0.280667
2883.29, 0.280881
2884.89, 0.281095
2886.5, 0.281379
2888.11, 0.281237
2889.72, 0.281166
2891.33, 0.281308
2892.94, 0.281522
2894.56, 0.281664
2896.17, 0.281807
2897.79, 0.282020
2899.42, 0.282305
2901.04, 0.282376
2902.66, 0.282092
2904.29, 0.281949
2905.92, 0.281522
2907.55, 0.281237
2909.18, 0.280881
2910.81, 0.280525
2912.45, 0.280881
2914.08, 0.281593
2915.72, 0.282305
2917.36, 0.283374
2919.01, 0.284727
2920.65, 0.285795
2922.3, 0.287077
2923.94, 0.288003
2925.59, 0.288501
2927.25, 0.289142
2928.9, 0.289997
2930.56, 0.290851
2932.21, 0.291350
2933.87, 0.291706
2935.53, 0.292276
2937.2, 0.292845
2938.86, 0.293130
2940.53, 0.293486
2942.2, 0.293914
2943.87, 0.294341
2945.54, 0.294555
2947.22, 0.294840
2948.89, 0.295124
2950.57, 0.295196
2952.25, 0.295267
2953.93, 0.295338
2955.62, 0.295552
2957.3, 0.295480
2958.99, 0.295552
2960.68, 0.295837
2962.37, 0.296121
2964.07, 0.296335
2965.76, 0.296620
2967.46, 0.296762
2969.16, 0.296976
2970.86, 0.297261
2972.56, 0.297261
2974.27, 0.297118
2975.98, 0.297332
2977.69, 0.297332
2979.4, 0.297546
2981.11, 0.297759
2982.83, 0.297973
2984.54, 0.298044
2986.26, 0.298115
2987.98, 0.298187
2989.71, 0.298187
2991.43, 0.298258
2993.16, 0.298258
2994.89, 0.298115
2996.62, 0.298115
2998.35, 0.298044
3000.09, 0.297831
3001.83, 0.297546
3003.57, 0.297403
3005.31, 0.297403
3007.05, 0.297403
3008.79, 0.296976
3010.54, 0.296478
3012.29, 0.296264
3014.04, 0.295979
3015.8, 0.295552
3017.55, 0.295267
3019.31, 0.295053
3021.07, 0.294840
3022.83, 0.294483
3024.59, 0.294270
3026.36, 0.294412
3028.13, 0.294697
3029.9, 0.294768
3031.67, 0.294768
3033.44, 0.294982
3035.22, 0.295694
3037.0, 0.296264
3038.78, 0.296478
3040.56, 0.296834
3042.34, 0.297546
3044.13, 0.298258
3045.92, 0.299326
3047.71, 0.300323
3049.5, 0.301035
3051.3, 0.301890
3053.09, 0.302958
3054.89, 0.304027
3056.69, 0.305095
3058.5, 0.306234
3060.3, 0.307516
3062.11, 0.308656
3063.92, 0.309866
3065.73, 0.311006
3067.55, 0.312288
3069.36, 0.313570
3071.18, 0.314709
3073.0, 0.315849
3074.82, 0.317059
3076.65, 0.318056
3078.48, 0.319125
3080.31, 0.320335
3082.14, 0.321261
3083.97, 0.322258
3085.8, 0.323398
3087.64, 0.324466
3089.48, 0.325320
3091.33, 0.326175
3093.17, 0.327315
3095.02, 0.328098
3096.87, 0.328597
3098.72, 0.329451
3100.57, 0.330377
3102.43, 0.331018
3104.28, 0.331445
3106.14, 0.331944
3108.01, 0.332656
3109.87, 0.333510
3111.74, 0.333938
3113.61, 0.334365
3115.48, 0.334935
3117.35, 0.335362
3119.23, 0.335861
3121.1, 0.336217
3122.98, 0.336573
3124.87, 0.337285
3126.75, 0.337926
3128.64, 0.338211
3130.53, 0.338496
3132.42, 0.339065
3134.31, 0.339493
3136.21, 0.339920
3138.11, 0.340347
3140.01, 0.340775
3141.91, 0.340988
3143.82, 0.341273
3145.73, 0.341772
3147.64, 0.342128
3149.55, 0.342484
3151.46, 0.342911
3153.38, 0.343196
3155.3, 0.343481
3157.22, 0.343766
3159.14, 0.343695
3161.07, 0.343766
3163.0, 0.343979
3164.93, 0.344051
3166.86, 0.343979
3168.8, 0.344051
3170.74, 0.344051
3172.68, 0.344051
3174.62, 0.343979
3176.56, 0.343766
3178.51, 0.343552
3180.46, 0.343410
3182.42, 0.343125
3184.37, 0.342626
3186.33, 0.342341
3188.29, 0.342128
3190.25, 0.341700
3192.21, 0.341131
3194.18, 0.340703
3196.15, 0.340347
3198.12, 0.339849
3200.09, 0.339279
3202.07, 0.338923
3204.05, 0.338638
3206.03, 0.338211
3208.02, 0.337641
3210.0, 0.337285
3211.99, 0.336929
3213.98, 0.336573
3215.98, 0.336430
3217.97, 0.336430
3219.97, 0.336573
3221.97, 0.336786
3223.98, 0.337071
3225.98, 0.337570
3227.99, 0.337926
3230.0, 0.338496
3232.02, 0.339208
3234.03, 0.339849
3236.05, 0.340419
3238.07, 0.341273
3240.1, 0.342555
3242.12, 0.343766
3244.15, 0.345048
3246.18, 0.346330
3248.22, 0.347540
3250.25, 0.348893
3252.29, 0.350318
3254.33, 0.351885
3256.38, 0.353594
3258.43, 0.355161
3260.47, 0.356799
3262.53, 0.358365
3264.58, 0.359790
3266.64, 0.361356
3268.7, 0.362852
3270.76, 0.364348
3272.82, 0.365986
3274.89, 0.367410
3276.96, 0.368834
3279.04, 0.370116
3281.11, 0.371541
3283.19, 0.373036
3285.27, 0.374389
3287.35, 0.375742
3289.44, 0.377095
3291.53, 0.378449
3293.62, 0.379802
3295.71, 0.381012
3297.81, 0.382294
3299.91, 0.383505
3302.01, 0.384645
3304.11, 0.385784
3306.22, 0.386923
3308.33, 0.388063
3310.44, 0.389274
3312.56, 0.390556
3314.68, 0.391624
3316.8, 0.392834
3318.92, 0.393974
3321.05, 0.395256
3323.18, 0.396395
3325.31, 0.397392
3327.44, 0.398532
3329.58, 0.399600
3331.72, 0.400740
3333.86, 0.401950
3336.01, 0.403232
3338.16, 0.404158
3340.31, 0.405369
3342.46, 0.406579
3344.61, 0.407505
3346.77, 0.408431
3348.94, 0.409286
3351.1, 0.410354
3353.27, 0.411565
3355.44, 0.412348
3357.61, 0.413274
3359.79, 0.414128
3361.97, 0.415125
3364.15, 0.415980
3366.33, 0.416835
3368.52, 0.417618
3370.71, 0.418615
3372.9, 0.419470
3375.1, 0.420111
3377.3, 0.421037
3379.5, 0.422247
3381.71, 0.423244
3383.91, 0.424312
3386.12, 0.425523
3388.34, 0.426449
3390.55, 0.427304
3392.77, 0.428229
3394.99, 0.428870
3397.22, 0.429725
3399.45, 0.430366
3401.68, 0.430865
3403.91, 0.431648
3406.15, 0.432360
3408.39, 0.432716
3410.63, 0.433286
3412.87, 0.434212
3415.12, 0.435138
3417.37, 0.436063
3419.63, 0.437274
3421.88, 0.438485
3424.14, 0.439695
3426.41, 0.440764
3428.67, 0.442046
3430.94, 0.443185
3433.21, 0.444325
3435.49, 0.445535
3437.77, 0.446532
3440.05, 0.447387
3442.33, 0.448384
3444.62, 0.449310
3446.91, 0.450449
3449.2, 0.451446
3451.5, 0.452515
3453.8, 0.453583
3456.1, 0.454580
3458.41, 0.455363
3460.72, 0.456218
3463.03, 0.457072
3465.34, 0.457713
3467.66, 0.458426
3469.98, 0.459351
3472.31, 0.460064
3474.63, 0.460776
3476.96, 0.461488
3479.3, 0.461986
3481.64, 0.462556
3483.97, 0.463340
3486.32, 0.463838
3488.66, 0.464265
3491.01, 0.464764
3493.36, 0.465334
3495.72, 0.465903
3498.08, 0.466331
3500.44, 0.466758
3502.81, 0.467613
3505.18, 0.468681
3507.55, 0.469892
3509.92, 0.471031
3512.3, 0.472170
3514.68, 0.473239
3517.06, 0.474236
3519.45, 0.475162
3521.84, 0.476087
3524.24, 0.477084
3526.64, 0.478082
3529.04, 0.478865
3531.44, 0.479648
3533.85, 0.480432
3536.26, 0.481215
3538.67, 0.481999
3541.09, 0.482782
3543.51, 0.483280
3545.93, 0.484135
3548.36, 0.484847
3550.79, 0.485274
3553.22, 0.485844
3555.66, 0.486485
3558.1, 0.487055
3560.54, 0.487696
3562.99, 0.488266
3565.44, 0.488835
3567.9, 0.489263
3570.35, 0.489904
3572.81, 0.490402
3575.28, 0.490972
3577.75, 0.491470
3580.22, 0.492183
3582.69, 0.492752
3585.17, 0.493322
3587.65, 0.493749
3590.14, 0.494177
3592.62, 0.494533
3595.11, 0.495245
3597.61, 0.495601
3600.11, 0.496171
3602.61, 0.496740
3605.11, 0.497239
3607.62, 0.497666
3610.14, 0.497951
3612.65, 0.498378
3615.17, 0.498806
3617.69, 0.499376
3620.22, 0.500016
3622.75, 0.500444
3625.28, 0.500800
3627.82, 0.501370
3630.36, 0.501726
3632.9, 0.502011
3635.45, 0.502367
3638.0, 0.502652
3640.56, 0.503150
3643.12, 0.503577
3645.68, 0.503791
3648.24, 0.503933
3650.81, 0.504432
3653.39, 0.504788
3655.96, 0.505073
3658.54, 0.505287
3661.13, 0.505429
3663.71, 0.505571
3666.3, 0.505643
3668.9, 0.505571
3671.5, 0.505571
3674.1, 0.505785
3676.7, 0.505928
3679.31, 0.506070
3681.93, 0.506284
3684.54, 0.506284
3687.17, 0.505999
3689.79, 0.505785
3692.42, 0.505928
3695.05, 0.506212
3697.69, 0.506568
3700.32, 0.506568
3702.97, 0.506640
3705.61, 0.506782
3708.27, 0.506853
3710.92, 0.507138
3713.58, 0.507352
3716.24, 0.507281
3718.91, 0.507352
3721.58, 0.507281
3724.25, 0.507281
3726.93, 0.507352
3729.61, 0.507423
3732.29, 0.507565
3734.98, 0.507850
3737.67, 0.507850
3740.37, 0.507922
3743.07, 0.508064
3745.78, 0.508491
3748.49, 0.508990
3751.2, 0.509702
3753.91, 0.510201
3756.63, 0.510913
3759.36, 0.511767
3762.09, 0.512622
3764.82, 0.513548
3767.55, 0.514687
3770.29, 0.515827
3773.04, 0.516895
3775.78, 0.517892
3778.54, 0.518960
3781.29, 0.520029
3784.05, 0.521097
3786.82, 0.521951
3789.59, 0.522948
3792.36, 0.523803
3795.13, 0.524658
3797.92, 0.525370
3800.7, 0.526082
3803.49, 0.526652
3806.28, 0.527293
3809.08, 0.527934
3811.88, 0.528646
3814.68, 0.529073
3817.49, 0.529714
3820.31, 0.530355
3823.12, 0.530925
3825.94, 0.531281
3828.77, 0.531779
3831.6, 0.532349
3834.43, 0.532848
3837.27, 0.532990
3840.11, 0.533275
3842.96, 0.533845
3845.81, 0.534343
3848.67, 0.534699
3851.53, 0.535127
3854.39, 0.535554
3857.26, 0.536052
3860.13, 0.536480
3863.01, 0.537049
3865.89, 0.537548
3868.77, 0.537975
3871.66, 0.538331
3874.55, 0.538687
3877.45, 0.539186
3880.35, 0.539613
3883.26, 0.539969
3886.17, 0.540539
3889.09, 0.540824
3892.01, 0.540966
3894.93, 0.541251
3897.86, 0.541679
3900.79, 0.541963
3903.73, 0.542177
3906.67, 0.542391
3909.62, 0.542533
3912.57, 0.542462
3915.52, 0.542533
3918.48, 0.542462
3921.45, 0.542533
3924.42, 0.542533
3927.39, 0.542462
3930.37, 0.542248
3933.35, 0.542035
3936.34, 0.542035
3939.33, 0.542177
3942.32, 0.542035
3945.32, 0.542177
3948.33, 0.542248
3951.34, 0.542106
3954.35, 0.541750
3957.37, 0.541536
3960.39, 0.541322
3963.42, 0.540966
3966.45, 0.540610
3969.49, 0.540610
3972.53, 0.540610
3975.58, 0.540753
3978.63, 0.540966
3981.68, 0.541180
3984.75, 0.541251
3987.81, 0.541394
3990.88, 0.541394
3993.95, 0.541394
3997.03, 0.541465
4000.12, 0.541536
4003.21, 0.541536
4006.3, 0.541607
4009.4, 0.541679
4012.5, 0.541607
4015.61, 0.541465
4018.72, 0.541536
4021.84, 0.541607
4024.96, 0.541607
4028.09, 0.541465
4031.22, 0.541322
4034.36, 0.541109
4037.5, 0.541109
4040.65, 0.541180
4043.8, 0.541180
4046.96, 0.541109
4050.12, 0.541109
4053.29, 0.540966
4056.46, 0.540966
4059.64, 0.541038
4062.82, 0.540895
4066.0, 0.540610
4069.19, 0.540539
4072.39, 0.540254
4075.59, 0.540041
4078.8, 0.539898
4082.01, 0.539684
4085.23, 0.539328
4088.45, 0.539044
4091.68, 0.538616
4094.91, 0.538403
4098.15, 0.538189
4101.39, 0.537904
4104.63, 0.537619
4107.89, 0.537192
4111.14, 0.536765
4114.41, 0.536337
4117.67, 0.535981
4120.95, 0.535696
4124.23, 0.535269
4127.51, 0.534842
4130.8, 0.534343
4134.09, 0.534058
4137.39, 0.533702
4140.7, 0.533204
4144.01, 0.532705
4147.32, 0.532278
4150.64, 0.531779
4153.97, 0.531423
4157.3, 0.530854
4160.64, 0.530284
4163.98, 0.529714
4167.33, 0.529144
4170.68, 0.528575
4174.04, 0.528219
4177.4, 0.527649
4180.77, 0.527008
4184.14, 0.526296
4187.52, 0.525868
4190.91, 0.525370
4194.3, 0.524942
4197.69, 0.524444
4201.1, 0.524230
4204.5, 0.524017
4207.92, 0.523732
4211.34, 0.523518
4214.76, 0.523305
4218.19, 0.522948
4221.62, 0.522521
4225.06, 0.522023
4228.51, 0.521382
4231.96, 0.520598
4235.42, 0.519316
4238.88, 0.517322
4242.35, 0.515186
4245.83, 0.512764
4249.31, 0.509844
4252.79, 0.506355
4256.28, 0.502723
4259.78, 0.499019
4263.29, 0.495031
4266.79, 0.490402
4270.31, 0.485417
4273.83, 0.479933
4277.35, 0.473951
4280.89, 0.467399
4284.42, 0.460633
4287.97, 0.453440
4291.52, 0.445963
4295.07, 0.438200
4298.63, 0.430651
4302.2, 0.423173
4305.78, 0.415482
4309.35, 0.407434
4312.94, 0.399173
4316.53, 0.390484
4320.13, 0.381440
4323.73, 0.372110
4327.34, 0.363208
4330.96, 0.355303
4334.58, 0.348965
4338.21, 0.344763
4341.84, 0.343125
4345.48, 0.344336
4349.12, 0.348609
4352.77, 0.355659
4356.43, 0.365202
4360.1, 0.376455
4363.76, 0.388775
4367.44, 0.401096
4371.12, 0.413060
4374.81, 0.423743
4378.51, 0.433001
4382.21, 0.440693
4385.92, 0.446960
4389.63, 0.452016
4393.35, 0.456075
4397.08, 0.459209
4400.81, 0.461773
4404.55, 0.463553
4408.29, 0.465120
4412.04, 0.466402
4415.8, 0.467328
4419.57, 0.467898
4423.34, 0.468396
4427.12, 0.468823
4430.9, 0.469179
4434.69, 0.469251
4438.49, 0.469322
4442.29, 0.469179
4446.1, 0.468895
4449.92, 0.468182
4453.74, 0.467328
4457.57, 0.466259
4461.41, 0.465334
4465.25, 0.464621
4469.1, 0.464337
4472.95, 0.464337
4476.82, 0.464621
4480.69, 0.464693
4484.56, 0.464835
4488.44, 0.464835
4492.33, 0.465120
4496.23, 0.465405
4500.13, 0.465975
4504.04, 0.466758
4507.96, 0.467613
4511.88, 0.468538
4515.81, 0.469535
4519.75, 0.470248
4523.69, 0.470746
4527.65, 0.470960
4531.6, 0.471173
4535.57, 0.471316
4539.54, 0.471387
4543.52, 0.471245
4547.5, 0.471173
4551.5, 0.470960
4555.5, 0.470817
4559.5, 0.470461
4563.52, 0.470105
4567.54, 0.469678
4571.56, 0.469251
4575.6, 0.468467
4579.64, 0.467755
4583.69, 0.466829
4587.75, 0.465903
4591.81, 0.464978
4595.88, 0.463909
4599.96, 0.462699
4604.04, 0.461417
4608.14, 0.459921
4612.24, 0.458141
4616.34, 0.456218
4620.46, 0.454366
4624.58, 0.452158
4628.71, 0.449666
4632.84, 0.447173
4636.99, 0.444823
4641.14, 0.442330
4645.3, 0.440051
4649.47, 0.437773
4653.64, 0.435778
4657.82, 0.433784
4662.01, 0.431933
4666.21, 0.430081
4670.41, 0.428372
4674.62, 0.426663
4678.84, 0.425310
4683.07, 0.424099
4687.3, 0.423315
4691.54, 0.422675
4695.79, 0.422176
4700.05, 0.421606
4704.31, 0.420965
4708.59, 0.419897
4712.87, 0.418544
4717.15, 0.416977
4721.45, 0.415268
4725.76, 0.413274
4730.07, 0.411137
4734.39, 0.408645
4738.72, 0.406437
4743.05, 0.404229
4747.39, 0.401950
4751.75, 0.399671
4756.1, 0.397535
4760.47, 0.395185
4764.85, 0.392906
4769.23, 0.390413
4773.62, 0.387849
4778.02, 0.385285
4782.43, 0.382722
4786.85, 0.380229
4791.27, 0.377950
4795.7, 0.375671
4800.14, 0.373677
4804.59, 0.371825
4809.05, 0.369974
4813.51, 0.368051
4817.99, 0.366769
4822.47, 0.365416
4826.96, 0.363849
4831.46, 0.362282
4835.96, 0.361000
4840.48, 0.359434
4845.0, 0.357724
4849.54, 0.356015
4854.08, 0.354235
4858.63, 0.352241
4863.18, 0.350104
4867.75, 0.347896
4872.33, 0.345760
4876.91, 0.343552
4881.5, 0.341202
4886.1, 0.338424
4890.71, 0.335362
4895.33, 0.331872
4899.96, 0.327813
4904.59, 0.323398
4909.24, 0.318769
4913.89, 0.313926
4918.55, 0.309439
4923.22, 0.305308
4927.9, 0.301819
4932.59, 0.299041
4937.29, 0.297047
4942.0, 0.295837
4946.71, 0.295267
4951.44, 0.294982
4956.17, 0.294412
4960.91, 0.292845
4965.67, 0.290566
4970.43, 0.287575
4975.2, 0.284299
4979.98, 0.280738
4984.76, 0.277035
4989.56, 0.273474
4994.37, 0.270056
4999.18, 0.266709
5004.01, 0.263575
5008.84, 0.260228
5013.69, 0.257094
5018.54, 0.254459
5023.4, 0.251539
5028.28, 0.248406
5033.16, 0.245415
5038.05, 0.242495
5042.95, 0.239717
5047.86, 0.236726
5052.78, 0.234162
5057.71, 0.231883
5062.65, 0.229889
5067.6, 0.228394
5072.56, 0.227468
5077.53, 0.227112
5082.5, 0.227326
5087.49, 0.227610
5092.49, 0.228109
5097.5, 0.228679
5102.51, 0.229320
5107.54, 0.229533
5112.58, 0.229391
5117.62, 0.228892
5122.68, 0.227966
5127.75, 0.226827
5132.82, 0.225616
5137.91, 0.224192
5143.01, 0.222910
5148.12, 0.221486
5153.23, 0.219207
5158.36, 0.216928
5163.5, 0.214934
5168.65, 0.213082
5173.81, 0.211373
5178.98, 0.209735
5184.15, 0.208168
5189.34, 0.206815
5194.54, 0.205747
5199.75, 0.204821
5204.98, 0.203539
5210.21, 0.202684
5215.45, 0.201260
5220.7, 0.198981
5225.96, 0.196916
5231.23, 0.194352
5236.52, 0.191574
5241.81, 0.188298
5247.12, 0.184666
5252.44, 0.180892
5257.76, 0.177117
5263.1, 0.173485
5268.45, 0.170138
5273.81, 0.167147
5279.18, 0.164227
5284.56, 0.161307
5289.95, 0.159028
5295.36, 0.156464
5300.77, 0.153829
5306.2, 0.151479
5311.63, 0.149129
5317.08, 0.146850
5322.54, 0.144927
5328.01, 0.143218
5333.49, 0.141794
5338.98, 0.140654
5344.49, 0.140298
5350.0, 0.140369
5355.53, 0.140013
5361.07, 0.139800
5366.62, 0.140369
5372.18, 0.141366
5377.75, 0.142791
5383.34, 0.144571
5388.93, 0.146494
5394.54, 0.148417
5400.16, 0.150553
5405.79, 0.152476
5411.44, 0.153972
5417.09, 0.155752
5422.76, 0.156963
5428.43, 0.155823
5434.12, 0.154328
5439.83, 0.152975
5445.54, 0.150981
5451.26, 0.148274
5457.0, 0.145497
5462.75, 0.142791
5468.52, 0.138731
5474.29, 0.134601
5480.08, 0.130755
5485.88, 0.126268
5491.69, 0.122138
5497.51, 0.118292
5503.35, 0.114589
5509.2, 0.110957
5515.06, 0.107609
5520.93, 0.104547
5526.82, 0.101485
5532.71, 0.0992060
5538.63, 0.0975680
5544.55, 0.0966420
5550.49, 0.0964280
5556.44, 0.0967130
5562.4, 0.0973540
5568.37, 0.0987070
5574.36, 0.100844
5580.36, 0.102695
5586.37, 0.103336
5592.4, 0.103906
5598.44, 0.104832
5604.49, 0.105615
5610.56, 0.106399
5616.63, 0.107681
5622.73, 0.109105
5628.83, 0.111241
5634.95, 0.114731
5641.08, 0.119218
5647.23, 0.122565
5653.39, 0.126126
5659.56, 0.130399
5665.74, 0.134316
5671.94, 0.138874
5678.15, 0.142435
5684.38, 0.144286
5690.62, 0.145639
5696.87, 0.145426
5703.14, 0.144714
5709.42, 0.144144
5715.72, 0.142150
5722.03, 0.139443
5728.35, 0.136595
5734.69, 0.133960
5741.03, 0.131610
5747.4, 0.129402
5753.78, 0.126197
5760.17, 0.124986
5766.58, 0.124559
5773.0, 0.121497
5779.44, 0.119645
5785.88, 0.118933
5792.35, 0.119075
5798.83, 0.120713
5805.32, 0.122992
5811.83, 0.126197
5818.35, 0.130826
5824.89, 0.134102
5831.45, 0.135242
5838.01, 0.136167
5844.59, 0.137236
5851.19, 0.138589
5857.8, 0.139942
5864.43, 0.140583
5871.07, 0.140440
5877.73, 0.142719
5884.4, 0.142007
5891.09, 0.139942
5897.79, 0.138945
5904.5, 0.135455
5911.23, 0.133532
5917.98, 0.132464
5924.75, 0.131752
5931.53, 0.133390
5938.32, 0.134886
5945.13, 0.133248
5951.96, 0.133105
5958.8, 0.134387
5965.65, 0.137164
5972.53, 0.138731
5979.42, 0.139800
5986.32, 0.142435
5993.24, 0.143645
6000.18, 0.143503
6007.13, 0.144927
6014.1, 0.146565
6021.08, 0.146280
6028.09, 0.145995
6035.1, 0.146423
6042.14, 0.149343
6049.19, 0.152120
6056.25, 0.147776
6063.34, 0.145711
6070.44, 0.146352
6077.55, 0.144571
6084.69, 0.141438
6091.84, 0.139372
6099.0, 0.137877
6106.19, 0.137592
6113.39, 0.137521
6120.61, 0.133888
6127.84, 0.130612
6135.09, 0.129046
6142.36, 0.127621
6149.65, 0.125841
6156.95, 0.124559
6164.27, 0.122422
6171.61, 0.120072
6178.97, 0.119716
6186.34, 0.119360
6193.73, 0.117081
6201.14, 0.115870
6208.57, 0.115443
6216.01, 0.115158
6223.47, 0.114731
6230.95, 0.114589
6238.45, 0.114517
6245.97, 0.114446
6253.5, 0.114517
6261.06, 0.114945
6268.63, 0.115443
6276.21, 0.116084
6283.82, 0.116725
6291.45, 0.117509
6299.1, 0.118363
6306.76, 0.118933
6314.44, 0.119289
6322.14, 0.119716
6329.86, 0.120500
6337.6, 0.122636
6345.35, 0.124773
6353.13, 0.123989
6360.92, 0.124132
6368.74, 0.125485
6376.57, 0.124986
6384.43, 0.124203
6392.3, 0.123633
6400.19, 0.123420
6408.1, 0.126055
6416.03, 0.126980
6423.98, 0.123918
6431.95, 0.122565
6439.94, 0.121924
6447.95, 0.121710
6455.98, 0.121497
6464.03, 0.121212
6472.1, 0.121782
6480.19, 0.122422
6488.31, 0.123491
6496.44, 0.122565
6504.59, 0.118790
6512.76, 0.117010
6520.95, 0.116155
6529.16, 0.113734
6537.4, 0.111954
6545.65, 0.111170
6553.92, 0.110387
6562.22, 0.109746
6570.54, 0.109959
6578.88, 0.108321
6587.23, 0.106683
6595.61, 0.105544
6604.02, 0.103977
6612.44, 0.103265
6620.89, 0.102980
6629.35, 0.104405
6637.84, 0.105544
6646.35, 0.103336
6654.88, 0.101485
6663.44, 0.100986
6672.01, 0.100772
6680.61, 0.0999180
6689.23, 0.0977100
6697.88, 0.0960720
6706.54, 0.0955740
6715.23, 0.0947190
6723.94, 0.0934370
6732.67, 0.0923690
6741.42, 0.0916570
6750.2, 0.0913720
6759.0, 0.0913010
6767.82, 0.0917990
6776.67, 0.0922260
6785.54, 0.0927960
6794.44, 0.0922980
6803.35, 0.0908020
6812.29, 0.0899470
6821.26, 0.0897340
6830.24, 0.0890930
6839.25, 0.0880960
6848.29, 0.0885230
6857.35, 0.0900900
6866.43, 0.0901610
6875.54, 0.0884520
6884.67, 0.0876680
6893.82, 0.0870280
6903.0, 0.0861730
6912.2, 0.0846060
6921.43, 0.0824700
6930.69, 0.0800480
6939.96, 0.0775560
6949.27, 0.0757040
6958.59, 0.0741370
6967.95, 0.0715020
6977.33, 0.0692230
6986.73, 0.0677990
6996.16, 0.0663030
7005.61, 0.0650210
7015.09, 0.0640960
7024.6, 0.0635260
7034.13, 0.0630270
7043.69, 0.0628140
7053.27, 0.0617450
7062.88, 0.0605350
7072.52, 0.0593240
7082.18, 0.0582560
7091.87, 0.0569740
7101.58, 0.0555490
7111.32, 0.0542680
7121.09, 0.0531990
7130.88, 0.0521310
7140.71, 0.0514900
7150.56, 0.0509200
7160.43, 0.0507780
7170.33, 0.0507780
7180.27, 0.0505640
7190.23, 0.0506350
7200.21, 0.0510630
7210.23, 0.0513480
7220.27, 0.0513480
7230.34, 0.0513480
7240.44, 0.0512050
7250.56, 0.0508490
7260.72, 0.0504930
7270.9, 0.0501370
7281.12, 0.0495670
7291.36, 0.0488550
7301.63, 0.0482850
7311.93, 0.0477870
7322.25, 0.0473590
7332.61, 0.0472880
7343.0, 0.0470750
7353.41, 0.0465760
7363.86, 0.0462910
7374.33, 0.0462200
7384.83, 0.0462200
7395.37, 0.0457210
7405.93, 0.0451520
7416.53, 0.0444400
7427.15, 0.0434430
7437.81, 0.0420890
7448.5, 0.0410920
7459.22, 0.0403800
7469.96, 0.0395970
7480.74, 0.0387420
7491.55, 0.0381720
7502.39, 0.0373890
7513.27, 0.0366060
7524.17, 0.0358220
7535.11, 0.0351810
7546.08, 0.0344690
7557.08, 0.0336860
7568.11, 0.0329740
7579.17, 0.0323330
7590.27, 0.0316200
7601.4, 0.0311220
7612.56, 0.0309800
7623.76, 0.0308370
7634.98, 0.0304810
7646.24, 0.0302670
7657.54, 0.0299820
7668.87, 0.0299110
7680.23, 0.0297690
7691.62, 0.0293420
7703.05, 0.0289140
7714.51, 0.0288430
7726.01, 0.0284870
7737.54, 0.0281310
7749.11, 0.0277750
7760.71, 0.0274190
7772.35, 0.0270630
7784.02, 0.0266350
7795.72, 0.0263500
7807.46, 0.0263500
7819.23, 0.0262790
7831.04, 0.0264930
7842.89, 0.0267060
7854.77, 0.0272760
7866.69, 0.0282020
7878.65, 0.0291990
7890.64, 0.0301250
7902.67, 0.0311930
7914.74, 0.0324040
7926.84, 0.0337570
7938.98, 0.0353240
7951.16, 0.0373180
7963.37, 0.0396680
7975.62, 0.0421610
7987.91, 0.0447960
8000.24, 0.0479290
8012.6, 0.0517040
8025.01, 0.0564040
8037.45, 0.0619590
8049.93, 0.0686530
8062.45, 0.0763450
8075.01, 0.0844640
8087.61, 0.0927960
8100.24, 0.101057
8112.91, 0.108464
8125.63, 0.114375
8138.39, 0.118007
8151.18, 0.119218
8164.02, 0.118790
8176.9, 0.117437
8189.81, 0.116013
8202.77, 0.114802
8215.77, 0.113449
8228.82, 0.111740
8241.9, 0.109746
8255.02, 0.107681
8268.19, 0.105758
8281.39, 0.103906
8294.65, 0.102126
8307.94, 0.100701
8321.28, 0.0994910
8334.66, 0.0982090
8348.08, 0.0969270
8361.54, 0.0955740
8375.05, 0.0946480
8388.6, 0.0939360
8402.2, 0.0933660
8415.84, 0.0931520
8429.52, 0.0932950
8443.25, 0.0940070
8457.02, 0.0948610
8470.84, 0.0957160
8484.7, 0.0962860
8498.61, 0.0959300
8512.57, 0.0941490
8526.57, 0.0905170
8540.62, 0.0859590
8554.71, 0.0816860
8568.85, 0.0779120
8583.04, 0.0745640
8597.27, 0.0712170
8611.55, 0.0681550
8625.88, 0.0663030
8640.26, 0.0663750
8654.68, 0.0679410
8669.16, 0.0694370
8683.68, 0.0705050
8698.25, 0.0712170
8712.87, 0.0715020
8727.53, 0.0717160
8742.25, 0.0719290
8757.02, 0.0720720
8771.83, 0.0721430
8786.7, 0.0724990
8801.62, 0.0725700
8816.59, 0.0726420
8831.61, 0.0727130
8846.68, 0.0727130
8861.8, 0.0727130
8876.97, 0.0727840
8892.2, 0.0727130
8907.48, 0.0725700
8922.81, 0.0723570
8938.2, 0.0725700
8953.63, 0.0730690
8969.13, 0.0739950
8984.67, 0.0752770
9000.27, 0.0767720
9015.92, 0.0784810
9031.63, 0.0801190
9047.39, 0.0814010
9063.21, 0.0824700
9079.08, 0.0840360
9095.01, 0.0858880
9111.0, 0.0876680
9127.04, 0.0892350
9143.13, 0.0909440
9159.28, 0.0923690
9175.49, 0.0939360
9191.76, 0.0954310
9208.09, 0.0969270
9224.47, 0.0983510
9240.92, 0.0997040
9257.42, 0.100915
9273.98, 0.101698
9290.6, 0.101769
9307.28, 0.101129
9324.02, 0.0997750
9340.82, 0.0977100
9357.68, 0.0948610
9374.6, 0.0920130
9391.58, 0.0895910
9408.62, 0.0873120
9425.73, 0.0856030
9442.9, 0.0846060
9460.13, 0.0846060
9477.42, 0.0850330
9494.78, 0.0855320
9512.2, 0.0861730
9529.69, 0.0869560
9547.24, 0.0874550
9564.86, 0.0876680
9582.54, 0.0877400
9600.28, 0.0880960
9618.1, 0.0893780
9635.97, 0.0909440
9653.92, 0.0923690
9671.93, 0.0935080
9690.01, 0.0944340
9708.16, 0.0954310
9726.37, 0.0969270
9744.65, 0.0982800
9763.0, 0.0997040
9781.43, 0.101129
9799.92, 0.102838
9818.48, 0.104761
9837.1, 0.106683
9855.8, 0.108749
9874.58, 0.111099
9893.42, 0.113307
9912.34, 0.115301
9931.33, 0.117152
9950.39, 0.119075
9969.52, 0.120998
9988.74, 0.122850
10008.0, 0.124132
10027.4, 0.125058
10046.8, 0.125841
10066.3, 0.126197
10085.9, 0.126197
10105.6, 0.125841
10125.3, 0.125200
10145.1, 0.124773
10165.0, 0.124203
10185.0, 0.123633
10205.0, 0.122850
10225.2, 0.121853
10245.4, 0.120713
10265.7, 0.119574
10286.0, 0.118506
10306.5, 0.118007
10327.0, 0.118719
10347.6, 0.120571
10368.3, 0.122921
10389.1, 0.124915
10409.9, 0.126411
10430.9, 0.127408
10451.9, 0.128334
10473.0, 0.128832
10494.2, 0.129046
10515.5, 0.129046
10536.9, 0.128761
10558.4, 0.128761
10579.9, 0.128405
10601.5, 0.127479
10623.3, 0.126411
10645.1, 0.125342
10667.0, 0.124132
10689.0, 0.122992
10711.1, 0.121710
10733.2, 0.120713
10755.5, 0.120571
10777.9, 0.121212
10800.3, 0.122422
10822.9, 0.124488
10845.5, 0.126838
10868.2, 0.128618
10891.1, 0.130256
10914.0, 0.131610
10937.0, 0.132250
10960.2, 0.132749
10983.4, 0.133176
11006.7, 0.133390
11030.1, 0.133176
11053.6, 0.132820
11077.3, 0.131396
11101.0, 0.128120
11124.8, 0.122707
11148.7, 0.116369
11172.7, 0.111028
11196.9, 0.106897
11221.1, 0.103407
11245.4, 0.0999180
11269.9, 0.0968550
11294.4, 0.0936510
11319.1, 0.0903750
11343.9, 0.0880960
11368.8, 0.0861020
11393.7, 0.0841080
11418.8, 0.0819000
11444.0, 0.0789090
11469.4, 0.0756330
11494.8, 0.0721430
11520.3, 0.0687960
11546.0, 0.0657340
11571.8, 0.0628850
11597.7, 0.0609620
11623.7, 0.0603210
11649.8, 0.0610330
11676.0, 0.0626000
11702.4, 0.0644520
11728.9, 0.0660180
11755.5, 0.0669440
11782.2, 0.0671580
11809.0, 0.0670150
11836.0, 0.0665880
11863.0, 0.0658760
11890.3, 0.0652350
11917.6, 0.0643090
11945.0, 0.0631700
11972.6, 0.0624580
12000.4, 0.0623860
12028.2, 0.0633120
12056.2, 0.0650930
12084.3, 0.0668730
12112.5, 0.0685110
12140.9, 0.0701490
12169.4, 0.0715730
12198.0, 0.0729260
12226.8, 0.0742800
12255.7, 0.0752770
12284.7, 0.0754190
12313.9, 0.0742800
12343.2, 0.0718580
12372.7, 0.0691520
12402.3, 0.0666590
12432.0, 0.0643800
12461.9, 0.0623150
12491.9, 0.0604630
12522.1, 0.0588250
12552.4, 0.0571870
12582.9, 0.0557630
12613.5, 0.0544100
12644.3, 0.0531990
12675.2, 0.0524870
12706.3, 0.0517750
12737.5, 0.0506350
12768.9, 0.0499230
12800.4, 0.0491400
12832.1, 0.0477870
12863.9, 0.0464340
12895.9, 0.0453650
12928.1, 0.0445110
12960.4, 0.0435850
12992.9, 0.0427300
13025.5, 0.0427300
13058.3, 0.0436560
13091.3, 0.0450090
13124.4, 0.0470750
13157.8, 0.0494960
13191.2, 0.0521310
13224.9, 0.0546240
13258.7, 0.0574010
13292.7, 0.0608200
13326.9, 0.0649500
13361.2, 0.0698640
13395.7, 0.0757040
13430.4, 0.0825410
13465.3, 0.0899470
13500.4, 0.0974960
13535.7, 0.105686
13571.1, 0.113663
13606.7, 0.121141
13642.5, 0.128120
13678.5, 0.135028
13714.7, 0.141794
13751.1, 0.147491
13787.6, 0.152547
13824.4, 0.156820
13861.4, 0.159527
13898.5, 0.161236
13935.9, 0.162019
13973.5, 0.161806
14011.2, 0.161450
14049.2, 0.161236
14087.4, 0.160168
14125.8, 0.158245
14164.3, 0.155539
14203.2, 0.152761
14242.2, 0.149984
14281.4, 0.146779
14320.9, 0.143004
14360.5, 0.140084
14400.4, 0.137378
14440.5, 0.134316
14480.9, 0.130612
14521.4, 0.124060
14562.2, 0.114090
14603.3, 0.102767
14644.5, 0.0931520
14686.0, 0.0867430
14727.7, 0.0820420
14769.7, 0.0777690
14811.9, 0.0736390
14854.3, 0.0696500
14897.0, 0.0658050
14939.9, 0.0618170
14983.1, 0.0574010
15026.5, 0.0529140
15070.2, 0.0489260
15114.2, 0.0452940
15158.3, 0.0418760
15202.8, 0.0381720
15247.5, 0.0349680
15292.5, 0.0321900
15337.7, 0.0299820
15383.2, 0.0296260
15429.0, 0.0317630
15475.1, 0.0361070
15521.4, 0.0416620
15568.0, 0.0477160
15614.9, 0.0533420
15662.1, 0.0577570
15709.6, 0.0589680
15757.3, 0.0570450
15805.4, 0.0544810
15853.7, 0.0551930
15902.3, 0.0621730
15951.2, 0.0744930
16000.5, 0.0879530
16050.0, 0.0999890
16099.8, 0.110529
16150.0, 0.119645
16200.5, 0.127052
16251.3, 0.132820
16302.4, 0.136808
16353.8, 0.138802
16405.5, 0.139372
16457.6, 0.140013
16510.0, 0.141224
16562.8, 0.142719
16615.9, 0.143360
16669.3, 0.143147
16723.1, 0.142435
16777.2, 0.142007
16831.7, 0.141580
16886.5, 0.140512
16941.7, 0.139443
16997.2, 0.138874
17053.1, 0.138304
17109.4, 0.137592
17166.1, 0.136452
17223.1, 0.135313
17280.5, 0.134173
17338.3, 0.133176
17396.5, 0.132464
17455.1, 0.131894
17514.0, 0.130541
17573.4, 0.129544
17633.2, 0.128690
17693.4, 0.126909
17754.0, 0.125129
17815.0, 0.123989
17876.4, 0.123277
17938.3, 0.122565
18000.5, 0.121924
18063.3, 0.119787
18126.4, 0.117651
18190.0, 0.116369
18254.1, 0.113378
18318.6, 0.108891
18383.5, 0.102838
18449.0, 0.0957160
18514.9, 0.0910160
18581.2, 0.0901610
18648.0, 0.0922260
18715.4, 0.0960720
18783.2, 0.100060
18851.5, 0.104120
18920.3, 0.105971
18989.6, 0.104974
19059.4, 0.103977
19129.7, 0.101983
19200.6, 0.0974250
19272.0, 0.0937220
19343.9, 0.0925110
19416.3, 0.0936510
19489.3, 0.0937930
19562.8, 0.0935080
19637.0, 0.0927250
19711.6, 0.0917990
19786.8, 0.0889500
19862.6, 0.0848200
19939.0, 0.0821140
20016.0, 0.0843210
20093.6, 0.0912290
20171.8, 0.0988500
20250.6, 0.106043
20330.0, 0.109532
20410.0, 0.109461
20490.7, 0.108179
20572.0, 0.104832
20654.0, 0.101485
20736.6, 0.0991340
20819.9, 0.0987070
20903.8, 0.101271
20988.5, 0.106541
21073.8, 0.113093
21159.8, 0.120215
21246.5, 0.125770
21334.0, 0.127693
21422.1, 0.127764
21511.0, 0.129046
21600.7, 0.130043
21691.0, 0.132322
21782.1, 0.136096
21874.0, 0.138090
21966.7, 0.138446
22060.2, 0.140512
22154.5, 0.142506
22249.6, 0.143859
22345.5, 0.144642
22442.2, 0.146992
22539.8, 0.149414
22638.2, 0.151764
22737.5, 0.155182
22837.7, 0.157319
22938.7, 0.158102
23040.7, 0.158815
23143.5, 0.159171
23247.3, 0.158601
23352.1, 0.156322
23457.7, 0.151123
23564.4, 0.144001
23672.0, 0.140084
23780.5, 0.138660
23890.1, 0.136167
24000.7, 0.130897
24112.3, 0.127977
24225.0, 0.127550
24338.7, 0.128262
24453.5, 0.124630
24569.4, 0.121069
24686.4, 0.120713
24804.5, 0.121283
