ENVI ASCII Plot File
Column 1: Wavelength
Column 2: BG
Column 3: RED
Column 4: NIR
     0.350000  0.000193620 8.03627e-007 1.23223e-006
     0.351000 3.24142e-005 1.40029e-006 1.55588e-007
     0.352000 2.43774e-005 2.85907e-006     0.000000
     0.353000 3.13314e-005 7.26385e-007 3.87406e-007
     0.354000 7.05653e-005 9.27881e-007 3.24758e-007
     0.355000  0.000250781 1.50672e-006     0.000000
     0.356000  0.000365213 1.00818e-006 2.52045e-007
     0.357000  0.000203229 9.57875e-007 7.18406e-007
     0.358000  0.000103294 9.62488e-007 5.38993e-007
     0.359000 9.71546e-005     0.000000 7.28296e-007
     0.360000  0.000166106 1.17341e-006 9.31825e-007
     0.361000  0.000414698 1.65801e-006 7.80240e-007
     0.362000  0.000713307 5.52737e-007 5.83445e-007
     0.363000  0.000577256 1.04971e-006 1.10803e-006
     0.364000  0.000364375 4.43953e-007 1.58158e-006
     0.365000  0.000305313 3.15732e-007 1.49973e-006
     0.366000  0.000390877 6.30773e-007 8.57851e-007
     0.367000  0.000692257 6.21244e-007     0.000000
     0.368000   0.00150410 9.22834e-007 1.15354e-007
     0.369000   0.00284255     0.000000 3.37782e-007
     0.370000   0.00382842 4.37834e-008 5.47293e-007
     0.371000   0.00465242 3.28344e-007 6.34799e-007
     0.372000   0.00631930 3.91868e-007 8.49047e-007
     0.373000   0.00976237 2.39189e-007 2.60933e-007
     0.374000    0.0145703 4.19473e-007     0.000000
     0.375000    0.0180385     0.000000 3.57755e-007
     0.376000    0.0200207 4.66851e-008     0.000000
     0.377000    0.0218267 6.91930e-007 7.66064e-007
     0.378000    0.0242618 4.50465e-007     0.000000
     0.379000    0.0272950 7.78547e-007 1.06690e-006
     0.380000    0.0307226 1.02122e-006 1.56375e-006
     0.381000    0.0345428 1.03395e-006 6.77416e-007
     0.382000    0.0387747 7.60045e-007 1.56009e-006
     0.383000    0.0439917 1.09384e-006 1.64077e-006
     0.384000    0.0504624 1.78877e-006 2.20966e-006
     0.385000    0.0577519 2.17658e-006 1.99520e-006
     0.386000    0.0649705 2.51971e-006 1.49821e-006
     0.387000    0.0738472 2.40048e-006 3.87174e-007
     0.388000    0.0841941 2.21580e-006 3.10212e-006
     0.389000    0.0944166 9.99456e-007 4.69744e-006
     0.390000     0.106511 3.84108e-006 6.77838e-007
     0.391000     0.118260 5.00581e-006 2.25261e-006
     0.392000     0.133003 4.33466e-006 1.95759e-006
     0.393000     0.149693 3.43308e-006 2.80889e-006
     0.394000     0.165094 3.41244e-006 5.28929e-006
     0.395000     0.180301 6.28831e-006 9.43247e-006
     0.396000     0.195794 7.18671e-006     0.000000
     0.397000     0.211043 6.42797e-006 5.57091e-006
     0.398000     0.225812 5.03543e-006 8.69756e-006
     0.399000     0.238864 5.81084e-006 1.08953e-005
     0.400000     0.252939 1.18013e-005 8.97928e-006
     0.401000     0.267031 1.32892e-005 1.16619e-005
     0.402000     0.280216 1.16741e-005 6.26417e-006
     0.403000     0.293292 7.44517e-006 5.65833e-006
     0.404000     0.305285 4.95458e-006 1.26961e-005
     0.405000     0.317703 5.79275e-006 1.51255e-005
     0.406000     0.331958 2.35221e-006 1.88177e-005
     0.407000     0.345701 1.43459e-005 5.94829e-006
     0.408000     0.359501 1.16533e-005 4.73415e-006
     0.409000     0.369315 9.74446e-006 1.23680e-005
     0.410000     0.382365 1.32477e-005 1.20788e-005
     0.411000     0.391125 1.12329e-005 2.24658e-005
     0.412000     0.396659 1.02656e-005 1.31400e-005
     0.413000     0.402998 2.10786e-005 1.01177e-005
     0.414000     0.412114 2.17436e-005 1.13067e-005
     0.415000     0.424980 1.08238e-005 1.80397e-005
     0.416000     0.433129 1.65631e-005     0.000000
     0.417000     0.441191 2.14728e-005     0.000000
     0.418000     0.455935 2.00930e-005 7.17608e-006
     0.419000     0.467597 1.55449e-005 8.25825e-006
     0.420000     0.480934 1.33713e-005 1.63426e-005
     0.421000     0.496192 1.62258e-005 2.94093e-005
     0.422000     0.508134 2.01339e-005 1.70364e-005
     0.423000     0.522738 2.32994e-005 1.48269e-005
     0.424000     0.536458 2.06182e-005 1.73627e-005
     0.425000     0.548227 1.49935e-005 3.33188e-005
     0.426000     0.550746 2.23878e-006 2.63057e-005
     0.427000     0.555760 2.26980e-006 2.38329e-005
     0.428000     0.561905 2.59394e-005     0.000000
     0.429000     0.564271 2.43766e-005 8.70592e-006
     0.430000     0.573140 1.17708e-005 2.00104e-005
     0.431000     0.584573 1.55419e-005 2.80950e-005
     0.432000     0.598240 2.49370e-005 2.06795e-005
     0.433000     0.616190 2.24303e-005 1.24613e-005
     0.434000     0.620676 6.25272e-006 8.75380e-006
     0.435000     0.625438 5.65484e-006 1.82212e-005
     0.436000     0.630122 1.32937e-005 2.21562e-005
     0.437000     0.640893 1.35374e-005 7.09102e-006
     0.438000     0.650015 1.43991e-005 4.58153e-006
     0.439000     0.654915 2.97301e-005 2.18021e-005
     0.440000     0.659888 2.13457e-005 1.46751e-005
     0.441000     0.666237 1.75498e-005 1.88998e-005
     0.442000     0.668124 2.03456e-005 5.42550e-006
     0.443000     0.670413 2.86294e-005 2.52212e-005
     0.444000     0.682232 3.81364e-005 2.91223e-005
     0.445000     0.691307 3.29528e-005 2.17348e-005
     0.446000     0.702884 2.34520e-005 3.26906e-005
     0.447000     0.716035 2.74169e-005 3.75178e-005
     0.448000     0.722375 3.70278e-005 4.06579e-005
     0.449000     0.726644 4.37869e-005 2.55424e-005
     0.450000     0.729782 5.42550e-005 2.12621e-005
     0.451000     0.732579 4.41996e-005 2.06265e-005
     0.452000     0.742485 3.36115e-005 2.76361e-005
     0.453000     0.756066 3.72652e-005 3.87863e-005
     0.454000     0.755090 3.94767e-005 4.47908e-005
     0.455000     0.754155 3.93929e-005 3.10598e-005
     0.456000     0.757641 3.65547e-005 1.90389e-005
     0.457000     0.766213 3.70449e-005 1.77507e-005
     0.458000     0.767517 2.79357e-005 2.40557e-005
     0.459000     0.769674 3.67308e-005 2.73527e-005
     0.460000     0.768063 7.67139e-005 1.64387e-005
     0.461000     0.765566 6.26115e-005 1.87834e-005
     0.462000     0.762376 3.27511e-005 1.94947e-005
     0.463000     0.762350 3.82173e-005 2.33984e-005
     0.464000     0.769732 3.46198e-005 2.98989e-005
     0.465000     0.774002 4.58120e-005 1.65871e-005
     0.466000     0.779024 5.23612e-005 1.58670e-005
     0.467000     0.781948 4.21227e-005 1.27163e-005
     0.468000     0.788529 4.47841e-005 2.71904e-005
     0.469000     0.794919 5.31035e-005 2.41380e-005
     0.470000     0.798373 6.45156e-005 1.77418e-005
     0.471000     0.798654 7.00298e-005 1.44889e-005
     0.472000     0.808216 6.74719e-005 1.62583e-005
     0.473000     0.809030 6.99312e-005 2.03288e-005
     0.474000     0.814246 8.51345e-005 2.70138e-005
     0.475000     0.816548  0.000104335 3.94337e-005
     0.476000     0.815755  0.000119158 1.97227e-005
     0.477000     0.819842  0.000138113     0.000000
     0.478000     0.824102  0.000145647 9.98720e-006
     0.479000     0.825689  0.000168523 1.50169e-005
     0.480000     0.824325  0.000221622 2.08291e-005
     0.481000     0.828848  0.000255396 2.34462e-005
     0.482000     0.826684  0.000281886 1.75136e-005
     0.483000     0.827549  0.000341907 1.33427e-005
     0.484000     0.831145  0.000401564 8.36591e-006
     0.485000     0.831765  0.000465818 2.17437e-005
     0.486000     0.839131  0.000562214 3.28731e-005
     0.487000     0.841171  0.000635678 2.61700e-005
     0.488000     0.838403  0.000697352 2.52359e-005
     0.489000     0.839133  0.000775868 2.19029e-005
     0.490000     0.833355  0.000860303 2.76436e-005
     0.491000     0.835882   0.00100440 3.78860e-005
     0.492000     0.830575   0.00110673 3.69189e-005
     0.493000     0.831790   0.00113141 3.20370e-005
     0.494000     0.839566   0.00119069 3.24345e-005
     0.495000     0.840613   0.00129527 3.34097e-005
     0.496000     0.839651   0.00137004 4.28406e-005
     0.497000     0.838617   0.00144771 3.67698e-005
     0.498000     0.839776   0.00150975 2.22147e-005
     0.499000     0.845190   0.00158137 2.39991e-005
     0.500000     0.851790   0.00166347 3.18574e-005
     0.501000     0.853770   0.00174977 3.61665e-005
     0.502000     0.855547   0.00185140 2.58575e-005
     0.503000     0.853997   0.00194000 1.80746e-005
     0.504000     0.849218   0.00203976 1.54397e-005
     0.505000     0.842624   0.00210415 2.56395e-005
     0.506000     0.841962   0.00224449 3.00180e-005
     0.507000     0.839043   0.00238636 2.91543e-005
     0.508000     0.837807   0.00252467 2.83092e-005
     0.509000     0.837919   0.00266089 4.12142e-005
     0.510000     0.842454   0.00280183 2.24146e-005
     0.511000     0.848675   0.00296472 1.12497e-005
     0.512000     0.850465   0.00310253 7.77359e-006
     0.513000     0.853204   0.00322734 7.76424e-006
     0.514000     0.856784   0.00332032 1.38095e-005
     0.515000     0.858409   0.00339446 1.63942e-005
     0.516000     0.857918   0.00346519 2.06877e-005
     0.517000     0.862577   0.00356213 2.69135e-005
     0.518000     0.859354   0.00361274 4.07778e-005
     0.519000     0.859150   0.00368359 8.70414e-006
     0.520000     0.856692   0.00373012     0.000000
     0.521000     0.855257   0.00380015 1.65565e-005
     0.522000     0.854518   0.00391040 2.52734e-005
     0.523000     0.852986   0.00404747 2.26067e-005
     0.524000     0.857416   0.00426146 2.26952e-005
     0.525000     0.860754   0.00451191 1.48735e-005
     0.526000     0.857467   0.00480754 1.82862e-005
     0.527000     0.859262   0.00524118 2.26702e-005
     0.528000     0.862882   0.00581817 8.75703e-006
     0.529000     0.861088   0.00648347 1.75016e-005
     0.530000     0.860722   0.00737294 8.76685e-007
     0.531000     0.862962   0.00845972 1.23178e-005
     0.532000     0.864731   0.00977248 2.82263e-005
     0.533000     0.867767    0.0114210 3.71502e-005
     0.534000     0.868043    0.0133359 3.61909e-005
     0.535000     0.870660    0.0156827 1.05916e-005
     0.536000     0.877667    0.0186204     0.000000
     0.537000     0.879886    0.0220457     0.000000
     0.538000     0.880317    0.0261219 2.74278e-005
     0.539000     0.880603    0.0309640 4.68749e-005
     0.540000     0.878041    0.0365418 4.85330e-005
     0.541000     0.877546    0.0432341 2.65251e-005
     0.542000     0.874884    0.0508870 2.73976e-005
     0.543000     0.870331    0.0596088 2.73160e-005
     0.544000     0.869560    0.0699416 2.99721e-005
     0.545000     0.870268    0.0816492 3.44098e-005
     0.546000     0.870738    0.0951164 2.02807e-005
     0.547000     0.874658     0.110821 2.65016e-005
     0.548000     0.881760     0.129199 3.73409e-005
     0.549000     0.884733     0.149294 4.54106e-005
     0.550000     0.883297     0.170841 4.97252e-005
     0.551000     0.885331     0.195215 2.49351e-005
     0.552000     0.885639     0.221952 2.58820e-005
     0.553000     0.881850     0.249492 2.58200e-005
     0.554000     0.881072     0.279513 3.65191e-005
     0.555000     0.888907     0.313905 5.30610e-005
     0.556000     0.892204     0.348373 4.06282e-005
     0.557000     0.886515     0.379465 2.86869e-005
     0.558000     0.883768     0.411996 2.94774e-005
     0.559000     0.883105     0.444363 3.21220e-005
     0.560000     0.876133     0.472550 4.07248e-005
     0.561000     0.879998     0.505558 1.24739e-005
     0.562000     0.886831     0.540030 5.40201e-005
     0.563000     0.881594     0.564970 4.84545e-005
     0.564000     0.876266     0.587230     0.000000
     0.565000     0.872447     0.608598 3.92500e-005
     0.566000     0.868101     0.627507 4.89121e-005
     0.567000     0.864186     0.647187 5.69410e-005
     0.568000     0.850999     0.665548 3.91735e-005
     0.569000     0.823115     0.682330 2.75962e-005
     0.570000     0.775538     0.699085 4.99168e-005
     0.571000     0.705371     0.714745 8.29450e-005
     0.572000     0.620190     0.730885 8.13674e-005
     0.573000     0.527940     0.747710  0.000105836
     0.574000     0.436227     0.757700 7.68178e-005
     0.575000     0.354578     0.765675 8.16162e-005
     0.576000     0.289125     0.779353 6.92537e-005
     0.577000     0.236422     0.794012 6.94650e-005
     0.578000     0.194706     0.806955 7.31641e-005
     0.579000     0.161563     0.816355 8.45927e-005
     0.580000     0.134897     0.820164 7.42894e-005
     0.581000     0.114384     0.828633 4.77558e-005
     0.582000    0.0985371     0.845055 5.81261e-005
     0.583000    0.0843415     0.851313 6.26163e-005
     0.584000    0.0721536     0.855457 8.49128e-005
     0.585000    0.0620857     0.863484  0.000119511
     0.586000    0.0532070     0.867709 4.59310e-005
     0.587000    0.0455005     0.868442 6.30363e-005
     0.588000    0.0388308     0.866750 5.39454e-005
     0.589000    0.0334020     0.866791 9.70832e-005
     0.590000    0.0289762     0.865870 9.53314e-005
     0.591000    0.0254069     0.864963 8.99167e-005
     0.592000    0.0225648     0.864192  0.000106187
     0.593000    0.0203174     0.863585  0.000131475
     0.594000    0.0184287     0.858123  0.000144240
     0.595000    0.0170834     0.855315  0.000182261
     0.596000    0.0162201     0.860184  0.000204874
     0.597000    0.0157141     0.867729  0.000221096
     0.598000    0.0153664     0.870442  0.000257847
     0.599000    0.0153056     0.875964  0.000233632
     0.600000    0.0154192     0.879506  0.000215807
     0.601000    0.0155796     0.876263  0.000173561
     0.602000    0.0158761     0.874282  0.000147411
     0.603000    0.0161989     0.873305  0.000125209
     0.604000    0.0164537     0.873074  0.000121254
     0.605000    0.0165130     0.875138  0.000120290
     0.606000    0.0161605     0.871455  0.000100713
     0.607000    0.0155849     0.874971 9.72993e-005
     0.608000    0.0146544     0.875849 7.49084e-005
     0.609000    0.0135363     0.878474 9.46593e-005
     0.610000    0.0123286     0.882362 9.49798e-005
     0.611000    0.0110900     0.882572  0.000103905
     0.612000    0.0100287     0.887034  0.000117890
     0.613000   0.00910198     0.889770 9.56868e-005
     0.614000   0.00826364     0.886915  0.000122451
     0.615000   0.00758331     0.883628  0.000139168
     0.616000   0.00699363     0.881313  0.000154179
     0.617000   0.00657612     0.879868  0.000225805
     0.618000   0.00628166     0.882411  0.000377980
     0.619000   0.00600881     0.880292  0.000501483
     0.620000   0.00576991     0.877092  0.000526085
     0.621000   0.00557808     0.878089  0.000404976
     0.622000   0.00540590     0.879011  0.000225770
     0.623000   0.00518581     0.871196  0.000143604
     0.624000   0.00500799     0.873791 9.39166e-005
     0.625000   0.00479741     0.874903 5.55028e-005
     0.626000   0.00455149     0.872933 4.82017e-005
     0.627000   0.00431715     0.873959 6.07294e-005
     0.628000   0.00406784     0.874357 4.19549e-005
     0.629000   0.00384889     0.877060 2.68340e-005
     0.630000   0.00363727     0.879982 2.86893e-005
     0.631000   0.00345825     0.879642 3.67137e-005
     0.632000   0.00331318     0.882475 3.94960e-005
     0.633000   0.00318380     0.883272     0.000000
     0.634000   0.00308113     0.875836 2.04460e-005
     0.635000   0.00306410     0.879957 2.05285e-005
     0.636000   0.00312447     0.890263 3.70348e-005
     0.637000   0.00318284     0.890112 1.98702e-005
     0.638000   0.00331906     0.893681 2.35716e-005
     0.639000   0.00349760     0.888341 4.50838e-006
     0.640000   0.00379073     0.886513     0.000000
     0.641000   0.00419684     0.884331 9.89185e-006
     0.642000   0.00475052     0.884390 3.06020e-005
     0.643000   0.00552394     0.886584 3.88310e-005
     0.644000   0.00658200     0.888539 2.44617e-005
     0.645000   0.00801396     0.884308     0.000000
     0.646000   0.00996949     0.880376 2.33920e-005
     0.647000    0.0126182     0.879282 3.05590e-005
     0.648000    0.0157622     0.868665 2.75377e-005
     0.649000    0.0191515     0.860738 2.02699e-005
     0.650000    0.0220505     0.864943 1.15146e-005
     0.651000    0.0231159     0.866596 2.12895e-005
     0.652000    0.0219218     0.867067 3.81479e-005
     0.653000    0.0193231     0.871044 3.20686e-005
     0.654000    0.0162505     0.873106 2.76613e-005
     0.655000    0.0133666     0.870884 2.40055e-005
     0.656000    0.0110317     0.870903 5.32978e-006
     0.657000   0.00916367     0.868620 7.08030e-006
     0.658000   0.00774371     0.871200 3.10351e-005
     0.659000   0.00648592     0.859564 2.44686e-005
     0.660000   0.00559351     0.863412 1.49067e-005
     0.661000   0.00487762     0.869451 1.67585e-005
     0.662000   0.00423158     0.868390 2.28925e-005
     0.663000   0.00365202     0.862822 2.62421e-005
     0.664000   0.00318752     0.861792 4.97913e-005
     0.665000   0.00277005     0.862264 2.88456e-005
     0.666000   0.00240352     0.856848 1.99859e-005
     0.667000   0.00209342     0.855193 3.29808e-005
     0.668000   0.00181189     0.847420 4.90864e-005
     0.669000   0.00155787     0.839083 6.48758e-005
     0.670000   0.00138931     0.834557 3.65385e-005
     0.671000   0.00125389     0.843371 1.54908e-005
     0.672000   0.00114031     0.842905     0.000000
     0.673000   0.00103795     0.841265 2.15342e-005
     0.674000  0.000951136     0.832966 3.24736e-005
     0.675000  0.000874923     0.829719 2.81408e-005
     0.676000  0.000795202     0.822649 3.55681e-005
     0.677000  0.000754891     0.820783 1.35406e-005
     0.678000  0.000728521     0.817640     0.000000
     0.679000  0.000703866     0.811997 1.76176e-005
     0.680000  0.000688824     0.821058 1.18763e-005
     0.681000  0.000671119     0.814504 7.57851e-006
     0.682000  0.000688762     0.821045 2.46290e-005
     0.683000  0.000722409     0.824510 2.30284e-005
     0.684000  0.000733674     0.822590     0.000000
     0.685000  0.000753803     0.823269     0.000000
     0.686000  0.000774121     0.825298 1.87150e-005
     0.687000  0.000792783     0.823264 7.63106e-006
     0.688000  0.000845537     0.824810     0.000000
     0.689000  0.000900573     0.813665     0.000000
     0.690000  0.000992805     0.821561 1.43152e-005
     0.691000   0.00108807     0.818084 9.20671e-006
     0.692000   0.00118977     0.808501 1.40362e-005
     0.693000   0.00132905     0.817842 3.75203e-005
     0.694000   0.00148224     0.825697 3.19484e-005
     0.695000   0.00165794     0.826759 1.93469e-005
     0.696000   0.00183646     0.819770 1.83230e-005
     0.697000   0.00206078     0.816849 1.99029e-005
     0.698000   0.00231776     0.817647 3.81729e-005
     0.699000   0.00260148     0.821582 2.16790e-005
     0.700000   0.00289061     0.815798     0.000000
     0.701000   0.00322855     0.814246 3.31048e-006
     0.702000   0.00356525     0.806195 1.72234e-005
     0.703000   0.00392935     0.802347 2.20566e-005
     0.704000   0.00429098     0.795727 2.75948e-005
     0.705000   0.00470726     0.793046 2.59353e-005
     0.706000   0.00519456     0.789688 1.78034e-005
     0.707000   0.00579707     0.789715 2.02695e-005
     0.708000   0.00654138     0.789809 2.76282e-005
     0.709000   0.00742504     0.786965 3.48936e-005
     0.710000   0.00850367     0.784500 2.91805e-005
     0.711000   0.00991288     0.785813 1.38334e-005
     0.712000    0.0116154     0.780436 1.53814e-005
     0.713000    0.0137269     0.775113 2.33725e-005
     0.714000    0.0162925     0.770945 3.77308e-005
     0.715000    0.0194133     0.776890 4.45223e-005
     0.716000    0.0223974     0.774049 2.98708e-005
     0.717000    0.0247315     0.770991     0.000000
     0.718000    0.0256789     0.767835 7.21318e-006
     0.719000    0.0249318     0.764633 1.43662e-005
     0.720000    0.0228789     0.764765 2.23450e-005
     0.721000    0.0199376     0.758553 2.45079e-005
     0.722000    0.0170610     0.754684 2.20020e-005
     0.723000    0.0145374     0.750628 3.35537e-005
     0.724000    0.0126229     0.756583 4.63472e-005
     0.725000    0.0110103     0.756379 3.29229e-005
     0.726000   0.00984426     0.762181 3.07436e-005
     0.727000   0.00895167     0.768865 3.56830e-005
     0.728000   0.00816041     0.761455 3.60872e-005
     0.729000   0.00763710     0.758544 3.43310e-005
     0.730000   0.00731352     0.759724 6.15760e-005
     0.731000   0.00711338     0.761608 6.15708e-005
     0.732000   0.00700360     0.761938 5.75852e-005
     0.733000   0.00704302     0.759192 7.12354e-005
     0.734000   0.00726880     0.762851  0.000101776
     0.735000   0.00752403     0.760170 9.90106e-005
     0.736000   0.00789963     0.757660 9.47124e-005
     0.737000   0.00841365     0.754301 9.65677e-005
     0.738000   0.00913545     0.754538  0.000100356
     0.739000    0.0100223     0.750268  0.000126469
     0.740000    0.0111544     0.748514  0.000146778
     0.741000    0.0125174     0.746248  0.000157766
     0.742000    0.0141627     0.743211  0.000178395
     0.743000    0.0162087     0.745858  0.000200444
     0.744000    0.0185837     0.749091  0.000228326
     0.745000    0.0212219     0.751269  0.000264669
     0.746000    0.0235216     0.740124  0.000296431
     0.747000    0.0258909     0.736221  0.000338231
     0.748000    0.0280026     0.738578  0.000384479
     0.749000    0.0291131     0.734984  0.000438913
     0.750000    0.0292825     0.731725  0.000513241
     0.751000    0.0286429     0.730835  0.000596180
     0.752000    0.0270488     0.727310  0.000705327
     0.753000    0.0249889     0.724662  0.000781953
     0.754000    0.0225423     0.718430  0.000890365
     0.755000    0.0201469     0.716615   0.00108325
     0.756000    0.0178837     0.718046   0.00120297
     0.757000    0.0157052     0.718393   0.00137899
     0.758000    0.0136893     0.716462   0.00158873
     0.759000    0.0119369     0.717899   0.00184460
     0.760000    0.0102804     0.711356   0.00212203
     0.761000   0.00890879     0.709426   0.00247158
     0.762000   0.00778188     0.711054   0.00289171
     0.763000   0.00676953     0.709678   0.00336320
     0.764000   0.00586425     0.702559   0.00386875
     0.765000   0.00516870     0.706786   0.00455142
     0.766000   0.00460276     0.710411   0.00538863
     0.767000   0.00408116     0.706526   0.00628819
     0.768000   0.00362743     0.705191   0.00741472
     0.769000   0.00324138     0.703171   0.00867972
     0.770000   0.00293449     0.705882    0.0103571
     0.771000   0.00262785     0.697253    0.0121188
     0.772000   0.00241895     0.692074    0.0143077
     0.773000   0.00226569     0.702673    0.0173184
     0.774000   0.00210598     0.700862    0.0205751
     0.775000   0.00196261     0.697622    0.0245063
     0.776000   0.00186049     0.696297    0.0293363
     0.777000   0.00176690     0.694824    0.0353069
     0.778000   0.00167906     0.684672    0.0420777
     0.779000   0.00161579     0.683508    0.0509145
     0.780000   0.00157597     0.684902    0.0618653
     0.781000   0.00151087     0.684973    0.0751535
     0.782000   0.00152496     0.682740    0.0912685
     0.783000   0.00152345     0.677910     0.110154
     0.784000   0.00151307     0.674337     0.132932
     0.785000   0.00151033     0.672666     0.160724
     0.786000   0.00153766     0.671472     0.193606
     0.787000   0.00164142     0.664932     0.230014
     0.788000   0.00162753     0.665143     0.273720
     0.789000   0.00168250     0.664918     0.320915
     0.790000   0.00176130     0.662974     0.369894
     0.791000   0.00181969     0.658050     0.417300
     0.792000   0.00191556     0.653197     0.460608
     0.793000   0.00202886     0.648749     0.498242
     0.794000   0.00215994     0.644644     0.529240
     0.795000   0.00232514     0.643685     0.555553
     0.796000   0.00248806     0.640008     0.571556
     0.797000   0.00269865     0.640045     0.584128
     0.798000   0.00295985     0.636973     0.588432
     0.799000   0.00324560     0.634925     0.589677
     0.800000   0.00350128     0.630936     0.585943
     0.801000   0.00385275     0.623535     0.577503
     0.802000   0.00420343     0.618521     0.570420
     0.803000   0.00464521     0.618952     0.568229
     0.804000   0.00508311     0.613550     0.560978
     0.805000   0.00553959     0.606999     0.553254
     0.806000   0.00598286     0.599865     0.544652
     0.807000   0.00653194     0.602134     0.545330
     0.808000   0.00700132     0.598319     0.541638
     0.809000   0.00747931     0.599295     0.542023
     0.810000   0.00791434     0.603415     0.545315
     0.811000   0.00823831     0.600022     0.542202
     0.812000   0.00832597     0.592443     0.535580
     0.813000   0.00837928     0.590658     0.533355
     0.814000   0.00827783     0.588525     0.532039
     0.815000   0.00810857     0.588019     0.532050
     0.816000   0.00783511     0.589274     0.533723
     0.817000   0.00747041     0.586963     0.532976
     0.818000   0.00706578     0.584165     0.533218
     0.819000   0.00667970     0.584502     0.537741
     0.820000   0.00621802     0.582327     0.542006
     0.821000   0.00575772     0.572199     0.542134
     0.822000   0.00529952     0.556249     0.541659
     0.823000   0.00489889     0.536735     0.542189
     0.824000   0.00453301     0.513504     0.544665
     0.825000   0.00421601     0.488965     0.551678
     0.826000   0.00389994     0.453285     0.552908
     0.827000   0.00359928     0.413994     0.553979
     0.828000   0.00330165     0.365788     0.546035
     0.829000   0.00307243     0.322307     0.544381
     0.830000   0.00286249     0.281744     0.544555
     0.831000   0.00266294     0.241130     0.540001
     0.832000   0.00250319     0.206839     0.540396
     0.833000   0.00236845     0.175587     0.537026
     0.834000   0.00225923     0.148679     0.534821
     0.835000   0.00216536     0.125542     0.534044
     0.836000   0.00208998     0.107282     0.539393
     0.837000   0.00201930    0.0904181     0.537368
     0.838000   0.00195878    0.0756054     0.531072
     0.839000   0.00190345    0.0636337     0.528098
     0.840000   0.00186348    0.0536681     0.525243
     0.841000   0.00184518    0.0458942     0.528394
     0.842000   0.00181854    0.0389755     0.524152
     0.843000   0.00180252    0.0331353     0.520200
     0.844000   0.00183739    0.0285789     0.521308
     0.845000   0.00187767    0.0248287     0.523720
     0.846000   0.00189188    0.0212766     0.519587
     0.847000   0.00192434    0.0183264     0.515140
     0.848000   0.00198899    0.0160436     0.516876
     0.849000   0.00204831    0.0138680     0.511700
     0.850000   0.00212578    0.0120667     0.509290
     0.851000   0.00223089    0.0106275     0.511328
     0.852000   0.00233210   0.00919994     0.502600
     0.853000   0.00245124   0.00800191     0.494651
     0.854000   0.00259956   0.00714002     0.496241
     0.855000   0.00281772   0.00635057     0.496937
     0.856000   0.00304920   0.00563281     0.494963
     0.857000   0.00337653   0.00513570     0.505465
     0.858000   0.00369690   0.00463883     0.509157
     0.859000   0.00401718   0.00411271     0.499599
     0.860000   0.00481997   0.00368041     0.492230
     0.861000   0.00641160   0.00330186     0.488377
     0.862000   0.00727295   0.00299317     0.486530
     0.863000   0.00820156   0.00280689     0.485327
     0.864000   0.00921186   0.00256894     0.483282
     0.865000    0.0106370   0.00219673     0.481546
     0.866000    0.0122251   0.00191855     0.478548
     0.867000    0.0139507   0.00175304     0.471353
     0.868000    0.0161498   0.00162975     0.471541
     0.869000    0.0185446   0.00152433     0.470678
     0.870000    0.0206731   0.00140791     0.463104
     0.871000    0.0231385   0.00136740     0.463106
     0.872000    0.0259279   0.00128636     0.466518
     0.873000    0.0283393   0.00107550     0.464943
     0.874000    0.0302183  0.000927898     0.461657
     0.875000    0.0315157  0.000936215     0.458255
     0.876000    0.0320747  0.000886941     0.455795
     0.877000    0.0319232  0.000874342     0.453646
     0.878000    0.0311662  0.000834490     0.450762
     0.879000    0.0299871  0.000642132     0.450565
     0.880000    0.0284485  0.000562886     0.452246
     0.881000    0.0262766  0.000563604     0.450778
     0.882000    0.0233830  0.000557293     0.440741
     0.883000    0.0210516  0.000595889     0.438856
     0.884000    0.0189973  0.000580748     0.438985
     0.885000    0.0170075  0.000429161     0.435636
     0.886000    0.0151099  0.000367572     0.431028
     0.887000    0.0133848  0.000382798     0.429008
     0.888000    0.0120855  0.000428126     0.430396
     0.889000    0.0110375  0.000444070     0.433217
     0.890000   0.00999980  0.000327184     0.428855
     0.891000   0.00902751  0.000295759     0.421933
     0.892000   0.00806160  0.000335445     0.413677
     0.893000   0.00739714  0.000350568     0.412688
     0.894000   0.00695385  0.000227802     0.413730
     0.895000   0.00651439  0.000229841     0.412753
     0.896000   0.00602431  0.000313179     0.410816
     0.897000   0.00563065  0.000323309     0.409362
     0.898000   0.00531967  0.000218273     0.405003
     0.899000   0.00494208  0.000218356     0.399741
     0.900000   0.00465921  0.000214829     0.396921
     0.901000   0.00454742 9.29777e-005     0.397140
     0.902000   0.00446185  0.000116076     0.397251
     0.903000   0.00425140  0.000306686     0.394669
     0.904000   0.00408905  0.000377879     0.390238
     0.905000   0.00406961  0.000245989     0.384716
     0.906000   0.00408682 8.30007e-005     0.380101
     0.907000   0.00394097  0.000124322     0.376923
     0.908000   0.00375160  0.000169308     0.374926
     0.909000   0.00379355  0.000115787     0.372572
     0.910000   0.00393038  0.000165901     0.371186
     0.911000   0.00397397  0.000185194     0.367011
     0.912000   0.00394869 7.66988e-005     0.361807
     0.913000   0.00402381 9.90635e-005     0.358052
     0.914000   0.00426345  0.000167487     0.355730
     0.915000   0.00449576  0.000187187     0.354140
     0.916000   0.00453375  0.000133293     0.347991
     0.917000   0.00454840  0.000123215     0.342718
     0.918000   0.00474207 3.40906e-005     0.338506
     0.919000   0.00511170  0.000117128     0.336958
     0.920000   0.00544907  0.000163095     0.333736
     0.921000   0.00563906  0.000114369     0.329798
     0.922000   0.00579961  0.000101318     0.325868
     0.923000   0.00613671 4.94115e-005     0.324130
     0.924000   0.00649368  0.000116693     0.321830
     0.925000   0.00666737  0.000190915     0.316225
     0.926000   0.00689541 9.37843e-005     0.313825
     0.927000   0.00698139 2.39384e-005     0.309657
     0.928000   0.00692194  0.000109727     0.304960
     0.929000   0.00696453  0.000181216     0.301524
     0.930000   0.00699028  0.000125737     0.299785
     0.931000   0.00680808 2.17716e-005     0.297606
     0.932000   0.00647963     0.000000     0.293178
     0.933000   0.00617080 8.53011e-005     0.288508
     0.934000   0.00581692  0.000167412     0.284742
     0.935000   0.00546352 6.30952e-005     0.281219
     0.936000   0.00510704     0.000000     0.279565
     0.937000   0.00482460 6.84260e-005     0.277208
     0.938000   0.00453113  0.000109241     0.273216
     0.939000   0.00415715 6.36920e-005     0.269603
     0.940000   0.00382127 7.03520e-005     0.267653
     0.941000   0.00356696 5.33312e-005     0.263792
     0.942000   0.00334199  0.000105788     0.261818
     0.943000   0.00314938 3.87381e-005     0.257197
     0.944000   0.00290873     0.000000     0.254568
     0.945000   0.00269022  0.000104750     0.252122
     0.946000   0.00263042  0.000178607     0.250591
     0.947000   0.00261263 9.37514e-005     0.247985
     0.948000   0.00246388     0.000000     0.243801
     0.949000   0.00231747     0.000000     0.240642
     0.950000   0.00218514 7.02229e-005     0.237511
     0.951000   0.00220682  0.000176642     0.236134
     0.952000   0.00226367 9.81201e-005     0.233804
     0.953000   0.00218072     0.000000     0.230088
     0.954000   0.00209648     0.000000     0.227359
     0.955000   0.00206306 5.83214e-005     0.225908
     0.956000   0.00215017  0.000140125     0.223121
     0.957000   0.00221687 5.88668e-005     0.219502
     0.958000   0.00222645 3.63619e-005     0.217072
     0.959000   0.00224010 9.48840e-005     0.216414
     0.960000   0.00224886 4.32347e-005     0.214062
     0.961000   0.00238127     0.000000     0.210524
     0.962000   0.00256057 5.27041e-005     0.207869
     0.963000   0.00266604 3.47163e-005     0.206209
     0.964000   0.00272490 9.50355e-005     0.203283
     0.965000   0.00279817 3.39653e-005     0.200562
     0.966000   0.00292417 3.17823e-005     0.198374
     0.967000   0.00319553 7.65074e-005     0.196962
     0.968000   0.00344020 3.28069e-005     0.193663
     0.969000   0.00365554 2.48118e-005     0.192543
     0.970000   0.00380410 8.38405e-005     0.189052
     0.971000   0.00403278 3.23643e-005     0.187515
     0.972000   0.00431779 1.68309e-005     0.186191
     0.973000   0.00452020 8.56785e-005     0.184112
     0.974000   0.00467674 4.19043e-005     0.180797
     0.975000   0.00489825 4.14566e-005     0.178774
     0.976000   0.00499394 9.57673e-005     0.176900
     0.977000   0.00506325 5.09886e-005     0.175701
     0.978000   0.00509180     0.000000     0.173264
     0.979000   0.00496615     0.000000     0.170091
     0.980000   0.00482479 3.57125e-005     0.168309
     0.981000   0.00471037 3.13264e-005     0.166772
     0.982000   0.00446054 8.19593e-005     0.165101
     0.983000   0.00417290 4.55963e-005     0.162805
     0.984000   0.00388254 1.52211e-005     0.159989
     0.985000   0.00367399 1.10306e-005     0.158480
     0.986000   0.00340994 6.04399e-005     0.157352
     0.987000   0.00315669 3.15048e-005     0.155158
     0.988000   0.00297574 4.25507e-005     0.152477
     0.989000   0.00274671 7.47763e-005     0.151143
     0.990000   0.00252961 4.43118e-005     0.149288
     0.991000   0.00236345 1.42605e-005     0.147537
     0.992000   0.00226324 1.82327e-005     0.145346
     0.993000   0.00210803 6.03050e-005     0.142926
     0.994000   0.00198580 3.06828e-005     0.141215
     0.995000   0.00194494 1.31948e-005     0.139219
     0.996000   0.00185107 1.56364e-005     0.137963
     0.997000   0.00174484 5.02861e-005     0.136258
     0.998000   0.00169257 2.21377e-005     0.134133
     0.999000   0.00167780 3.32130e-005     0.131956
      1.00000   0.00162036 7.88227e-005     0.130172
      1.00100   0.00155345 5.24752e-005     0.128304
      1.00200   0.00154187 2.75824e-005     0.126630
      1.00300   0.00157505 7.60643e-006     0.124825
      1.00400   0.00153687 1.56356e-005     0.123068
      1.00500   0.00150828 4.88725e-005     0.121330
      1.00600   0.00147346 2.05025e-005     0.119548
      1.00700   0.00147810 6.57203e-006     0.117855
      1.00800   0.00152897 2.55387e-005     0.116145
      1.00900   0.00152167 6.70788e-005     0.114371
      1.01000   0.00150379 4.61686e-005     0.112607
      1.01100   0.00149858 2.53027e-005     0.110921
      1.01200   0.00150330 1.54387e-005     0.109242
      1.01300   0.00156546 2.97190e-005     0.107513
      1.01400   0.00155076 6.05469e-005     0.105762
      1.01500   0.00153477 4.15238e-005     0.104072
      1.01600   0.00151025 2.13113e-005     0.102389
      1.01700   0.00150490 1.13041e-005     0.100699
      1.01800   0.00153557 2.71096e-005    0.0989889
      1.01900   0.00149748 5.28665e-005    0.0972643
      1.02000   0.00144930 4.07119e-005    0.0955983
      1.02100   0.00139286 2.27863e-005    0.0939172
      1.02200   0.00135671 1.23199e-005    0.0921937
      1.02300   0.00133679 2.57575e-005    0.0905111
      1.02400   0.00126342 4.89790e-005    0.0888326
      1.02500   0.00118257 3.35372e-005    0.0871546
      1.02600   0.00110661 2.27037e-005    0.0854606
      1.02700   0.00103616 1.41716e-005    0.0837766
      1.02800   0.00100028 2.97789e-005    0.0820794
      1.02900  0.000917947 5.24612e-005    0.0804171
      1.03000  0.000837468 4.07007e-005    0.0787216
      1.03100  0.000764253 2.79874e-005    0.0770402
      1.03200  0.000714871 1.76521e-005    0.0753606
      1.03300  0.000689068 1.01699e-005    0.0736897
      1.03400  0.000631881 2.53135e-005    0.0719839
      1.03500  0.000578838 4.46863e-005    0.0703155
      1.03600  0.000526270 3.97489e-005    0.0686436
      1.03700  0.000472294 2.97405e-005    0.0669648
      1.03800  0.000433951 1.45272e-005    0.0652799
      1.03900  0.000411352 1.14246e-005    0.0635924
      1.04000  0.000402086 2.84993e-005    0.0619243
      1.04100  0.000373274 4.53682e-005    0.0602482
      1.04200  0.000342322 4.14754e-005    0.0585778
      1.04300  0.000311761 3.39628e-005    0.0569130
      1.04400  0.000282449 2.46269e-005    0.0552494
      1.04500  0.000258042 1.35553e-005    0.0535865
      1.04600  0.000251066 1.11232e-005    0.0519231
      1.04700  0.000256515 2.76926e-005    0.0502610
      1.04800  0.000239137 4.18651e-005    0.0486136
      1.04900  0.000223881 3.80564e-005    0.0469675
      1.05000  0.000203695 3.12736e-005    0.0453324
